Fp1,Fp2,C3,C4,P7,P8,O1,O2,time_board,time_marker,marker
23147.332447449266,-104520.98155271789,26032.54032522921,-187500.02235174447,-187500.02235174447,-187500.02235174447,-187500.02235174447,-187500.02235174447,1730656577.1522408,1730656577.150621,2000
23121.85145877021,-104506.7211397554,26057.730741230334,-187500.02235174447,-187500.02235174447,-187500.02235174447,-187500.02235174447,-187500.02235174447,1730656577.156378,1730656577.150621,2000
23079.494903027404,-104520.13218642856,26052.5004330278,-187500.02235174447,-187500.02235174447,-187500.02235174447,-187500.02235174447,-187500.02235174447,1730656577.161455,1730656577.150621,2000
23163.984497068464,-104502.87663970908,26053.43920629492,-187500.02235174447,-187500.02235174447,-187500.02235174447,-187500.02235174447,-187500.02235174447,1730656577.16446,1730656577.150621,2000
23231.039730434382,-104481.418965032,26061.329372087643,-187500.02235174447,-187500.02235174447,-187500.02235174447,-187500.02235174447,-187500.02235174447,1730656577.1672196,1730656577.150621,2000
23213.11363138123,-104527.24004116537,26066.06794191217,-187500.02235174447,-187500.02235174447,-187500.02235174447,-187500.02235174447,-187500.02235174447,1730656577.172475,1730656577.150621,2000
23105.31116787329,-104527.48591035436,26068.593689035617,-187500.02235174447,-187500.02235174447,-187500.02235174447,-187500.02235174447,-187500.02235174447,1730656577.176434,1730656577.150621,2000
23104.059470183787,-104504.84359322114,26067.654915768497,-187500.02235174447,-187500.02235174447,-187500.02235174447,-187500.02235174447,-187500.02235174447,1730656577.1803849,1730656577.150621,2000
23112.19550516552,-104502.27314260878,26069.644221025017,-187500.02235174447,-187500.02235174447,-187500.02235174447,-187500.02235174447,-187500.02235174447,1730656577.184261,1730656577.150621,2000
22976.87804423309,-104587.3885854946,26074.13692166053,-187500.02235174447,-187500.02235174447,-187500.02235174447,-187500.02235174447,-187500.02235174447,1730656577.1893916,1730656577.150621,2000
22970.12781740759,-104549.2341577094,26046.35370330259,-187500.02235174447,-187500.02235174447,-187500.02235174447,-187500.02235174447,-187500.02235174447,1730656577.1922772,1730656577.150621,2000
23083.719382729458,-104514.34308461464,26045.05730212418,-187500.02235174447,-187500.02235174447,-187500.02235174447,-187500.02235174447,-187500.02235174447,1730656577.1953,1730656577.150621,2000
23090.31314734377,-104529.20699467744,26026.95238911538,-187500.02235174447,-187500.02235174447,-187500.02235174447,-187500.02235174447,-187500.02235174447,1730656577.2002783,1730656577.150621,2000
23034.545544927783,-104541.03106749427,26042.93388640093,-187500.02235174447,-187500.02235174447,-187500.02235174447,-187500.02235174447,-187500.02235174447,1730656577.2042985,1730656577.150621,2000
23021.44742267697,-104516.5112038268,26051.472252782853,-187500.02235174447,-187500.02235174447,-187500.02235174447,-187500.02235174447,-187500.02235174447,1730656577.2082932,1730656577.150621,2000
23009.9809777714,-104500.32854084118,26085.87158749957,-187500.02235174447,-187500.02235174447,-187500.02235174447,-187500.02235174447,-187500.02235174447,1730656577.212306,1730656577.150621,2000
23048.22481253443,-104499.12154664058,26041.97276138935,-187500.02235174447,-187500.02235174447,-187500.02235174447,-187500.02235174447,-187500.02235174447,1730656577.2163455,1730656577.150621,2000
23102.941882961022,-104513.65018053654,26001.247882991775,-187500.02235174447,-187500.02235174447,-187500.02235174447,-187500.02235174447,-187500.02235174447,1730656577.2193503,1730656577.150621,2000
23108.44041209703,-104504.6200757766,26050.48877602682,-187500.02235174447,-187500.02235174447,-187500.02235174447,-187500.02235174447,-187500.02235174447,1730656577.22534,1730656577.150621,2000
23135.2625054434,-104552.7210298444,26095.661651570997,-187500.02235174447,-187500.02235174447,-187500.02235174447,-187500.02235174447,-187500.02235174447,1730656577.2284143,1730656577.150621,2000
23157.99422955444,-104545.41200940752,26056.25552609629,-187500.02235174447,-187500.02235174447,-187500.02235174447,-187500.02235174447,-187500.02235174447,1730656577.232352,1730656577.150621,2000
23126.76884255038,-104488.6162267466,26044.945543401904,-187500.02235174447,-187500.02235174447,-187500.02235174447,-187500.02235174447,-187500.02235174447,1730656577.236374,1730656577.150621,2000
23049.118882312643,-104492.03604364826,26069.82303498066,-187500.02235174447,-187500.02235174447,-187500.02235174447,-187500.02235174447,-187500.02235174447,1730656577.2404015,1730656577.150621,2000
23128.132298962155,-104507.39169208903,26058.24483135281,-187500.02235174447,-187500.02235174447,-187500.02235174447,-187500.02235174447,-187500.02235174447,1730656577.243353,1730656577.150621,2000
23127.282932672853,-104530.52574760027,26068.03489542424,-187500.02235174447,-187500.02235174447,-187500.02235174447,-187500.02235174447,-187500.02235174447,1730656577.2473912,1730656577.150621,2000
23079.83017919424,-104527.19533767646,26051.53930801622,-187500.02235174447,-187500.02235174447,-187500.02235174447,-187500.02235174447,-187500.02235174447,1730656577.2514324,1730656577.150621,2000
23073.81755993576,-104483.27415982175,26040.452842766383,-187500.02235174447,-187500.02235174447,-187500.02235174447,-187500.02235174447,-187500.02235174447,1730656577.256376,1730656577.150621,2000
23142.34800843573,-104472.6570812055,26043.760900945774,-187500.02235174447,-187500.02235174447,-187500.02235174447,-187500.02235174447,-187500.02235174447,1730656577.2604084,1730656577.150621,2000
23196.662747462124,-104524.96016323092,26035.423700263946,-187500.02235174447,-187500.02235174447,-187500.02235174447,-187500.02235174447,-187500.02235174447,1730656577.2644384,1730656577.150621,2000
23057.433731250017,-104528.69290455496,26097.136866705045,-187500.02235174447,-187500.02235174447,-187500.02235174447,-187500.02235174447,-187500.02235174447,1730656577.2684171,1730656577.150621,2000
22925.87136338608,-104495.38880531656,26089.224349167867,-187500.02235174447,-187500.02235174447,-187500.02235174447,-187500.02235174447,-187500.02235174447,1730656577.2714796,1730656577.150621,2000
22964.316363849208,-104525.2730876533,26023.95725535837,-187500.02235174447,-187500.02235174447,-187500.02235174447,-187500.02235174447,-187500.02235174447,1730656577.2753935,1730656577.150621,2000
23105.735851017937,-104542.3274686727,25988.21681597433,-187500.02235174447,-187500.02235174447,-187500.02235174447,-187500.02235174447,-187500.02235174447,1730656577.279426,1730656577.150621,2000
23178.15550305313,-104508.75514850084,26038.73175844333,-187500.02235174447,-187500.02235174447,-187500.02235174447,-187500.02235174447,-187500.02235174447,1730656577.2834249,1730656577.150621,2000
23029.35994021415,-104508.97866594538,26094.4099538815,-187500.02235174447,-187500.02235174447,-187500.02235174447,-187500.02235174447,-187500.02235174447,1730656577.2884347,1730656577.150621,2000
22950.63709624256,-104540.0699424827,26047.046607380704,-187500.02235174447,-187500.02235174447,-187500.02235174447,-187500.02235174447,-187500.02235174447,1730656577.2934313,1730656577.150621,2000
23016.731204596905,-104517.44997709394,25999.99618530228,-187500.02235174447,-187500.02235174447,-187500.02235174447,-187500.02235174447,-187500.02235174447,1730656577.297459,1730656577.150621,2000
23085.753391474893,-104512.84551773616,26042.15157534499,-187500.02235174447,-187500.02235174447,-187500.02235174447,-187500.02235174447,-187500.02235174447,1730656577.30047,1730656577.150621,2000
23085.06048739677,-104581.39831798058,26045.28081956873,-187500.02235174447,-187500.02235174447,-187500.02235174447,-187500.02235174447,-187500.02235174447,1730656577.304502,1730656577.150621,2000
23028.26470473584,-104537.96887850392,26041.078691611136,-187500.02235174447,-187500.02235174447,-187500.02235174447,-187500.02235174447,-187500.02235174447,1730656577.307544,1730656577.150621,2000
23048.291867767795,-104537.25362268134,26040.318732299656,-187500.02235174447,-187500.02235174447,-187500.02235174447,-187500.02235174447,-187500.02235174447,1730656577.3114903,1730656577.150621,2000
23085.306356585785,-104568.16608526304,26066.783197734738,-187500.02235174447,-187500.02235174447,-187500.02235174447,-187500.02235174447,-187500.02235174447,1730656577.3165183,1730656577.150621,2000
23077.17032160405,-104543.3332971732,26048.03008413673,-187500.02235174447,-187500.02235174447,-187500.02235174447,-187500.02235174447,-187500.02235174447,1730656577.3205533,1730656577.150621,2000
23071.537682001315,-104567.29436722927,26058.960087175383,-187500.02235174447,-187500.02235174447,-187500.02235174447,-187500.02235174447,-187500.02235174447,1730656577.323529,1730656577.150621,2000
23068.028458121837,-104560.83471308168,26055.607325507084,-187500.02235174447,-187500.02235174447,-187500.02235174447,-187500.02235174447,-187500.02235174447,1730656577.3274784,1730656577.150621,2000
23055.13150157112,-104551.87166355512,26039.78229043273,-187500.02235174447,-187500.02235174447,-187500.02235174447,-187500.02235174447,-187500.02235174447,1730656577.3315024,1730656577.150621,2000
23062.507577241373,-104572.32350973172,26033.255581051777,-187500.02235174447,-187500.02235174447,-187500.02235174447,-187500.02235174447,-187500.02235174447,1730656577.3356528,1730656577.150621,2000
23111.681415043047,-104621.96673416696,26032.00388336228,-187500.02235174447,-187500.02235174447,-187500.02235174447,-187500.02235174447,-187500.02235174447,1730656577.3395853,1730656577.150621,2000
23142.929153791567,-104572.09999228716,26035.311941541662,-187500.02235174447,-187500.02235174447,-187500.02235174447,-187500.02235174447,-187500.02235174447,1730656577.3445404,1730656577.150621,2000
23123.594894837726,-104560.58884389268,26055.78613946273,-187500.02235174447,-187500.02235174447,-187500.02235174447,-187500.02235174447,-187500.02235174447,1730656577.3485415,1730656577.150621,2000
23050.52704221333,-104586.24864652735,26065.978534934347,-187500.02235174447,-187500.02235174447,-187500.02235174447,-187500.02235174447,-187500.02235174447,1730656577.3516688,1730656577.150621,2000
22970.910128463525,-104596.64220769909,26080.37305836357,-187500.02235174447,-187500.02235174447,-187500.02235174447,-187500.02235174447,-187500.02235174447,1730656577.35558,1730656577.150621,2000
23023.2355622334,-104588.2379517839,26064.12334014456,-187500.02235174447,-187500.02235174447,-187500.02235174447,-187500.02235174447,-187500.02235174447,1730656577.3595328,1730656577.150621,2000
23071.157702345576,-104594.92112337604,26054.601497006595,-187500.02235174447,-187500.02235174447,-187500.02235174447,-187500.02235174447,-187500.02235174447,1730656577.3635583,1730656577.150621,2000
23083.07118214025,-104626.32532433576,26035.49075549731,-187500.02235174447,-187500.02235174447,-187500.02235174447,-187500.02235174447,-187500.02235174447,1730656577.3675532,1730656577.150621,2000
23073.95167040249,-104649.705249036,26035.2448863083,-187500.02235174447,-187500.02235174447,-187500.02235174447,-187500.02235174447,-187500.02235174447,1730656577.371699,1730656577.150621,2000
23068.542548244302,-104589.78022215133,26077.690849028928,-187500.02235174447,-187500.02235174447,-187500.02235174447,-187500.02235174447,-187500.02235174447,1730656577.3766713,1730656577.150621,2000
23071.13535060112,-104583.52173370383,26088.911424745493,-187500.02235174447,-187500.02235174447,-187500.02235174447,-187500.02235174447,-187500.02235174447,1730656577.3796852,1730656577.150621,2000
23073.23641457992,-104615.30591431928,26071.09708441461,-187500.02235174447,-187500.02235174447,-187500.02235174447,-187500.02235174447,-187500.02235174447,1730656577.3846114,1730656577.150621,2000
23080.254862338887,-104667.6536998336,26042.330389300638,-187500.02235174447,-187500.02235174447,-187500.02235174447,-187500.02235174447,-187500.02235174447,1730656577.3876133,1730656577.150621,2000
23076.455065781483,-104618.94924866548,26062.31284884368,-187500.02235174447,-187500.02235174447,-187500.02235174447,-187500.02235174447,-187500.02235174447,1730656577.3915913,1730656577.150621,2000
23057.85841439467,-104601.55959147926,26076.327392617157,-187500.02235174447,-187500.02235174447,-187500.02235174447,-187500.02235174447,-187500.02235174447,1730656577.395698,1730656577.150621,2000
23061.92643188553,-104588.21560003945,26099.52850336176,-187500.02235174447,-187500.02235174447,-187500.02235174447,-187500.02235174447,-187500.02235174447,1730656577.3996117,1730656577.150621,2000
23062.105245841176,-104571.72001263144,26053.953296417392,-187500.02235174447,-187500.02235174447,-187500.02235174447,-187500.02235174447,-187500.02235174447,1730656577.4046717,1730656577.150621,2000
23079.204330349487,-104573.01641380983,26019.665720422952,-187500.02235174447,-187500.02235174447,-187500.02235174447,-187500.02235174447,-187500.02235174447,1730656577.407668,1730656577.150621,2000
23089.53083628784,-104567.80845735174,26027.846458893597,-187500.02235174447,-187500.02235174447,-187500.02235174447,-187500.02235174447,-187500.02235174447,1730656577.4116504,1730656577.150621,2000
23102.0031096939,-104582.7394226479,26047.471290525355,-187500.02235174447,-187500.02235174447,-187500.02235174447,-187500.02235174447,-187500.02235174447,1730656577.4156237,1730656577.150621,2000
23095.20817937949,-104576.2350650114,26081.557700819696,-187500.02235174447,-187500.02235174447,-187500.02235174447,-187500.02235174447,-187500.02235174447,1730656577.4196773,1730656577.150621,2000
23074.309298313776,-104574.75984987734,26081.289479886236,-187500.02235174447,-187500.02235174447,-187500.02235174447,-187500.02235174447,-187500.02235174447,1730656577.423663,1730656577.150621,2000
23079.0478681383,-104589.75787040686,26062.49166279932,-187500.02235174447,-187500.02235174447,-187500.02235174447,-187500.02235174447,-187500.02235174447,1730656577.4287052,1730656577.150621,2000
23075.42688553654,-104629.61103077068,26044.565563746164,-187500.02235174447,-187500.02235174447,-187500.02235174447,-187500.02235174447,-187500.02235174447,1730656577.431678,1730656577.150621,2000
23075.98567914792,-104607.438100271,26051.695770227405,-187500.02235174447,-187500.02235174447,-187500.02235174447,-187500.02235174447,-187500.02235174447,1730656577.4347456,1730656577.150621,2000
23083.07118214025,-104582.694719159,26096.756887049305,-187500.02235174447,-187500.02235174447,-187500.02235174447,-187500.02235174447,-187500.02235174447,1730656577.4397323,1730656577.150621,2000
23067.51436799936,-104599.65969320056,26082.45177059791,-187500.02235174447,-187500.02235174447,-187500.02235174447,-187500.02235174447,-187500.02235174447,1730656577.4437008,1730656577.150621,2000
23076.656231481586,-104599.95026587848,26068.90661345799,-187500.02235174447,-187500.02235174447,-187500.02235174447,-187500.02235174447,-187500.02235174447,1730656577.4477286,1730656577.150621,2000
23094.694089257013,-104580.95128309146,26069.800683236204,-187500.02235174447,-187500.02235174447,-187500.02235174447,-187500.02235174447,-187500.02235174447,1730656577.4517562,1730656577.150621,2000
23089.06144965428,-104643.4020570996,26061.68699999893,-187500.02235174447,-187500.02235174447,-187500.02235174447,-187500.02235174447,-187500.02235174447,1730656577.4567404,1730656577.150621,2000
23079.383144305128,-104678.02490926089,26081.64710779752,-187500.02235174447,-187500.02235174447,-187500.02235174447,-187500.02235174447,-187500.02235174447,1730656577.4597216,1730656577.150621,2000
23073.57169074675,-104610.90262066158,26111.93372153446,-187500.02235174447,-187500.02235174447,-187500.02235174447,-187500.02235174447,-187500.02235174447,1730656577.4627328,1730656577.150621,2000
23083.80878970728,-104616.78112945332,26110.83848605615,-187500.02235174447,-187500.02235174447,-187500.02235174447,-187500.02235174447,-187500.02235174447,1730656577.467775,1730656577.150621,2000
23090.447257810505,-104600.82198391225,26063.475139555358,-187500.02235174447,-187500.02235174447,-187500.02235174447,-187500.02235174447,-187500.02235174447,1730656577.4717464,1730656577.150621,2000
23109.62505455316,-104602.7442339354,26077.802607751204,-187500.02235174447,-187500.02235174447,-187500.02235174447,-187500.02235174447,-187500.02235174447,1730656577.475738,1730656577.150621,2000
23100.505542815397,-104609.9861991389,26083.54700607622,-187500.02235174447,-187500.02235174447,-187500.02235174447,-187500.02235174447,-187500.02235174447,1730656577.4797769,1730656577.150621,2000
23083.07118214025,-104603.41478626904,26047.694807969907,-187500.02235174447,-187500.02235174447,-187500.02235174447,-187500.02235174447,-187500.02235174447,1730656577.484806,1730656577.150621,2000
23093.509446800883,-104594.45173674249,26050.466424282364,-187500.02235174447,-187500.02235174447,-187500.02235174447,-187500.02235174447,-187500.02235174447,1730656577.4878,1730656577.150621,2000
23101.936054460533,-104616.71407421996,26060.144729631516,-187500.02235174447,-187500.02235174447,-187500.02235174447,-187500.02235174447,-187500.02235174447,1730656577.4907968,1730656577.150621,2000
23100.349080604206,-104609.7850334388,26055.94260167392,-187500.02235174447,-187500.02235174447,-187500.02235174447,-187500.02235174447,-187500.02235174447,1730656577.4947903,1730656577.150621,2000
23090.491961299416,-104607.54985899328,26084.575186321163,-187500.02235174447,-187500.02235174447,-187500.02235174447,-187500.02235174447,-187500.02235174447,1730656577.499788,1730656577.150621,2000
23093.554150289798,-104632.58381278322,26084.55283457671,-187500.02235174447,-187500.02235174447,-187500.02235174447,-187500.02235174447,-187500.02235174447,1730656577.5037825,1730656577.150621,2000
23094.738792745924,-104602.76658567984,26032.89795314049,-187500.02235174447,-187500.02235174447,-187500.02235174447,-187500.02235174447,-187500.02235174447,1730656577.507789,1730656577.150621,2000
23092.637728767128,-104573.66461439904,26039.983456132824,-187500.02235174447,-187500.02235174447,-187500.02235174447,-187500.02235174447,-187500.02235174447,1730656577.510774,1730656577.150621,2000
23103.85830448369,-104619.01630389884,26092.24183466933,-187500.02235174447,-187500.02235174447,-187500.02235174447,-187500.02235174447,-187500.02235174447,1730656577.5168493,1730656577.150621,2000
23106.540513818327,-104627.10763539169,26115.4652971584,-187500.02235174447,-187500.02235174447,-187500.02235174447,-187500.02235174447,-187500.02235174447,1730656577.5198176,1730656577.150621,2000
23098.11390615868,-104602.7889374243,26068.21370937988,-187500.02235174447,-187500.02235174447,-187500.02235174447,-187500.02235174447,-187500.02235174447,1730656577.5238156,1730656577.150621,2000
23100.259673626384,-104606.76754793734,26039.648179966,-187500.02235174447,-187500.02235174447,-187500.02235174447,-187500.02235174447,-187500.02235174447,1730656577.5278423,1730656577.150621,2000
23101.131391660143,-104613.3389608072,26050.98051440484,-187500.02235174447,-187500.02235174447,-187500.02235174447,-187500.02235174447,-187500.02235174447,1730656577.533841,1730656577.150621,2000
23091.76601073337,-104582.67236741452,26094.96874749288,-187500.02235174447,-187500.02235174447,-187500.02235174447,-187500.02235174447,-187500.02235174447,1730656577.5368807,1730656577.150621,2000
23083.629975751635,-104565.19330325047,26106.59165460964,-187500.02235174447,-187500.02235174447,-187500.02235174447,-187500.02235174447,-187500.02235174447,1730656577.5408263,1730656577.150621,2000
23086.558054275283,-104586.24864652735,26079.233119396344,-187500.02235174447,-187500.02235174447,-187500.02235174447,-187500.02235174447,-187500.02235174447,1730656577.543846,1730656577.150621,2000
23096.48222881344,-104591.72482391892,26086.653898555505,-187500.02235174447,-187500.02235174447,-187500.02235174447,-187500.02235174447,-187500.02235174447,1730656577.547855,1730656577.150621,2000
23096.884560213635,-104595.25639954286,26088.240872411832,-187500.02235174447,-187500.02235174447,-187500.02235174447,-187500.02235174447,-187500.02235174447,1730656577.5518975,1730656577.150621,2000
23109.96033071999,-104574.62573941062,26049.92998241544,-187500.02235174447,-187500.02235174447,-187500.02235174447,-187500.02235174447,-187500.02235174447,1730656577.5549035,1730656577.150621,2000
23089.307318843286,-104585.0863558157,26056.97078191886,-187500.02235174447,-187500.02235174447,-187500.02235174447,-187500.02235174447,-187500.02235174447,1730656577.558888,1730656577.150621,2000
23070.42009477855,-104596.59750421018,26088.12911368956,-187500.02235174447,-187500.02235174447,-187500.02235174447,-187500.02235174447,-187500.02235174447,1730656577.5628626,1730656577.150621,2000
23097.26453986937,-104620.06683588824,26085.133979932547,-187500.02235174447,-187500.02235174447,-187500.02235174447,-187500.02235174447,-187500.02235174447,1730656577.566916,1730656577.150621,2000
23093.129467145143,-104600.03967285628,26072.281726870744,-187500.02235174447,-187500.02235174447,-187500.02235174447,-187500.02235174447,-187500.02235174447,1730656577.5719452,1730656577.150621,2000
23107.85926674119,-104578.96197783494,26057.529575530243,-187500.02235174447,-187500.02235174447,-187500.02235174447,-187500.02235174447,-187500.02235174447,1730656577.5758996,1730656577.150621,2000
23109.04390919732,-104622.57023126724,26052.165156860967,-187500.02235174447,-187500.02235174447,-187500.02235174447,-187500.02235174447,-187500.02235174447,1730656577.5789351,1730656577.150621,2000
23095.34228984622,-104635.86951921816,26070.31477335868,-187500.02235174447,-187500.02235174447,-187500.02235174447,-187500.02235174447,-187500.02235174447,1730656577.5829437,1730656577.150621,2000
23092.637728767128,-104628.31462959226,26059.58593602013,-187500.02235174447,-187500.02235174447,-187500.02235174447,-187500.02235174447,-187500.02235174447,1730656577.58697,1730656577.150621,2000
23103.72419401696,-104587.09801281668,26067.23023262385,-187500.02235174447,-187500.02235174447,-187500.02235174447,-187500.02235174447,-187500.02235174447,1730656577.5909443,1730656577.150621,2000
23121.00209248091,-104567.76375386283,26091.2583579133,-187500.02235174447,-187500.02235174447,-187500.02235174447,-187500.02235174447,-187500.02235174447,1730656577.5949812,1730656577.150621,2000
23105.62409229566,-104610.1426613501,26075.20980539439,-187500.02235174447,-187500.02235174447,-187500.02235174447,-187500.02235174447,-187500.02235174447,1730656577.5999718,1730656577.150621,2000
23097.53276080284,-104601.17961182352,26056.00965690728,-187500.02235174447,-187500.02235174447,-187500.02235174447,-187500.02235174447,-187500.02235174447,1730656577.6039648,1730656577.150621,2000
23096.593987535714,-104592.79770765276,26064.905651200494,-187500.02235174447,-187500.02235174447,-187500.02235174447,-187500.02235174447,-187500.02235174447,1730656577.6069584,1730656577.150621,2000
23094.068240412267,-104616.71407421996,26069.800683236204,-187500.02235174447,-187500.02235174447,-187500.02235174447,-187500.02235174447,-187500.02235174447,1730656577.610998,1730656577.150621,2000
23093.46474331197,-104560.14180900356,26073.801645493702,-187500.02235174447,-187500.02235174447,-187500.02235174447,-187500.02235174447,-187500.02235174447,1730656577.6149764,1730656577.150621,2000
23093.956481689987,-104583.94641684848,26074.98628794984,-187500.02235174447,-187500.02235174447,-187500.02235174447,-187500.02235174447,-187500.02235174447,1730656577.6190102,1730656577.150621,2000
23094.04588866781,-104601.38077752362,26062.13403488804,-187500.02235174447,-187500.02235174447,-187500.02235174447,-187500.02235174447,-187500.02235174447,1730656577.623021,1730656577.150621,2000
23116.755261034403,-104580.77246913585,26070.73945650333,-187500.02235174447,-187500.02235174447,-187500.02235174447,-187500.02235174447,-187500.02235174447,1730656577.6280265,1730656577.150621,2000
23093.688260756524,-104552.56456763322,26090.274881157267,-187500.02235174447,-187500.02235174447,-187500.02235174447,-187500.02235174447,-187500.02235174447,1730656577.632002,1730656577.150621,2000
23090.536664788327,-104576.90561734504,26067.006715179294,-187500.02235174447,-187500.02235174447,-187500.02235174447,-187500.02235174447,-187500.02235174447,1730656577.635034,1730656577.150621,2000
23096.437525324527,-104639.02111518636,26060.614116265075,-187500.02235174447,-187500.02235174447,-187500.02235174447,-187500.02235174447,-187500.02235174447,1730656577.6389804,1730656577.150621,2000
23091.34132758872,-104591.50130647435,26081.512997330785,-187500.02235174447,-187500.02235174447,-187500.02235174447,-187500.02235174447,-187500.02235174447,1730656577.6430106,1730656577.150621,2000
23084.702859485493,-104594.76466116484,26091.52657884676,-187500.02235174447,-187500.02235174447,-187500.02235174447,-187500.02235174447,-187500.02235174447,1730656577.6470191,1730656577.150621,2000
23084.05465889629,-104603.28067580232,26073.73459026034,-187500.02235174447,-187500.02235174447,-187500.02235174447,-187500.02235174447,-187500.02235174447,1730656577.6510336,1730656577.150621,2000
23096.7504497469,-104590.27196052932,26059.809453464684,-187500.02235174447,-187500.02235174447,-187500.02235174447,-187500.02235174447,-187500.02235174447,1730656577.6550584,1730656577.150621,2000
23096.34811834671,-104580.97363483591,26080.529520574757,-187500.02235174447,-187500.02235174447,-187500.02235174447,-187500.02235174447,-187500.02235174447,1730656577.6600926,1730656577.150621,2000
23088.36854557616,-104581.55478019176,26097.47214287188,-187500.02235174447,-187500.02235174447,-187500.02235174447,-187500.02235174447,-187500.02235174447,1730656577.6630757,1730656577.150621,2000
23085.19459786351,-104576.6820999005,26079.03195369625,-187500.02235174447,-187500.02235174447,-187500.02235174447,-187500.02235174447,-187500.02235174447,1730656577.66704,1730656577.150621,2000
23097.175132891552,-104606.67814095951,26062.13403488804,-187500.02235174447,-187500.02235174447,-187500.02235174447,-187500.02235174447,-187500.02235174447,1730656577.671389,1730656577.150621,2000
23102.316034116277,-104653.92972873805,26058.53540403073,-187500.02235174447,-187500.02235174447,-187500.02235174447,-187500.02235174447,-187500.02235174447,1730656577.6750865,1730656577.150621,2000
23098.829161981244,-104597.4915739884,26054.98147666234,-187500.02235174447,-187500.02235174447,-187500.02235174447,-187500.02235174447,-187500.02235174447,1730656577.6790926,1730656577.150621,2000
23097.219836380464,-104621.56440276676,26076.72972401735,-187500.02235174447,-187500.02235174447,-187500.02235174447,-187500.02235174447,-187500.02235174447,1730656577.684162,1730656577.150621,2000
23099.63382478164,-104625.40890281308,26071.722933259363,-187500.02235174447,-187500.02235174447,-187500.02235174447,-187500.02235174447,-187500.02235174447,1730656577.6871233,1730656577.150621,2000
23113.06722319928,-104606.29816130378,26064.100988400103,-187500.02235174447,-187500.02235174447,-187500.02235174447,-187500.02235174447,-187500.02235174447,1730656577.6901371,1730656577.150621,2000
23106.026423695854,-104597.62568445512,26062.22344186585,-187500.02235174447,-187500.02235174447,-187500.02235174447,-187500.02235174447,-187500.02235174447,1730656577.6951084,1730656577.150621,2000
23097.57746429175,-104587.96973085044,26073.533424560243,-187500.02235174447,-187500.02235174447,-187500.02235174447,-187500.02235174447,-187500.02235174447,1730656577.6991055,1730656577.150621,2000
23094.448220068007,-104572.12234403162,26095.86281727109,-187500.02235174447,-187500.02235174447,-187500.02235174447,-187500.02235174447,-187500.02235174447,1730656577.7033408,1730656577.150621,2000
23107.278121385352,-104611.05908287276,26093.96291899239,-187500.02235174447,-187500.02235174447,-187500.02235174447,-187500.02235174447,-187500.02235174447,1730656577.7070725,1730656577.150621,2000
23128.959313507,-104650.57696706976,26087.749134033817,-187500.02235174447,-187500.02235174447,-187500.02235174447,-187500.02235174447,-187500.02235174447,1730656577.7111895,1730656577.150621,2000
23087.586234520222,-104634.17078663956,26062.938697688427,-187500.02235174447,-187500.02235174447,-187500.02235174447,-187500.02235174447,-187500.02235174447,1730656577.7152112,1730656577.150621,2000
23076.67858322604,-104591.97069310793,26062.469311054865,-187500.02235174447,-187500.02235174447,-187500.02235174447,-187500.02235174447,-187500.02235174447,1730656577.7184377,1730656577.150621,2000
23092.79419097831,-104581.86770461414,26073.93575596044,-187500.02235174447,-187500.02235174447,-187500.02235174447,-187500.02235174447,-187500.02235174447,1730656577.7223732,1730656577.150621,2000
23097.8009817363,-104577.66557665654,26078.070828684668,-187500.02235174447,-187500.02235174447,-187500.02235174447,-187500.02235174447,-187500.02235174447,1730656577.727239,1730656577.150621,2000
23095.834028224235,-104613.69658871848,26070.717104758874,-187500.02235174447,-187500.02235174447,-187500.02235174447,-187500.02235174447,-187500.02235174447,1730656577.731217,1730656577.150621,2000
23090.71547874397,-104588.01443433936,26069.28659311373,-187500.02235174447,-187500.02235174447,-187500.02235174447,-187500.02235174447,-187500.02235174447,1730656577.7352853,1730656577.150621,2000
23093.91177820108,-104594.02705359782,26076.707372272896,-187500.02235174447,-187500.02235174447,-187500.02235174447,-187500.02235174447,-187500.02235174447,1730656577.739237,1730656577.150621,2000
23101.690185271524,-104599.32441703371,26079.34487811862,-187500.02235174447,-187500.02235174447,-187500.02235174447,-187500.02235174447,-187500.02235174447,1730656577.7432384,1730656577.150621,2000
23104.081821928245,-104596.86572514364,26080.529520574757,-187500.02235174447,-187500.02235174447,-187500.02235174447,-187500.02235174447,-187500.02235174447,1730656577.7462125,1730656577.150621,2000
23099.34325210372,-104640.22810938694,26072.43818908193,-187500.02235174447,-187500.02235174447,-187500.02235174447,-187500.02235174447,-187500.02235174447,1730656577.751232,1730656577.150621,2000
23088.07797289824,-104599.01149261136,26058.803624964195,-187500.02235174447,-187500.02235174447,-187500.02235174447,-187500.02235174447,-187500.02235174447,1730656577.7552142,1730656577.150621,2000
23094.51527530137,-104558.24191072489,26058.28953484172,-187500.02235174447,-187500.02235174447,-187500.02235174447,-187500.02235174447,-187500.02235174447,1730656577.7592585,1730656577.150621,2000
23098.270368369864,-104569.61894865264,26065.844424467618,-187500.02235174447,-187500.02235174447,-187500.02235174447,-187500.02235174447,-187500.02235174447,1730656577.7632296,1730656577.150621,2000
23110.317958631276,-104582.49355345887,26079.568395563176,-187500.02235174447,-187500.02235174447,-187500.02235174447,-187500.02235174447,-187500.02235174447,1730656577.766232,1730656577.150621,2000
23117.04583371232,-104580.4818964579,26076.014468194782,-187500.02235174447,-187500.02235174447,-187500.02235174447,-187500.02235174447,-187500.02235174447,1730656577.7702107,1730656577.150621,2000
23111.055566198294,-104578.64905341258,26074.67336352746,-187500.02235174447,-187500.02235174447,-187500.02235174447,-187500.02235174447,-187500.02235174447,1730656577.774228,1730656577.150621,2000
23094.984661934934,-104609.89679216107,26089.3584596346,-187500.02235174447,-187500.02235174447,-187500.02235174447,-187500.02235174447,-187500.02235174447,1730656577.7782528,1730656577.150621,2000
23100.505542815397,-104651.8510165037,26082.004735708804,-187500.02235174447,-187500.02235174447,-187500.02235174447,-187500.02235174447,-187500.02235174447,1730656577.7832556,1730656577.150621,2000
23102.450144583006,-104631.10859764916,26073.600479793608,-187500.02235174447,-187500.02235174447,-187500.02235174447,-187500.02235174447,-187500.02235174447,1730656577.7872584,1730656577.150621,2000
23096.01284217988,-104601.02314961232,26073.73459026034,-187500.02235174447,-187500.02235174447,-187500.02235174447,-187500.02235174447,-187500.02235174447,1730656577.7912605,1730656577.150621,2000
23081.1489321171,-104579.16314353504,26074.06986642717,-187500.02235174447,-187500.02235174447,-187500.02235174447,-187500.02235174447,-187500.02235174447,1730656577.7943864,1730656577.150621,2000
23087.76504847587,-104601.15726007908,26068.861909969084,-187500.02235174447,-187500.02235174447,-187500.02235174447,-187500.02235174447,-187500.02235174447,1730656577.7983787,1730656577.150621,2000
23100.12556315965,-104616.6470189866,26082.004735708804,-187500.02235174447,-187500.02235174447,-187500.02235174447,-187500.02235174447,-187500.02235174447,1730656577.8023207,1730656577.150621,2000
23104.28298762834,-104624.31366733476,26093.73940154784,-187500.02235174447,-187500.02235174447,-187500.02235174447,-187500.02235174447,-187500.02235174447,1730656577.8063796,1730656577.150621,2000
23099.589121292727,-104569.46248644144,26081.82592175316,-187500.02235174447,-187500.02235174447,-187500.02235174447,-187500.02235174447,-187500.02235174447,1730656577.8113778,1730656577.150621,2000
23108.68628128604,-104615.12710036364,26074.047514682712,-187500.02235174447,-187500.02235174447,-187500.02235174447,-187500.02235174447,-187500.02235174447,1730656577.8154252,1730656577.150621,2000
23125.874772772167,-104625.02892315733,26058.088369141624,-187500.02235174447,-187500.02235174447,-187500.02235174447,-187500.02235174447,-187500.02235174447,1730656577.8194778,1730656577.150621,2000
23113.58131332175,-104612.8472224292,26054.4003313065,-187500.02235174447,-187500.02235174447,-187500.02235174447,-187500.02235174447,-187500.02235174447,1730656577.8224812,1730656577.150621,2000
23094.15764739009,-104625.99004816893,26074.047514682712,-187500.02235174447,-187500.02235174447,-187500.02235174447,-187500.02235174447,-187500.02235174447,1730656577.8265283,1730656577.150621,2000
23087.2509583534,-104636.78594074084,26083.88228224305,-187500.02235174447,-187500.02235174447,-187500.02235174447,-187500.02235174447,-187500.02235174447,1730656577.8303957,1730656577.150621,2000
23088.65911825408,-104622.41376905606,26078.651974040506,-187500.02235174447,-187500.02235174447,-187500.02235174447,-187500.02235174447,-187500.02235174447,1730656577.834412,1730656577.150621,2000
23088.18973162052,-104624.53718477931,26069.39835183601,-187500.02235174447,-187500.02235174447,-187500.02235174447,-187500.02235174447,-187500.02235174447,1730656577.839363,1730656577.150621,2000
23103.45597308349,-104622.19025161152,26059.362418575576,-187500.02235174447,-187500.02235174447,-187500.02235174447,-187500.02235174447,-187500.02235174447,1730656577.8433523,1730656577.150621,2000
23110.943807476026,-104632.2485366164,26071.812340237186,-187500.02235174447,-187500.02235174447,-187500.02235174447,-187500.02235174447,-187500.02235174447,1730656577.8473582,1730656577.150621,2000
23099.43265908154,-104645.9948594564,26072.661706526484,-187500.02235174447,-187500.02235174447,-187500.02235174447,-187500.02235174447,-187500.02235174447,1730656577.8513503,1730656577.150621,2000
23095.364641590677,-104639.35639135318,26071.58882279263,-187500.02235174447,-187500.02235174447,-187500.02235174447,-187500.02235174447,-187500.02235174447,1730656577.8544097,1730656577.150621,2000
23094.783496234835,-104604.73353919192,26085.759828777296,-187500.02235174447,-187500.02235174447,-187500.02235174447,-187500.02235174447,-187500.02235174447,1730656577.8603854,1730656577.150621,2000
23089.106153143188,-104606.946361893,26077.713200773385,-187500.02235174447,-187500.02235174447,-187500.02235174447,-187500.02235174447,-187500.02235174447,1730656577.863459,1730656577.150621,2000
23100.81846723777,-104615.97646665294,26060.658819753982,-187500.02235174447,-187500.02235174447,-187500.02235174447,-187500.02235174447,-187500.02235174447,1730656577.86647,1730656577.150621,2000
23101.62313003816,-104580.99598658038,26054.82501445115,-187500.02235174447,-187500.02235174447,-187500.02235174447,-187500.02235174447,-187500.02235174447,1730656577.8714218,1730656577.150621,2000
23110.27325514236,-104599.99496936738,26073.93575596044,-187500.02235174447,-187500.02235174447,-187500.02235174447,-187500.02235174447,-187500.02235174447,1730656577.8743796,1730656577.150621,2000
23110.56382782028,-104635.04250467331,26089.805494523705,-187500.02235174447,-187500.02235174447,-187500.02235174447,-187500.02235174447,-187500.02235174447,1730656577.8784592,1730656577.150621,2000
23093.352984589696,-104593.17768730852,26102.2107126964,-187500.02235174447,-187500.02235174447,-187500.02235174447,-187500.02235174447,-187500.02235174447,1730656577.882429,1730656577.150621,2000
23085.90985368608,-104619.35158006568,26092.443000369432,-187500.02235174447,-187500.02235174447,-187500.02235174447,-187500.02235174447,-187500.02235174447,1730656577.886562,1730656577.150621,2000
23101.42196433806,-104612.55664975128,26051.74047371632,-187500.02235174447,-187500.02235174447,-187500.02235174447,-187500.02235174447,-187500.02235174447,1730656577.8904262,1730656577.150621,2000
23102.09251667172,-104601.693701946,26045.638447480014,-187500.02235174447,-187500.02235174447,-187500.02235174447,-187500.02235174447,-187500.02235174447,1730656577.8945086,1730656577.150621,2000
23101.779592249342,-104611.66257997304,26066.13499714553,-187500.02235174447,-187500.02235174447,-187500.02235174447,-187500.02235174447,-187500.02235174447,1730656577.8997428,1730656577.150621,2000
23105.31116787329,-104601.11255659016,26087.81618926718,-187500.02235174447,-187500.02235174447,-187500.02235174447,-187500.02235174447,-187500.02235174447,1730656577.9025767,1730656577.150621,2000
23094.33646134573,-104598.9891408669,26074.29338387172,-187500.02235174447,-187500.02235174447,-187500.02235174447,-187500.02235174447,-187500.02235174447,1730656577.9066155,1730656577.150621,2000
23103.7018422725,-104609.5391642498,26062.35755233259,-187500.02235174447,-187500.02235174447,-187500.02235174447,-187500.02235174447,-187500.02235174447,1730656577.9105167,1730656577.150621,2000
23102.137220160632,-104560.25356772586,26065.39738957851,-187500.02235174447,-187500.02235174447,-187500.02235174447,-187500.02235174447,-187500.02235174447,1730656577.9146452,1730656577.150621,2000
23101.08668817123,-104557.05726826876,26075.23215713885,-187500.02235174447,-187500.02235174447,-187500.02235174447,-187500.02235174447,-187500.02235174447,1730656577.9184952,1730656577.150621,2000
23101.265502126877,-104567.27201548482,26069.711276258386,-187500.02235174447,-187500.02235174447,-187500.02235174447,-187500.02235174447,-187500.02235174447,1730656577.922512,1730656577.150621,2000
23096.079897413245,-104576.41387896704,26067.856081468595,-187500.02235174447,-187500.02235174447,-187500.02235174447,-187500.02235174447,-187500.02235174447,1730656577.9275205,1730656577.150621,2000
23098.158609647588,-104597.58098096622,26068.705447757897,-187500.02235174447,-187500.02235174447,-187500.02235174447,-187500.02235174447,-187500.02235174447,1730656577.9305024,1730656577.150621,2000
23098.87386547016,-104602.87834440212,26063.653953510995,-187500.02235174447,-187500.02235174447,-187500.02235174447,-187500.02235174447,-187500.02235174447,1730656577.9345877,1730656577.150621,2000
23100.259673626384,-104576.52563768932,26065.08446515613,-187500.02235174447,-187500.02235174447,-187500.02235174447,-187500.02235174447,-187500.02235174447,1730656577.9385383,1730656577.150621,2000
23105.601740551203,-104602.45366125747,26074.49454957182,-187500.02235174447,-187500.02235174447,-187500.02235174447,-187500.02235174447,-187500.02235174447,1730656577.9425871,1730656577.150621,2000
23097.57746429175,-104622.05614114476,26068.25841286879,-187500.02235174447,-187500.02235174447,-187500.02235174447,-187500.02235174447,-187500.02235174447,1730656577.946544,1730656577.150621,2000
23102.15957190509,-104597.9833123664,26067.20788087939,-187500.02235174447,-187500.02235174447,-187500.02235174447,-187500.02235174447,-187500.02235174447,1730656577.9505243,1730656577.150621,2000
23098.404478836597,-104604.8452979142,26060.837633709627,-187500.02235174447,-187500.02235174447,-187500.02235174447,-187500.02235174447,-187500.02235174447,1730656577.9545715,1730656577.150621,2000
23096.70574625799,-104583.52173370383,26065.710314000884,-187500.02235174447,-187500.02235174447,-187500.02235174447,-187500.02235174447,-187500.02235174447,1730656577.9575224,1730656577.150621,2000
23094.694089257013,-104570.53537017528,26078.2049391514,-187500.02235174447,-187500.02235174447,-187500.02235174447,-187500.02235174447,-187500.02235174447,1730656577.9626129,1730656577.150621,2000
23109.04390919732,-104605.69466420347,26070.560642547687,-187500.02235174447,-187500.02235174447,-187500.02235174447,-187500.02235174447,-187500.02235174447,1730656577.966545,1730656577.150621,2000
23128.48992687344,-104660.74701079691,26064.16804363347,-187500.02235174447,-187500.02235174447,-187500.02235174447,-187500.02235174447,-187500.02235174447,1730656577.9705834,1730656577.150621,2000
23105.13235391764,-104701.22602000547,26075.47802632785,-187500.02235174447,-187500.02235174447,-187500.02235174447,-187500.02235174447,-187500.02235174447,1730656577.97465,1730656577.150621,2000
23082.847664695702,-104652.58862407072,26064.503319800297,-187500.02235174447,-187500.02235174447,-187500.02235174447,-187500.02235174447,-187500.02235174447,1730656577.9786704,1730656577.150621,2000
23085.9992606639,-104623.3525423232,26066.358514590087,-187500.02235174447,-187500.02235174447,-187500.02235174447,-187500.02235174447,-187500.02235174447,1730656577.981582,1730656577.150621,2000
23092.704784000493,-104636.2942023628,26069.44305532492,-187500.02235174447,-187500.02235174447,-187500.02235174447,-187500.02235174447,-187500.02235174447,1730656577.9855988,1730656577.150621,2000
23087.697993242506,-104639.28933611982,26060.97174417636,-187500.02235174447,-187500.02235174447,-187500.02235174447,-187500.02235174447,-187500.02235174447,1730656577.9896357,1730656577.150621,2000
23089.597891521204,-104658.89181600712,26067.58786053513,-187500.02235174447,-187500.02235174447,-187500.02235174447,-187500.02235174447,-187500.02235174447,1730656577.994653,1730656577.150621,2000
23094.22470262345,-104657.19308342852,26082.25060489781,-187500.02235174447,-187500.02235174447,-187500.02235174447,-187500.02235174447,-187500.02235174447,1730656577.9987724,1730656577.150621,2000
23104.685319028536,-104643.91614722207,26072.281726870744,-187500.02235174447,-187500.02235174447,-187500.02235174447,-187500.02235174447,-187500.02235174447,1730656578.0027337,1730656577.150621,2000
23096.25871136889,-104679.29895869482,26070.35947684759,-187500.02235174447,-187500.02235174447,-187500.02235174447,-187500.02235174447,-187500.02235174447,1730656578.0066764,1730656577.150621,2000
23090.536664788327,-104631.98031568291,26053.170985361456,-187500.02235174447,-187500.02235174447,-187500.02235174447,-187500.02235174447,-187500.02235174447,1730656578.0096447,1730656577.150621,2000
23099.81263873728,-104635.48953956242,26067.654915768497,-187500.02235174447,-187500.02235174447,-187500.02235174447,-187500.02235174447,-187500.02235174447,1730656578.0136735,1730656577.150621,2000
23099.589121292727,-104636.87534771864,26075.63448853904,-187500.02235174447,-187500.02235174447,-187500.02235174447,-187500.02235174447,-187500.02235174447,1730656578.0177815,1730656577.150621,2000
23094.91760670157,-104669.84417079022,26073.82399723816,-187500.02235174447,-187500.02235174447,-187500.02235174447,-187500.02235174447,-187500.02235174447,1730656578.0237746,1730656577.150621,2000
23094.627034023648,-104670.49237137944,26063.497491299808,-187500.02235174447,-187500.02235174447,-187500.02235174447,-187500.02235174447,-187500.02235174447,1730656578.0266583,1730656577.150621,2000
23089.75435373239,-104629.7451412374,26061.955220932392,-187500.02235174447,-187500.02235174447,-187500.02235174447,-187500.02235174447,-187500.02235174447,1730656578.0306728,1730656577.150621,2000
23089.26261535437,-104643.53616756632,26074.271032127268,-187500.02235174447,-187500.02235174447,-187500.02235174447,-187500.02235174447,-187500.02235174447,1730656578.0346937,1730656577.150621,2000
23089.799057221306,-104644.58669955572,26067.87843321305,-187500.02235174447,-187500.02235174447,-187500.02235174447,-187500.02235174447,-187500.02235174447,1730656578.0376935,1730656577.150621,2000
23100.326728859756,-104639.8481297312,26061.642296510017,-187500.02235174447,-187500.02235174447,-187500.02235174447,-187500.02235174447,-187500.02235174447,1730656578.0416796,1730656577.150621,2000
23113.089574943733,-104634.23784187292,26058.62481100855,-187500.02235174447,-187500.02235174447,-187500.02235174447,-187500.02235174447,-187500.02235174447,1730656578.0457225,1730656577.150621,2000
23114.58714182224,-104614.83652768572,26068.97366869136,-187500.02235174447,-187500.02235174447,-187500.02235174447,-187500.02235174447,-187500.02235174447,1730656578.0510352,1730656577.150621,2000
23102.874827727657,-104619.26217308786,26075.388619350037,-187500.02235174447,-187500.02235174447,-187500.02235174447,-187500.02235174447,-187500.02235174447,1730656578.054788,1730656577.150621,2000
23082.266519339864,-104640.71984776497,26075.0533431832,-187500.02235174447,-187500.02235174447,-187500.02235174447,-187500.02235174447,-187500.02235174447,1730656578.058726,1730656577.150621,2000
23086.356888575185,-104661.3505078972,26055.85319469609,-187500.02235174447,-187500.02235174447,-187500.02235174447,-187500.02235174447,-187500.02235174447,1730656578.061766,1730656577.150621,2000
23088.3014903428,-104638.01528668588,26055.71908422936,-187500.02235174447,-187500.02235174447,-187500.02235174447,-187500.02235174447,-187500.02235174447,1730656578.0657337,1730656577.150621,2000
23085.7980949638,-104618.41280679856,26065.710314000884,-187500.02235174447,-187500.02235174447,-187500.02235174447,-187500.02235174447,-187500.02235174447,1730656578.0698323,1730656577.150621,2000
23091.0507549108,-104627.93464993652,26066.470273312363,-187500.02235174447,-187500.02235174447,-187500.02235174447,-187500.02235174447,-187500.02235174447,1730656578.0738432,1730656577.150621,2000
23089.888464199124,-104618.9045451766,26059.54123253122,-187500.02235174447,-187500.02235174447,-187500.02235174447,-187500.02235174447,-187500.02235174447,1730656578.077728,1730656577.150621,2000
23090.93899618852,-104611.95315265098,26053.43920629492,-187500.02235174447,-187500.02235174447,-187500.02235174447,-187500.02235174447,-187500.02235174447,1730656578.082714,1730656577.150621,2000
23114.29656914432,-104605.06881535874,26066.67143901246,-187500.02235174447,-187500.02235174447,-187500.02235174447,-187500.02235174447,-187500.02235174447,1730656578.086786,1730656577.150621,2000
23114.43067961105,-104624.0901498902,26080.48481708584,-187500.02235174447,-187500.02235174447,-187500.02235174447,-187500.02235174447,-187500.02235174447,1730656578.0897706,1730656577.150621,2000
23095.85637996869,-104650.1075804362,26076.39444785052,-187500.02235174447,-187500.02235174447,-187500.02235174447,-187500.02235174447,-187500.02235174447,1730656578.0937753,1730656577.150621,2000
23087.988565920423,-104579.6325301686,26063.34102908862,-187500.02235174447,-187500.02235174447,-187500.02235174447,-187500.02235174447,-187500.02235174447,1730656578.0977728,1730656577.150621,2000
23095.47640031295,-104603.68300720252,26064.503319800297,-187500.02235174447,-187500.02235174447,-187500.02235174447,-187500.02235174447,-187500.02235174447,1730656578.1037889,1730656577.150621,2000
23093.06241191178,-104619.37393181014,26064.16804363347,-187500.02235174447,-187500.02235174447,-187500.02235174447,-187500.02235174447,-187500.02235174447,1730656578.1068332,1730656577.150621,2000
23094.135295645632,-104598.22918155542,26068.437226824437,-187500.02235174447,-187500.02235174447,-187500.02235174447,-187500.02235174447,-187500.02235174447,1730656578.1108563,1730656577.150621,2000
23099.63382478164,-104593.22239079744,26068.23606112433,-187500.02235174447,-187500.02235174447,-187500.02235174447,-187500.02235174447,-187500.02235174447,1730656578.115873,1730656577.150621,2000
23103.835952739235,-104609.00272238288,26062.89399419952,-187500.02235174447,-187500.02235174447,-187500.02235174447,-187500.02235174447,-187500.02235174447,1730656578.1198308,1730656577.150621,2000
23102.561903305283,-104644.58669955572,26061.329372087643,-187500.02235174447,-187500.02235174447,-187500.02235174447,-187500.02235174447,-187500.02235174447,1730656578.122851,1730656577.150621,2000
23085.06048739677,-104624.60424001268,26063.13986338853,-187500.02235174447,-187500.02235174447,-187500.02235174447,-187500.02235174447,-187500.02235174447,1730656578.1259265,1730656577.150621,2000
23087.876807198147,-104622.43612080051,26068.079598913147,-187500.02235174447,-187500.02235174447,-187500.02235174447,-187500.02235174447,-187500.02235174447,1730656578.1298769,1730656577.150621,2000
23097.1527811471,-104640.18340589805,26058.423645308456,-187500.02235174447,-187500.02235174447,-187500.02235174447,-187500.02235174447,-187500.02235174447,1730656578.1338608,1730656577.150621,2000
23112.933112732542,-104624.6936469905,26061.016447665268,-187500.02235174447,-187500.02235174447,-187500.02235174447,-187500.02235174447,-187500.02235174447,1730656578.13888,1730656577.150621,2000
23109.736813275435,-104631.46622556046,26068.325468102157,-187500.02235174447,-187500.02235174447,-187500.02235174447,-187500.02235174447,-187500.02235174447,1730656578.1428585,1730656577.150621,2000
23088.681469998537,-104651.71690603696,26070.292421614224,-187500.02235174447,-187500.02235174447,-187500.02235174447,-187500.02235174447,-187500.02235174447,1730656578.1458354,1730656577.150621,2000
23087.76504847587,-104641.07747567624,26075.567433305678,-187500.02235174447,-187500.02235174447,-187500.02235174447,-187500.02235174447,-187500.02235174447,1730656578.1498857,1730656577.150621,2000
23085.9992606639,-104585.91337036056,26072.03585768173,-187500.02235174447,-187500.02235174447,-187500.02235174447,-187500.02235174447,-187500.02235174447,1730656578.1538692,1730656577.150621,2000
23095.364641590677,-104600.01732111184,26060.1000261426,-187500.02235174447,-187500.02235174447,-187500.02235174447,-187500.02235174447,-187500.02235174447,1730656578.1578248,1730656577.150621,2000
23103.14304866112,-104640.85395823167,26060.770578476266,-187500.02235174447,-187500.02235174447,-187500.02235174447,-187500.02235174447,-187500.02235174447,1730656578.1618824,1730656577.150621,2000
23106.942845218524,-104653.9520804825,26064.928002944947,-187500.02235174447,-187500.02235174447,-187500.02235174447,-187500.02235174447,-187500.02235174447,1730656578.1668794,1730656577.150621,2000
23096.795153235813,-104643.06678093276,26064.056284911192,-187500.02235174447,-187500.02235174447,-187500.02235174447,-187500.02235174447,-187500.02235174447,1730656578.1698854,1730656577.150621,2000
23091.743658988915,-104585.46633547144,26063.16221513298,-187500.02235174447,-187500.02235174447,-187500.02235174447,-187500.02235174447,-187500.02235174447,1730656578.1738987,1730656577.150621,2000
23102.96423470548,-104613.11544336264,26068.593689035617,-187500.02235174447,-187500.02235174447,-187500.02235174447,-187500.02235174447,-187500.02235174447,1730656578.1779191,1730656577.150621,2000
23119.32571164676,-104615.75294920838,26060.859985454084,-187500.02235174447,-187500.02235174447,-187500.02235174447,-187500.02235174447,-187500.02235174447,1730656578.1818905,1730656577.150621,2000
23114.81065926679,-104594.40703325356,26064.88329945604,-187500.02235174447,-187500.02235174447,-187500.02235174447,-187500.02235174447,-187500.02235174447,1730656578.185938,1730656577.150621,2000
23097.085725913734,-104637.85882447468,26081.20007290841,-187500.02235174447,-187500.02235174447,-187500.02235174447,-187500.02235174447,-187500.02235174447,1730656578.1899364,1730656577.150621,2000
23085.596929263706,-104656.27666190584,26071.43236058144,-187500.02235174447,-187500.02235174447,-187500.02235174447,-187500.02235174447,-187500.02235174447,1730656578.1949332,1730656577.150621,2000
23093.84472296771,-104651.96277522598,26063.2516221108,-187500.02235174447,-187500.02235174447,-187500.02235174447,-187500.02235174447,-187500.02235174447,1730656578.1979609,1730656577.150621,2000
23095.588159035226,-104645.48076933394,26069.376000091557,-187500.02235174447,-187500.02235174447,-187500.02235174447,-187500.02235174447,-187500.02235174447,1730656578.2012243,1730656577.150621,2000
23094.29175785682,-104650.06287694728,26066.91730820147,-187500.02235174447,-187500.02235174447,-187500.02235174447,-187500.02235174447,-187500.02235174447,1730656578.2059753,1730656577.150621,2000
23100.05850792629,-104663.07159222028,26066.2020523789,-187500.02235174447,-187500.02235174447,-187500.02235174447,-187500.02235174447,-187500.02235174447,1730656578.209952,1730656577.150621,2000
23092.883597956134,-104651.29222289233,26068.34781984661,-187500.02235174447,-187500.02235174447,-187500.02235174447,-187500.02235174447,-187500.02235174447,1730656578.213972,1730656577.150621,2000
23092.324804344757,-104639.82577798674,26074.11456991608,-187500.02235174447,-187500.02235174447,-187500.02235174447,-187500.02235174447,-187500.02235174447,1730656578.218021,1730656577.150621,2000
23090.491961299416,-104651.73925778142,26076.193282150423,-187500.02235174447,-187500.02235174447,-187500.02235174447,-187500.02235174447,-187500.02235174447,1730656578.2229724,1730656577.150621,2000
23093.576502034248,-104653.192121171,26072.460540826385,-187500.02235174447,-187500.02235174447,-187500.02235174447,-187500.02235174447,-187500.02235174447,1730656578.226137,1730656577.150621,2000
23095.789324735324,-104645.77134201184,26075.23215713885,-187500.02235174447,-187500.02235174447,-187500.02235174447,-187500.02235174447,-187500.02235174447,1730656578.228995,1730656577.150621,2000
23098.158609647588,-104618.9939521544,26068.146654146512,-187500.02235174447,-187500.02235174447,-187500.02235174447,-187500.02235174447,-187500.02235174447,1730656578.234072,1730656577.150621,2000
23102.96423470548,-104655.38259212764,26065.62090702306,-187500.02235174447,-187500.02235174447,-187500.02235174447,-187500.02235174447,-187500.02235174447,1730656578.2380164,1730656577.150621,2000
23096.34811834671,-104673.39809815862,26057.708389485884,-187500.02235174447,-187500.02235174447,-187500.02235174447,-187500.02235174447,-187500.02235174447,1730656578.241985,1730656577.150621,2000
23101.019632937867,-104633.56728953926,26064.905651200494,-187500.02235174447,-187500.02235174447,-187500.02235174447,-187500.02235174447,-187500.02235174447,1730656578.2460227,1730656577.150621,2000
23101.75724050489,-104634.86369071768,26066.26910761227,-187500.02235174447,-187500.02235174447,-187500.02235174447,-187500.02235174447,-187500.02235174447,1730656578.2490056,1730656577.150621,2000
23099.499714314905,-104643.4020570996,26056.41198830748,-187500.02235174447,-187500.02235174447,-187500.02235174447,-187500.02235174447,-187500.02235174447,1730656578.253036,1730656577.150621,2000
23100.505542815397,-104682.8081825743,26063.78806397773,-187500.02235174447,-187500.02235174447,-187500.02235174447,-187500.02235174447,-187500.02235174447,1730656578.257049,1730656577.150621,2000
23098.71740325897,-104690.74305185594,26063.877470955547,-187500.02235174447,-187500.02235174447,-187500.02235174447,-187500.02235174447,-187500.02235174447,1730656578.261036,1730656577.150621,2000
23094.559978790283,-104645.57017631175,26064.525671544758,-187500.02235174447,-187500.02235174447,-187500.02235174447,-187500.02235174447,-187500.02235174447,1730656578.266026,1730656577.150621,2000
23096.70574625799,-104642.55269081028,26062.715180243875,-187500.02235174447,-187500.02235174447,-187500.02235174447,-187500.02235174447,-187500.02235174447,1730656578.2700627,1730656577.150621,2000
23096.7504497469,-104617.02699864234,26058.960087175383,-187500.02235174447,-187500.02235174447,-187500.02235174447,-187500.02235174447,-187500.02235174447,1730656578.2741451,1730656577.150621,2000
23098.42683058105,-104635.57894654023,26065.755017489795,-187500.02235174447,-187500.02235174447,-187500.02235174447,-187500.02235174447,-187500.02235174447,1730656578.2770574,1730656577.150621,2000
23102.33838586073,-104631.95796393848,26061.329372087643,-187500.02235174447,-187500.02235174447,-187500.02235174447,-187500.02235174447,-187500.02235174447,1730656578.2810488,1730656577.150621,2000
23104.7523742619,-104619.66450448806,26068.012543679783,-187500.02235174447,-187500.02235174447,-187500.02235174447,-187500.02235174447,-187500.02235174447,1730656578.285087,1730656577.150621,2000
23096.7504497469,-104606.81225142624,26069.30894485819,-187500.02235174447,-187500.02235174447,-187500.02235174447,-187500.02235174447,-187500.02235174447,1730656578.2890916,1730656577.150621,2000
23094.135295645632,-104668.99480450092,26062.78223547724,-187500.02235174447,-187500.02235174447,-187500.02235174447,-187500.02235174447,-187500.02235174447,1730656578.2941427,1730656577.150621,2000
23093.84472296771,-104606.1416990926,26064.59272677812,-187500.02235174447,-187500.02235174447,-187500.02235174447,-187500.02235174447,-187500.02235174447,1730656578.298107,1730656577.150621,2000
23096.795153235813,-104600.30789378977,26068.951316946903,-187500.02235174447,-187500.02235174447,-187500.02235174447,-187500.02235174447,-187500.02235174447,1730656578.302158,1730656577.150621,2000
23098.60564453669,-104594.96582686497,26067.58786053513,-187500.02235174447,-187500.02235174447,-187500.02235174447,-187500.02235174447,-187500.02235174447,1730656578.3061347,1730656577.150621,2000
23098.62799628115,-104596.95513212148,26067.319639601665,-187500.02235174447,-187500.02235174447,-187500.02235174447,-187500.02235174447,-187500.02235174447,1730656578.3101702,1730656577.150621,2000
23097.82333348076,-104606.27580955932,26075.50037807231,-187500.02235174447,-187500.02235174447,-187500.02235174447,-187500.02235174447,-187500.02235174447,1730656578.3131464,1730656577.150621,2000
23095.85637996869,-104592.4400797415,26066.24675586781,-187500.02235174447,-187500.02235174447,-187500.02235174447,-187500.02235174447,-187500.02235174447,1730656578.3172233,1730656577.150621,2000
23100.505542815397,-104630.52745229332,26065.732665745338,-187500.02235174447,-187500.02235174447,-187500.02235174447,-187500.02235174447,-187500.02235174447,1730656578.322217,1730656577.150621,2000
23106.451106840505,-104633.701400006,26063.721008744364,-187500.02235174447,-187500.02235174447,-187500.02235174447,-187500.02235174447,-187500.02235174447,1730656578.3262482,1730656577.150621,2000
23106.518162073877,-104603.72771069144,26068.48193031334,-187500.02235174447,-187500.02235174447,-187500.02235174447,-187500.02235174447,-187500.02235174447,1730656578.3302364,1730656577.150621,2000
23096.638691024626,-104608.42157702704,26069.08542741364,-187500.02235174447,-187500.02235174447,-187500.02235174447,-187500.02235174447,-187500.02235174447,1730656578.3332095,1730656577.150621,2000
23098.02449918085,-104608.46628051596,26061.821110465666,-187500.02235174447,-187500.02235174447,-187500.02235174447,-187500.02235174447,-187500.02235174447,1730656578.3372664,1730656577.150621,2000
23111.74847027641,-104632.62851627212,26063.40808432199,-187500.02235174447,-187500.02235174447,-187500.02235174447,-187500.02235174447,-187500.02235174447,1730656578.3412292,1730656577.150621,2000
23110.027385953355,-104632.76262673888,26061.30702034319,-187500.02235174447,-187500.02235174447,-187500.02235174447,-187500.02235174447,-187500.02235174447,1730656578.345244,1730656577.150621,2000
23087.85445545369,-104612.62370498464,26057.529575530243,-187500.02235174447,-187500.02235174447,-187500.02235174447,-187500.02235174447,-187500.02235174447,1730656578.3493304,1730656577.150621,2000
23097.62216778066,-104581.44302146947,26062.87164245506,-187500.02235174447,-187500.02235174447,-187500.02235174447,-187500.02235174447,-187500.02235174447,1730656578.354221,1730656577.150621,2000
23104.931188217543,-104601.96192287946,26073.533424560243,-187500.02235174447,-187500.02235174447,-187500.02235174447,-187500.02235174447,-187500.02235174447,1730656578.357222,1730656577.150621,2000
23096.884560213635,-104606.52167874834,26061.17290987645,-187500.02235174447,-187500.02235174447,-187500.02235174447,-187500.02235174447,-187500.02235174447,1730656578.361323,1730656577.150621,2000
23101.779592249342,-104615.57413525274,26072.05820942619,-187500.02235174447,-187500.02235174447,-187500.02235174447,-187500.02235174447,-187500.02235174447,1730656578.3652003,1730656577.150621,2000
23097.868036969667,-104616.0435218863,26074.762770505284,-187500.02235174447,-187500.02235174447,-187500.02235174447,-187500.02235174447,-187500.02235174447,1730656578.3692129,1730656577.150621,2000
23096.90691195809,-104638.41761808608,26072.907575715493,-187500.02235174447,-187500.02235174447,-187500.02235174447,-187500.02235174447,-187500.02235174447,1730656578.3732803,1730656577.150621,2000
23093.978833434445,-104592.75300416388,26062.938697688427,-187500.02235174447,-187500.02235174447,-187500.02235174447,-187500.02235174447,-187500.02235174447,1730656578.3772593,1730656577.150621,2000
23102.986586449933,-104619.3962835546,26062.245793610316,-187500.02235174447,-187500.02235174447,-187500.02235174447,-187500.02235174447,-187500.02235174447,1730656578.382244,1730656577.150621,2000
23094.89525495711,-104596.12811757662,26063.452787810897,-187500.02235174447,-187500.02235174447,-187500.02235174447,-187500.02235174447,-187500.02235174447,1730656578.3852456,1730656577.150621,2000
23094.11294390117,-104580.10191680216,26069.5548140472,-187500.02235174447,-187500.02235174447,-187500.02235174447,-187500.02235174447,-187500.02235174447,1730656578.3892255,1730656577.150621,2000
23097.19748463601,-104629.87925170411,26089.336107890143,-187500.02235174447,-187500.02235174447,-187500.02235174447,-187500.02235174447,-187500.02235174447,1730656578.3932798,1730656577.150621,2000
23096.14695264661,-104648.14062692413,26071.94645070392,-187500.02235174447,-187500.02235174447,-187500.02235174447,-187500.02235174447,-187500.02235174447,1730656578.3972852,1730656577.150621,2000
23097.510409058385,-104662.02106023088,26049.035912637224,-187500.02235174447,-187500.02235174447,-187500.02235174447,-187500.02235174447,-187500.02235174447,1730656578.401378,1730656577.150621,2000
23087.85445545369,-104612.75781545138,26049.415892292964,-187500.02235174447,-187500.02235174447,-187500.02235174447,-187500.02235174447,-187500.02235174447,1730656578.4052825,1730656577.150621,2000
23094.068240412267,-104575.92214058904,26061.06115115418,-187500.02235174447,-187500.02235174447,-187500.02235174447,-187500.02235174447,-187500.02235174447,1730656578.4102788,1730656577.150621,2000
23098.248016625406,-104580.32543424673,26073.466369326878,-187500.02235174447,-187500.02235174447,-187500.02235174447,-187500.02235174447,-187500.02235174447,1730656578.413262,1730656577.150621,2000
23097.733926502937,-104586.67332967202,26067.20788087939,-187500.02235174447,-187500.02235174447,-187500.02235174447,-187500.02235174447,-187500.02235174447,1730656578.4184208,1730656577.150621,2000
23104.640615539625,-104592.82005939724,26055.11558712907,-187500.02235174447,-187500.02235174447,-187500.02235174447,-187500.02235174447,-187500.02235174447,1730656578.421413,1730656577.150621,2000
23110.67558654256,-104577.2855970008,26062.759883732782,-187500.02235174447,-187500.02235174447,-187500.02235174447,-187500.02235174447,-187500.02235174447,1730656578.4253063,1730656577.150621,2000
23100.70670851549,-104586.71803316094,26072.169968148468,-187500.02235174447,-187500.02235174447,-187500.02235174447,-187500.02235174447,-187500.02235174447,1730656578.4293196,1730656577.150621,2000
23091.0507549108,-104579.94545459098,26071.052380925703,-187500.02235174447,-187500.02235174447,-187500.02235174447,-187500.02235174447,-187500.02235174447,1730656578.433355,1730656577.150621,2000
23104.19358065052,-104599.77145192285,26067.29728785721,-187500.02235174447,-187500.02235174447,-187500.02235174447,-187500.02235174447,-187500.02235174447,1730656578.4384131,1730656577.150621,2000
23099.56676954827,-104572.25645449836,26061.821110465666,-187500.02235174447,-187500.02235174447,-187500.02235174447,-187500.02235174447,-187500.02235174447,1730656578.4413493,1730656577.150621,2000
23091.967176433467,-104618.3904550541,26068.03489542424,-187500.02235174447,-187500.02235174447,-187500.02235174447,-187500.02235174447,-187500.02235174447,1730656578.4453683,1730656577.150621,2000
23097.8009817363,-104615.0376933858,26061.5528895322,-187500.02235174447,-187500.02235174447,-187500.02235174447,-187500.02235174447,-187500.02235174447,1730656578.4493513,1730656577.150621,2000
23113.603665066203,-104655.4049438721,26070.292421614224,-187500.02235174447,-187500.02235174447,-187500.02235174447,-187500.02235174447,-187500.02235174447,1730656578.4533904,1730656577.150621,2000
23104.640615539625,-104611.12613810612,26061.821110465666,-187500.02235174447,-187500.02235174447,-187500.02235174447,-187500.02235174447,-187500.02235174447,1730656578.4573767,1730656577.150621,2000
23088.18973162052,-104585.24281802688,26060.21178486488,-187500.02235174447,-187500.02235174447,-187500.02235174447,-187500.02235174447,-187500.02235174447,1730656578.4613943,1730656577.150621,2000
23089.799057221306,-104592.55183846375,26062.22344186585,-187500.02235174447,-187500.02235174447,-187500.02235174447,-187500.02235174447,-187500.02235174447,1730656578.465382,1730656577.150621,2000
23101.44431608252,-104605.40409152558,26067.0514186682,-187500.02235174447,-187500.02235174447,-187500.02235174447,-187500.02235174447,-187500.02235174447,1730656578.4684083,1730656577.150621,2000
23097.219836380464,-104605.00176012538,26067.96784019087,-187500.02235174447,-187500.02235174447,-187500.02235174447,-187500.02235174447,-187500.02235174447,1730656578.4734018,1730656577.150621,2000
23099.790286992826,-104630.05806565976,26077.422628095464,-187500.02235174447,-187500.02235174447,-187500.02235174447,-187500.02235174447,-187500.02235174447,1730656578.4773762,1730656577.150621,2000
23095.9010834576,-104633.92491745054,26067.34199134612,-187500.02235174447,-187500.02235174447,-187500.02235174447,-187500.02235174447,-187500.02235174447,1730656578.4814067,1730656577.150621,2000
23098.158609647588,-104649.43702810252,26068.03489542424,-187500.02235174447,-187500.02235174447,-187500.02235174447,-187500.02235174447,-187500.02235174447,1730656578.485427,1730656577.150621,2000
23089.37437407665,-104634.12608315064,26065.956183189894,-187500.02235174447,-187500.02235174447,-187500.02235174447,-187500.02235174447,-187500.02235174447,1730656578.489422,1730656577.150621,2000
23090.93899618852,-104597.22335305491,26063.452787810897,-187500.02235174447,-187500.02235174447,-187500.02235174447,-187500.02235174447,-187500.02235174447,1730656578.493444,1730656577.150621,2000
23103.500676572407,-104613.80834744076,26062.08933139913,-187500.02235174447,-187500.02235174447,-187500.02235174447,-187500.02235174447,-187500.02235174447,1730656578.496426,1730656577.150621,2000
23100.550246304305,-104623.88898419013,26062.648125010503,-187500.02235174447,-187500.02235174447,-187500.02235174447,-187500.02235174447,-187500.02235174447,1730656578.5004475,1730656577.150621,2000
23096.34811834671,-104614.07656837424,26062.379904077043,-187500.02235174447,-187500.02235174447,-187500.02235174447,-187500.02235174447,-187500.02235174447,1730656578.5054784,1730656577.150621,2000
23098.2033131365,-104606.23110607042,26068.951316946903,-187500.02235174447,-187500.02235174447,-187500.02235174447,-187500.02235174447,-187500.02235174447,1730656578.509436,1730656577.150621,2000
23106.80873475179,-104619.73155972142,26069.376000091557,-187500.02235174447,-187500.02235174447,-187500.02235174447,-187500.02235174447,-187500.02235174447,1730656578.513451,1730656577.150621,2000
23098.739755003426,-104618.68102773202,26066.06794191217,-187500.02235174447,-187500.02235174447,-187500.02235174447,-187500.02235174447,-187500.02235174447,1730656578.517586,1730656577.150621,2000
23098.02449918085,-104637.97058319696,26064.12334014456,-187500.02235174447,-187500.02235174447,-187500.02235174447,-187500.02235174447,-187500.02235174447,1730656578.5205152,1730656577.150621,2000
23099.455010825997,-104608.30981830476,26066.336162845637,-187500.02235174447,-187500.02235174447,-187500.02235174447,-187500.02235174447,-187500.02235174447,1730656578.5245936,1730656577.150621,2000
23102.248978882908,-104611.81904218424,26068.48193031334,-187500.02235174447,-187500.02235174447,-187500.02235174447,-187500.02235174447,-187500.02235174447,1730656578.528513,1730656577.150621,2000
23099.879693970644,-104607.37104503764,26058.758921475284,-187500.02235174447,-187500.02235174447,-187500.02235174447,-187500.02235174447,-187500.02235174447,1730656578.5335271,1730656577.150621,2000
23095.744621246413,-104579.5878266797,26067.07377041266,-187500.02235174447,-187500.02235174447,-187500.02235174447,-187500.02235174447,-187500.02235174447,1730656578.53752,1730656577.150621,2000
23093.44239156752,-104591.8365826412,26073.153444904503,-187500.02235174447,-187500.02235174447,-187500.02235174447,-187500.02235174447,-187500.02235174447,1730656578.5415049,1730656577.150621,2000
23094.939958446023,-104649.7946560138,26065.06211341168,-187500.02235174447,-187500.02235174447,-187500.02235174447,-187500.02235174447,-187500.02235174447,1730656578.5454829,1730656577.150621,2000
23093.91177820108,-104619.2398213434,26054.06505513967,-187500.02235174447,-187500.02235174447,-187500.02235174447,-187500.02235174447,-187500.02235174447,1730656578.549546,1730656577.150621,2000
23098.29272011432,-104581.77829763632,26055.674380740453,-187500.02235174447,-187500.02235174447,-187500.02235174447,-187500.02235174447,-187500.02235174447,1730656578.552518,1730656577.150621,2000
23098.225664880956,-104592.39537625258,26061.5528895322,-187500.02235174447,-187500.02235174447,-187500.02235174447,-187500.02235174447,-187500.02235174447,1730656578.5565426,1730656577.150621,2000
23108.48511558594,-104636.696533763,26070.717104758874,-187500.02235174447,-187500.02235174447,-187500.02235174447,-187500.02235174447,-187500.02235174447,1730656578.5615647,1730656577.150621,2000
23110.72029003147,-104625.27479234636,26070.091255914125,-187500.02235174447,-187500.02235174447,-187500.02235174447,-187500.02235174447,-187500.02235174447,1730656578.5655613,1730656577.150621,2000
23113.96129297749,-104641.12217916516,26070.15831114749,-187500.02235174447,-187500.02235174447,-187500.02235174447,-187500.02235174447,-187500.02235174447,1730656578.5695872,1730656577.150621,2000
23109.557999319797,-104669.9112260236,26070.73945650333,-187500.02235174447,-187500.02235174447,-187500.02235174447,-187500.02235174447,-187500.02235174447,1730656578.5725937,1730656577.150621,2000
23076.9468041595,-104640.38457159812,26059.34006683112,-187500.02235174447,-187500.02235174447,-187500.02235174447,-187500.02235174447,-187500.02235174447,1730656578.5766096,1730656577.150621,2000
23083.42881005154,-104624.29131559032,26069.73362800284,-187500.02235174447,-187500.02235174447,-187500.02235174447,-187500.02235174447,-187500.02235174447,1730656578.5805907,1730656577.150621,2000
23088.413249065077,-104612.64605672908,26077.44497983992,-187500.02235174447,-187500.02235174447,-187500.02235174447,-187500.02235174447,-187500.02235174447,1730656578.5851724,1730656577.150621,2000
23094.42586832355,-104631.10859764916,26074.338087360637,-187500.02235174447,-187500.02235174447,-187500.02235174447,-187500.02235174447,-187500.02235174447,1730656578.5916011,1730656577.150621,2000
23099.25384512589,-104644.698458278,26067.096122157112,-187500.02235174447,-187500.02235174447,-187500.02235174447,-187500.02235174447,-187500.02235174447,1730656578.595616,1730656577.150621,2000
23092.61537702267,-104610.65675147258,26059.720046486866,-187500.02235174447,-187500.02235174447,-187500.02235174447,-187500.02235174447,-187500.02235174447,1730656578.6006155,1730656577.150621,2000
23095.56580729077,-104589.66846342904,26066.26910761227,-187500.02235174447,-187500.02235174447,-187500.02235174447,-187500.02235174447,-187500.02235174447,1730656578.6045911,1730656577.150621,2000
23099.16443814808,-104606.27580955932,26065.889127956525,-187500.02235174447,-187500.02235174447,-187500.02235174447,-187500.02235174447,-187500.02235174447,1730656578.6076102,1730656577.150621,2000
23098.42683058105,-104629.14164413713,26070.04655242521,-187500.02235174447,-187500.02235174447,-187500.02235174447,-187500.02235174447,-187500.02235174447,1730656578.6116724,1730656577.150621,2000
23095.9010834576,-104634.64017327312,26065.19622387841,-187500.02235174447,-187500.02235174447,-187500.02235174447,-187500.02235174447,-187500.02235174447,1730656578.614678,1730656577.150621,2000
23098.493885814416,-104631.10859764916,26054.512090028777,-187500.02235174447,-187500.02235174447,-187500.02235174447,-187500.02235174447,-187500.02235174447,1730656578.6176517,1730656577.150621,2000
23101.35490910469,-104626.77235922484,26054.445034795408,-187500.02235174447,-187500.02235174447,-187500.02235174447,-187500.02235174447,-187500.02235174447,1730656578.6217587,1730656577.150621,2000
23099.589121292727,-104644.2961268778,26060.21178486488,-187500.02235174447,-187500.02235174447,-187500.02235174447,-187500.02235174447,-187500.02235174447,1730656578.6256733,1730656577.150621,2000
23098.18096139204,-104633.99197268391,26062.4022558215,-187500.02235174447,-187500.02235174447,-187500.02235174447,-187500.02235174447,-187500.02235174447,1730656578.6287932,1730656577.150621,2000
23099.81263873728,-104619.75391146589,26071.20884313689,-187500.02235174447,-187500.02235174447,-187500.02235174447,-187500.02235174447,-187500.02235174447,1730656578.632696,1730656577.150621,2000
23098.38212709214,-104599.97261762292,26068.25841286879,-187500.02235174447,-187500.02235174447,-187500.02235174447,-187500.02235174447,-187500.02235174447,1730656578.6367097,1730656577.150621,2000
23100.371432348664,-104641.07747567624,26070.560642547687,-187500.02235174447,-187500.02235174447,-187500.02235174447,-187500.02235174447,-187500.02235174447,1730656578.6408525,1730656577.150621,2000
23096.90691195809,-104693.08998502376,26068.34781984661,-187500.02235174447,-187500.02235174447,-187500.02235174447,-187500.02235174447,-187500.02235174447,1730656578.6447992,1730656577.150621,2000
23094.448220068007,-104634.46135931749,26066.783197734738,-187500.02235174447,-187500.02235174447,-187500.02235174447,-187500.02235174447,-187500.02235174447,1730656578.6497211,1730656577.150621,2000
23092.81654272277,-104629.56632728176,26065.285630856237,-187500.02235174447,-187500.02235174447,-187500.02235174447,-187500.02235174447,-187500.02235174447,1730656578.6527317,1730656577.150621,2000
23098.38212709214,-104640.47397857594,26061.597593021103,-187500.02235174447,-187500.02235174447,-187500.02235174447,-187500.02235174447,-187500.02235174447,1730656578.656718,1730656577.150621,2000
23103.34421436122,-104662.69161256452,26063.58689827763,-187500.02235174447,-187500.02235174447,-187500.02235174447,-187500.02235174447,-187500.02235174447,1730656578.6610055,1730656577.150621,2000
23096.817504980267,-104656.27666190584,26058.557755775186,-187500.02235174447,-187500.02235174447,-187500.02235174447,-187500.02235174447,-187500.02235174447,1730656578.6648412,1730656577.150621,2000
23092.682432256035,-104639.51285356436,26059.2506598533,-187500.02235174447,-187500.02235174447,-187500.02235174447,-187500.02235174447,-187500.02235174447,1730656578.6689217,1730656577.150621,2000
23100.505542815397,-104629.14164413713,26066.67143901246,-187500.02235174447,-187500.02235174447,-187500.02235174447,-187500.02235174447,-187500.02235174447,1730656578.6728544,1730656577.150621,2000
23097.644519525114,-104644.40788560009,26063.184566877437,-187500.02235174447,-187500.02235174447,-187500.02235174447,-187500.02235174447,-187500.02235174447,1730656578.6778913,1730656577.150621,2000
23098.56094104778,-104649.77230426935,26060.92704068745,-187500.02235174447,-187500.02235174447,-187500.02235174447,-187500.02235174447,-187500.02235174447,1730656578.6808631,1730656577.150621,2000
23100.259673626384,-104635.13191165111,26066.425569823456,-187500.02235174447,-187500.02235174447,-187500.02235174447,-187500.02235174447,-187500.02235174447,1730656578.68375,1730656577.150621,2000
23098.270368369864,-104631.198004627,26071.76763674827,-187500.02235174447,-187500.02235174447,-187500.02235174447,-187500.02235174447,-187500.02235174447,1730656578.688836,1730656577.150621,2000
23104.350042861708,-104659.27179566286,26071.320601859166,-187500.02235174447,-187500.02235174447,-187500.02235174447,-187500.02235174447,-187500.02235174447,1730656578.6928868,1730656577.150621,2000
23092.347156089207,-104649.83935950272,26061.10585464309,-187500.02235174447,-187500.02235174447,-187500.02235174447,-187500.02235174447,-187500.02235174447,1730656578.696968,1730656577.150621,2000
23086.91568218657,-104621.05031264428,26063.117511644068,-187500.02235174447,-187500.02235174447,-187500.02235174447,-187500.02235174447,-187500.02235174447,1730656578.70078,1730656577.150621,2000
23104.551208561803,-104635.33307735124,26065.12916864505,-187500.02235174447,-187500.02235174447,-187500.02235174447,-187500.02235174447,-187500.02235174447,1730656578.705869,1730656577.150621,2000
23105.13235391764,-104642.7985599993,26063.050456410703,-187500.02235174447,-187500.02235174447,-187500.02235174447,-187500.02235174447,-187500.02235174447,1730656578.708789,1730656577.150621,2000
23102.51719981637,-104657.43895261752,26060.3011918427,-187500.02235174447,-187500.02235174447,-187500.02235174447,-187500.02235174447,-187500.02235174447,1730656578.7120273,1730656577.150621,2000
23095.29758635731,-104634.57311803974,26063.452787810897,-187500.02235174447,-187500.02235174447,-187500.02235174447,-187500.02235174447,-187500.02235174447,1730656578.7168157,1730656577.150621,2000
23094.04588866781,-104623.68781849,26064.16804363347,-187500.02235174447,-187500.02235174447,-187500.02235174447,-187500.02235174447,-187500.02235174447,1730656578.720904,1730656577.150621,2000
23094.33646134573,-104633.38847558362,26064.056284911192,-187500.02235174447,-187500.02235174447,-187500.02235174447,-187500.02235174447,-187500.02235174447,1730656578.7248416,1730656577.150621,2000
23091.22956886644,-104649.66054554709,26067.789026235227,-187500.02235174447,-187500.02235174447,-187500.02235174447,-187500.02235174447,-187500.02235174447,1730656578.7290792,1730656577.150621,2000
23089.91081594358,-104632.80733022778,26062.22344186585,-187500.02235174447,-187500.02235174447,-187500.02235174447,-187500.02235174447,-187500.02235174447,1730656578.7328136,1730656577.150621,2000
23098.493885814416,-104639.6022605422,26064.615078522573,-187500.02235174447,-187500.02235174447,-187500.02235174447,-187500.02235174447,-187500.02235174447,1730656578.7370915,1730656577.150621,2000
23097.06337416928,-104680.4165459176,26068.05724716869,-187500.02235174447,-187500.02235174447,-187500.02235174447,-187500.02235174447,-187500.02235174447,1730656578.7418551,1730656577.150621,2000
23089.26261535437,-104637.9482314525,26057.909555185983,-187500.02235174447,-187500.02235174447,-187500.02235174447,-187500.02235174447,-187500.02235174447,1730656578.744912,1730656577.150621,2000
23088.97204267645,-104608.46628051596,26055.38380806253,-187500.02235174447,-187500.02235174447,-187500.02235174447,-187500.02235174447,-187500.02235174447,1730656578.7490127,1730656577.150621,2000
23088.27913859834,-104610.65675147258,26059.54123253122,-187500.02235174447,-187500.02235174447,-187500.02235174447,-187500.02235174447,-187500.02235174447,1730656578.7529442,1730656577.150621,2000
23102.33838586073,-104628.60520227018,26067.096122157112,-187500.02235174447,-187500.02235174447,-187500.02235174447,-187500.02235174447,-187500.02235174447,1730656578.7569406,1730656577.150621,2000
23097.912740458574,-104631.51092904936,26069.33129660264,-187500.02235174447,-187500.02235174447,-187500.02235174447,-187500.02235174447,-187500.02235174447,1730656578.760018,1730656577.150621,2000
23091.967176433467,-104636.71888550746,26066.738494245827,-187500.02235174447,-187500.02235174447,-187500.02235174447,-187500.02235174447,-187500.02235174447,1730656578.763981,1730656577.150621,2000
23093.554150289798,-104661.7528392974,26057.462520296875,-187500.02235174447,-187500.02235174447,-187500.02235174447,-187500.02235174447,-187500.02235174447,1730656578.7679613,1730656577.150621,2000
23096.23635962443,-104618.47986203192,26055.495566784808,-187500.02235174447,-187500.02235174447,-187500.02235174447,-187500.02235174447,-187500.02235174447,1730656578.77201,1730656577.150621,2000
23100.371432348664,-104625.83358595772,26068.616040780074,-187500.02235174447,-187500.02235174447,-187500.02235174447,-187500.02235174447,-187500.02235174447,1730656578.776876,1730656577.150621,2000
23095.31993810176,-104634.08137966171,26067.565508790674,-187500.02235174447,-187500.02235174447,-187500.02235174447,-187500.02235174447,-187500.02235174447,1730656578.7809324,1730656577.150621,2000
23093.04006016732,-104633.2990686058,26070.49358731432,-187500.02235174447,-187500.02235174447,-187500.02235174447,-187500.02235174447,-187500.02235174447,1730656578.7849567,1730656577.150621,2000
23096.035193924334,-104620.5362225218,26067.07377041266,-187500.02235174447,-187500.02235174447,-187500.02235174447,-187500.02235174447,-187500.02235174447,1730656578.7889204,1730656577.150621,2000
23107.0546039408,-104629.54397553732,26058.736569730827,-187500.02235174447,-187500.02235174447,-187500.02235174447,-187500.02235174447,-187500.02235174447,1730656578.7929432,1730656577.150621,2000
23107.121659174165,-104667.16196145558,26076.193282150423,-187500.02235174447,-187500.02235174447,-187500.02235174447,-187500.02235174447,-187500.02235174447,1730656578.79797,1730656577.150621,2000
23092.86124621168,-104604.13004209162,26074.092218171623,-187500.02235174447,-187500.02235174447,-187500.02235174447,-187500.02235174447,-187500.02235174447,1730656578.8021443,1730656577.150621,2000
23097.689223014026,-104590.65194018508,26060.72587498735,-187500.02235174447,-187500.02235174447,-187500.02235174447,-187500.02235174447,-187500.02235174447,1730656578.8059688,1730656577.150621,2000
23100.48319107094,-104614.12127186314,26059.407122064487,-187500.02235174447,-187500.02235174447,-187500.02235174447,-187500.02235174447,-187500.02235174447,1730656578.8099513,1730656577.150621,2000
23111.077917942755,-104651.67220254806,26061.10585464309,-187500.02235174447,-187500.02235174447,-187500.02235174447,-187500.02235174447,-187500.02235174447,1730656578.8140209,1730656577.150621,2000
23099.16443814808,-104657.03662121734,26074.49454957182,-187500.02235174447,-187500.02235174447,-187500.02235174447,-187500.02235174447,-187500.02235174447,1730656578.8169572,1730656577.150621,2000
23091.52014154436,-104612.91427766257,26065.39738957851,-187500.02235174447,-187500.02235174447,-187500.02235174447,-187500.02235174447,-187500.02235174447,1730656578.819981,1730656577.150621,2000
23096.19165613552,-104608.53333574932,26061.217613365367,-187500.02235174447,-187500.02235174447,-187500.02235174447,-187500.02235174447,-187500.02235174447,1730656578.824074,1730656577.150621,2000
23101.064336426774,-104664.85973177668,26064.324505844656,-187500.02235174447,-187500.02235174447,-187500.02235174447,-187500.02235174447,-187500.02235174447,1730656578.8280785,1730656577.150621,2000
23091.60954852218,-104584.77343139332,26051.651066738497,-187500.02235174447,-187500.02235174447,-187500.02235174447,-187500.02235174447,-187500.02235174447,1730656578.8329935,1730656577.150621,2000
23099.119734659165,-104599.90556238955,26061.86581395457,-187500.02235174447,-187500.02235174447,-187500.02235174447,-187500.02235174447,-187500.02235174447,1730656578.8373926,1730656577.150621,2000
23109.133316175143,-104638.9987634419,26069.599517536102,-187500.02235174447,-187500.02235174447,-187500.02235174447,-187500.02235174447,-187500.02235174447,1730656578.8431451,1730656577.150621,2000
23110.22855165345,-104620.17859461054,26057.551927274697,-187500.02235174447,-187500.02235174447,-187500.02235174447,-187500.02235174447,-187500.02235174447,1730656578.846064,1730656577.150621,2000
23095.27523461285,-104599.54793447828,26065.553851789697,-187500.02235174447,-187500.02235174447,-187500.02235174447,-187500.02235174447,-187500.02235174447,1730656578.849095,1730656577.150621,2000
23081.439504795017,-104621.2961818333,26069.197186135912,-187500.02235174447,-187500.02235174447,-187500.02235174447,-187500.02235174447,-187500.02235174447,1730656578.8520477,1730656577.150621,2000
23087.630938009137,-104596.15046932107,26062.603421521595,-187500.02235174447,-187500.02235174447,-187500.02235174447,-187500.02235174447,-187500.02235174447,1730656578.8560617,1730656577.150621,2000
23098.09155441422,-104662.84807477571,26071.141787903525,-187500.02235174447,-187500.02235174447,-187500.02235174447,-187500.02235174447,-187500.02235174447,1730656578.861077,1730656577.150621,2000
23089.687298499022,-104669.28537717884,26057.976610419348,-187500.02235174447,-187500.02235174447,-187500.02235174447,-187500.02235174447,-187500.02235174447,1730656578.8650212,1730656577.150621,2000
23092.01187992238,-104596.70926293246,26046.28664806922,-187500.02235174447,-187500.02235174447,-187500.02235174447,-187500.02235174447,-187500.02235174447,1730656578.8691063,1730656577.150621,2000
23095.610510779683,-104602.3419025352,26060.703523242897,-187500.02235174447,-187500.02235174447,-187500.02235174447,-187500.02235174447,-187500.02235174447,1730656578.8731573,1730656577.150621,2000
23098.98562419243,-104618.27869633184,26070.13595940304,-187500.02235174447,-187500.02235174447,-187500.02235174447,-187500.02235174447,-187500.02235174447,1730656578.8771763,1730656577.150621,2000
23098.2033131365,-104623.30783883428,26070.247718125316,-187500.02235174447,-187500.02235174447,-187500.02235174447,-187500.02235174447,-187500.02235174447,1730656578.8820708,1730656577.150621,2000
23095.118772401664,-104647.76064726838,26066.559680290185,-187500.02235174447,-187500.02235174447,-187500.02235174447,-187500.02235174447,-187500.02235174447,1730656578.8862188,1730656577.150621,2000
23093.509446800883,-104680.59535987324,26056.76961621876,-187500.02235174447,-187500.02235174447,-187500.02235174447,-187500.02235174447,-187500.02235174447,1730656578.8901515,1730656577.150621,2000
23092.324804344757,-104621.31853357777,26052.0981016276,-187500.02235174447,-187500.02235174447,-187500.02235174447,-187500.02235174447,-187500.02235174447,1730656578.894182,1730656577.150621,2000
23100.57259804876,-104630.84037671571,26060.859985454084,-187500.02235174447,-187500.02235174447,-187500.02235174447,-187500.02235174447,-187500.02235174447,1730656578.8981223,1730656577.150621,2000
23096.77280149136,-104635.51189130689,26070.471235569865,-187500.02235174447,-187500.02235174447,-187500.02235174447,-187500.02235174447,-187500.02235174447,1730656578.9033537,1730656577.150621,2000
23090.894292699613,-104616.91523992004,26072.952279204404,-187500.02235174447,-187500.02235174447,-187500.02235174447,-187500.02235174447,-187500.02235174447,1730656578.9062731,1730656577.150621,2000
23095.118772401664,-104624.2466121014,26060.01061916478,-187500.02235174447,-187500.02235174447,-187500.02235174447,-187500.02235174447,-187500.02235174447,1730656578.9092813,1730656577.150621,2000
23103.9030079726,-104613.22720208492,26051.226383593847,-187500.02235174447,-187500.02235174447,-187500.02235174447,-187500.02235174447,-187500.02235174447,1730656578.912244,1730656577.150621,2000
23105.1547056621,-104677.77904007184,26062.49166279932,-187500.02235174447,-187500.02235174447,-187500.02235174447,-187500.02235174447,-187500.02235174447,1730656578.9161472,1730656577.150621,2000
23091.16251363308,-104686.29505470934,26060.03297090924,-187500.02235174447,-187500.02235174447,-187500.02235174447,-187500.02235174447,-187500.02235174447,1730656578.9211564,1730656577.150621,2000
23095.23053112394,-104622.77139696736,26065.01740992277,-187500.02235174447,-187500.02235174447,-187500.02235174447,-187500.02235174447,-187500.02235174447,1730656578.9241433,1730656577.150621,2000
23091.38603107763,-104617.47403353144,26063.273973855252,-187500.02235174447,-187500.02235174447,-187500.02235174447,-187500.02235174447,-187500.02235174447,1730656578.9281657,1730656577.150621,2000
23101.10903991569,-104635.44483607353,26049.974685904348,-187500.02235174447,-187500.02235174447,-187500.02235174447,-187500.02235174447,-187500.02235174447,1730656578.9322276,1730656577.150621,2000
23100.885522471133,-104668.43601088952,26056.054360396192,-187500.02235174447,-187500.02235174447,-187500.02235174447,-187500.02235174447,-187500.02235174447,1730656578.9364004,1730656577.150621,2000
23092.39185957812,-104688.4184704326,26059.16125287548,-187500.02235174447,-187500.02235174447,-187500.02235174447,-187500.02235174447,-187500.02235174447,1730656578.9402952,1730656577.150621,2000
23093.1518188896,-104678.3601854277,26058.043665652716,-187500.02235174447,-187500.02235174447,-187500.02235174447,-187500.02235174447,-187500.02235174447,1730656578.944324,1730656577.150621,2000
23098.42683058105,-104684.68572910856,26058.669514497466,-187500.02235174447,-187500.02235174447,-187500.02235174447,-187500.02235174447,-187500.02235174447,1730656578.9485004,1730656577.150621,2000
23101.578426549248,-104714.7711771454,26065.06211341168,-187500.02235174447,-187500.02235174447,-187500.02235174447,-187500.02235174447,-187500.02235174447,1730656578.9534736,1730656577.150621,2000
23094.738792745924,-104691.14538325612,26061.463482554376,-187500.02235174447,-187500.02235174447,-187500.02235174447,-187500.02235174447,-187500.02235174447,1730656578.9574456,1730656577.150621,2000
23095.94578694651,-104659.29414740732,26059.228308108846,-187500.02235174447,-187500.02235174447,-187500.02235174447,-187500.02235174447,-187500.02235174447,1730656578.961445,1730656577.150621,2000
23096.884560213635,-104675.70032783752,26064.83859596713,-187500.02235174447,-187500.02235174447,-187500.02235174447,-187500.02235174447,-187500.02235174447,1730656578.9653342,1730656577.150621,2000
23090.71547874397,-104696.21922924748,26068.72779950235,-187500.02235174447,-187500.02235174447,-187500.02235174447,-187500.02235174447,-187500.02235174447,1730656578.9704573,1730656577.150621,2000
23090.268443854864,-104668.36895565616,26064.235098866837,-187500.02235174447,-187500.02235174447,-187500.02235174447,-187500.02235174447,-187500.02235174447,1730656578.9742572,1730656577.150621,2000
23106.026423695854,-104727.8692993962,26053.372151061558,-187500.02235174447,-187500.02235174447,-187500.02235174447,-187500.02235174447,-187500.02235174447,1730656578.9774764,1730656577.150621,2000
23096.21400787997,-104730.39504651964,26056.367284818567,-187500.02235174447,-187500.02235174447,-187500.02235174447,-187500.02235174447,-187500.02235174447,1730656578.9824283,1730656577.150621,2000
23093.44239156752,-104711.88780211064,26067.63256402404,-187500.02235174447,-187500.02235174447,-187500.02235174447,-187500.02235174447,-187500.02235174447,1730656578.9864972,1730656577.150621,2000
23094.29175785682,-104706.92571484158,26062.04462791021,-187500.02235174447,-187500.02235174447,-187500.02235174447,-187500.02235174447,-187500.02235174447,1730656578.989491,1730656577.150621,2000
23091.743658988915,-104704.22115376248,26059.92121218696,-187500.02235174447,-187500.02235174447,-187500.02235174447,-187500.02235174447,-187500.02235174447,1730656578.9922605,1730656577.150621,2000
23093.10711540069,-104672.19110395804,26057.797796463707,-187500.02235174447,-187500.02235174447,-187500.02235174447,-187500.02235174447,-187500.02235174447,1730656578.996478,1730656577.150621,2000
23100.39378409312,-104658.33302239576,26064.324505844656,-187500.02235174447,-187500.02235174447,-187500.02235174447,-187500.02235174447,-187500.02235174447,1730656579.0002792,1730656577.150621,2000
23098.71740325897,-104683.79165933034,26074.271032127268,-187500.02235174447,-187500.02235174447,-187500.02235174447,-187500.02235174447,-187500.02235174447,1730656579.0043592,1730656577.150621,2000
23091.408382822083,-104665.59733934372,26069.711276258386,-187500.02235174447,-187500.02235174447,-187500.02235174447,-187500.02235174447,-187500.02235174447,1730656579.0073776,1730656577.150621,2000
23101.28785387133,-104681.98116802944,26070.068904169668,-187500.02235174447,-187500.02235174447,-187500.02235174447,-187500.02235174447,-187500.02235174447,1730656579.012297,1730656577.150621,2000
23101.220798637965,-104722.10254932674,26065.665610511973,-187500.02235174447,-187500.02235174447,-187500.02235174447,-187500.02235174447,-187500.02235174447,1730656579.0163045,1730656577.150621,2000
23096.48222881344,-104667.11725796667,26055.003828406792,-187500.02235174447,-187500.02235174447,-187500.02235174447,-187500.02235174447,-187500.02235174447,1730656579.0204017,1730656577.150621,2000
23100.326728859756,-104656.2543101614,26054.668552239964,-187500.02235174447,-187500.02235174447,-187500.02235174447,-187500.02235174447,-187500.02235174447,1730656579.02434,1730656577.150621,2000
23100.460839326483,-104661.68578406404,26060.68117149844,-187500.02235174447,-187500.02235174447,-187500.02235174447,-187500.02235174447,-187500.02235174447,1730656579.0283763,1730656577.150621,2000
23093.509446800883,-104647.76064726838,26061.664648254475,-187500.02235174447,-187500.02235174447,-187500.02235174447,-187500.02235174447,-187500.02235174447,1730656579.0323708,1730656577.150621,2000
23096.66104276908,-104657.7965805288,26062.22344186585,-187500.02235174447,-187500.02235174447,-187500.02235174447,-187500.02235174447,-187500.02235174447,1730656579.0354702,1730656577.150621,2000
23100.66200502658,-104682.8081825743,26062.558718032687,-187500.02235174447,-187500.02235174447,-187500.02235174447,-187500.02235174447,-187500.02235174447,1730656579.0413263,1730656577.150621,2000
23094.559978790283,-104663.36216489818,26063.877470955547,-187500.02235174447,-187500.02235174447,-187500.02235174447,-187500.02235174447,-187500.02235174447,1730656579.0454707,1730656577.150621,2000
23098.04685092531,-104677.9578540275,26069.57716579165,-187500.02235174447,-187500.02235174447,-187500.02235174447,-187500.02235174447,-187500.02235174447,1730656579.0484529,1730656577.150621,2000
23097.71157475848,-104734.06073261032,26069.08542741364,-187500.02235174447,-187500.02235174447,-187500.02235174447,-187500.02235174447,-187500.02235174447,1730656579.0533838,1730656577.150621,2000
23093.554150289798,-104678.89662729464,26059.317715086665,-187500.02235174447,-187500.02235174447,-187500.02235174447,-187500.02235174447,-187500.02235174447,1730656579.0574737,1730656577.150621,2000
23099.43265908154,-104671.07351673528,26055.40615980699,-187500.02235174447,-187500.02235174447,-187500.02235174447,-187500.02235174447,-187500.02235174447,1730656579.0623963,1730656577.150621,2000
23100.527894559847,-104676.12501098216,26064.056284911192,-187500.02235174447,-187500.02235174447,-187500.02235174447,-187500.02235174447,-187500.02235174447,1730656579.066474,1730656577.150621,2000
23100.61730153767,-104685.04335701984,26066.44792156791,-187500.02235174447,-187500.02235174447,-187500.02235174447,-187500.02235174447,-187500.02235174447,1730656579.069461,1730656577.150621,2000
23104.797077750813,-104691.12303151168,26062.91634594397,-187500.02235174447,-187500.02235174447,-187500.02235174447,-187500.02235174447,-187500.02235174447,1730656579.0746567,1730656577.150621,2000
23107.63574929664,-104705.94223808554,26067.520805301763,-187500.02235174447,-187500.02235174447,-187500.02235174447,-187500.02235174447,-187500.02235174447,1730656579.0794308,1730656577.150621,2000
23096.37047009116,-104680.7518220844,26066.850252968103,-187500.02235174447,-187500.02235174447,-187500.02235174447,-187500.02235174447,-187500.02235174447,1730656579.0834074,1730656577.150621,2000
23094.448220068007,-104689.58076114426,26061.374075576558,-187500.02235174447,-187500.02235174447,-187500.02235174447,-187500.02235174447,-187500.02235174447,1730656579.0875144,1730656577.150621,2000
23095.85637996869,-104682.69642385204,26059.652991253497,-187500.02235174447,-187500.02235174447,-187500.02235174447,-187500.02235174447,-187500.02235174447,1730656579.0914364,1730656577.150621,2000
23099.14208640362,-104676.21441796,26064.68213375594,-187500.02235174447,-187500.02235174447,-187500.02235174447,-187500.02235174447,-187500.02235174447,1730656579.0945196,1730656577.150621,2000
23100.952577704506,-104707.05982530832,26067.07377041266,-187500.02235174447,-187500.02235174447,-187500.02235174447,-187500.02235174447,-187500.02235174447,1730656579.0986133,1730656577.150621,2000
23094.42586832355,-104700.51076418292,26061.150558132,-187500.02235174447,-187500.02235174447,-187500.02235174447,-187500.02235174447,-187500.02235174447,1730656579.101509,1730656577.150621,2000
23094.80584797929,-104660.74701079691,26064.83859596713,-187500.02235174447,-187500.02235174447,-187500.02235174447,-187500.02235174447,-187500.02235174447,1730656579.104575,1730656577.150621,2000
23103.45597308349,-104667.18431320004,26067.431398323944,-187500.02235174447,-187500.02235174447,-187500.02235174447,-187500.02235174447,-187500.02235174447,1730656579.108459,1730656577.150621,2000
23107.63574929664,-104692.0618047788,26060.882337198535,-187500.02235174447,-187500.02235174447,-187500.02235174447,-187500.02235174447,-187500.02235174447,1730656579.1115406,1730656577.150621,2000
23110.45206909801,-104688.12789775466,26071.36530534808,-187500.02235174447,-187500.02235174447,-187500.02235174447,-187500.02235174447,-187500.02235174447,1730656579.115461,1730656577.150621,2000
23100.527894559847,-104728.74101742996,26072.63935478203,-187500.02235174447,-187500.02235174447,-187500.02235174447,-187500.02235174447,-187500.02235174447,1730656579.119518,1730656577.150621,2000
23092.078935155743,-104720.78379640386,26064.39156107802,-187500.02235174447,-187500.02235174447,-187500.02235174447,-187500.02235174447,-187500.02235174447,1730656579.1237533,1730656577.150621,2000
23099.544417803816,-104679.92480753956,26054.556793517688,-187500.02235174447,-187500.02235174447,-187500.02235174447,-187500.02235174447,-187500.02235174447,1730656579.12758,1730656577.150621,2000
23107.23341789644,-104692.5088396679,26061.821110465666,-187500.02235174447,-187500.02235174447,-187500.02235174447,-187500.02235174447,-187500.02235174447,1730656579.1325033,1730656577.150621,2000
23101.44431608252,-104691.2124384895,26063.609250022084,-187500.02235174447,-187500.02235174447,-187500.02235174447,-187500.02235174447,-187500.02235174447,1730656579.1365707,1730656577.150621,2000
23095.07406891276,-104667.34077541124,26065.26327911178,-187500.02235174447,-187500.02235174447,-187500.02235174447,-187500.02235174447,-187500.02235174447,1730656579.1395268,1730656577.150621,2000
23094.80584797929,-104666.26789167736,26070.091255914125,-187500.02235174447,-187500.02235174447,-187500.02235174447,-187500.02235174447,-187500.02235174447,1730656579.1466095,1730656577.150621,2000
23101.220798637965,-104679.09779299473,26069.5548140472,-187500.02235174447,-187500.02235174447,-187500.02235174447,-187500.02235174447,-187500.02235174447,1730656579.1495094,1730656577.150621,2000
23102.606606794197,-104692.59824664572,26064.16804363347,-187500.02235174447,-187500.02235174447,-187500.02235174447,-187500.02235174447,-187500.02235174447,1730656579.154491,1730656577.150621,2000
23099.99145269292,-104628.448740059,26058.043665652716,-187500.02235174447,-187500.02235174447,-187500.02235174447,-187500.02235174447,-187500.02235174447,1730656579.157509,1730656577.150621,2000
23104.350042861708,-104660.9034730081,26070.96297394788,-187500.02235174447,-187500.02235174447,-187500.02235174447,-187500.02235174447,-187500.02235174447,1730656579.161579,1730656577.150621,2000
23098.98562419243,-104670.58177835724,26075.030991438747,-187500.02235174447,-187500.02235174447,-187500.02235174447,-187500.02235174447,-187500.02235174447,1730656579.1645277,1730656577.150621,2000
23100.639653282127,-104679.72364183948,26065.911479700982,-187500.02235174447,-187500.02235174447,-187500.02235174447,-187500.02235174447,-187500.02235174447,1730656579.1676247,1730656577.150621,2000
23101.578426549248,-104679.63423486165,26063.653953510995,-187500.02235174447,-187500.02235174447,-187500.02235174447,-187500.02235174447,-187500.02235174447,1730656579.1715648,1730656577.150621,2000
23099.700880015003,-104673.01811850288,26063.58689827763,-187500.02235174447,-187500.02235174447,-187500.02235174447,-187500.02235174447,-187500.02235174447,1730656579.1755507,1730656577.150621,2000
23099.946749204013,-104698.8567350932,26066.582032034643,-187500.02235174447,-187500.02235174447,-187500.02235174447,-187500.02235174447,-187500.02235174447,1730656579.1796565,1730656577.150621,2000
23094.358813090184,-104736.1170931002,26070.761808247786,-187500.02235174447,-187500.02235174447,-187500.02235174447,-187500.02235174447,-187500.02235174447,1730656579.183574,1730656577.150621,2000
23093.554150289798,-104657.77422878436,26069.152482647,-187500.02235174447,-187500.02235174447,-187500.02235174447,-187500.02235174447,-187500.02235174447,1730656579.1886823,1730656577.150621,2000
23099.34325210372,-104633.07555116124,26064.950354689405,-187500.02235174447,-187500.02235174447,-187500.02235174447,-187500.02235174447,-187500.02235174447,1730656579.1915631,1730656577.150621,2000
23103.299510872308,-104660.456438119,26065.62090702306,-187500.02235174447,-187500.02235174447,-187500.02235174447,-187500.02235174447,-187500.02235174447,1730656579.195556,1730656577.150621,2000
23098.493885814416,-104663.31746140929,26071.63352628154,-187500.02235174447,-187500.02235174447,-187500.02235174447,-187500.02235174447,-187500.02235174447,1730656579.1995544,1730656577.150621,2000
23096.52693230235,-104661.79754278631,26069.57716579165,-187500.02235174447,-187500.02235174447,-187500.02235174447,-187500.02235174447,-187500.02235174447,1730656579.2036452,1730656577.150621,2000
23104.7523742619,-104684.48456340843,26059.20595636439,-187500.02235174447,-187500.02235174447,-187500.02235174447,-187500.02235174447,-187500.02235174447,1730656579.2076128,1730656577.150621,2000
23104.551208561803,-104731.55733723132,26063.16221513298,-187500.02235174447,-187500.02235174447,-187500.02235174447,-187500.02235174447,-187500.02235174447,1730656579.211629,1730656577.150621,2000
23098.8515137257,-104668.50306612292,26058.647162753008,-187500.02235174447,-187500.02235174447,-187500.02235174447,-187500.02235174447,-187500.02235174447,1730656579.2166097,1730656577.150621,2000
23105.646444040118,-104672.14640046912,26072.25937512629,-187500.02235174447,-187500.02235174447,-187500.02235174447,-187500.02235174447,-187500.02235174447,1730656579.219594,1730656577.150621,2000
23101.86899922717,-104695.213400747,26068.48193031334,-187500.02235174447,-187500.02235174447,-187500.02235174447,-187500.02235174447,-187500.02235174447,1730656579.2256465,1730656577.150621,2000
23101.064336426774,-104695.705139125,26064.235098866837,-187500.02235174447,-187500.02235174447,-187500.02235174447,-187500.02235174447,-187500.02235174447,1730656579.2306273,1730656577.150621,2000
23101.600778293705,-104724.89651738363,26066.000886678805,-187500.02235174447,-187500.02235174447,-187500.02235174447,-187500.02235174447,-187500.02235174447,1730656579.2346368,1730656577.150621,2000
23093.688260756524,-104696.84507809224,26059.898860442503,-187500.02235174447,-187500.02235174447,-187500.02235174447,-187500.02235174447,-187500.02235174447,1730656579.2386527,1730656577.150621,2000
23103.81360099478,-104656.76840028388,26058.758921475284,-187500.02235174447,-187500.02235174447,-187500.02235174447,-187500.02235174447,-187500.02235174447,1730656579.2416332,1730656577.150621,2000
23104.37239460616,-104681.17650522906,26064.570375033665,-187500.02235174447,-187500.02235174447,-187500.02235174447,-187500.02235174447,-187500.02235174447,1730656579.2456667,1730656577.150621,2000
23095.409345079584,-104658.64594681811,26069.621869280563,-187500.02235174447,-187500.02235174447,-187500.02235174447,-187500.02235174447,-187500.02235174447,1730656579.248682,1730656577.150621,2000
23095.878731713143,-104667.49723762242,26067.27493611276,-187500.02235174447,-187500.02235174447,-187500.02235174447,-187500.02235174447,-187500.02235174447,1730656579.2517407,1730656577.150621,2000
23100.61730153767,-104697.8062031038,26063.34102908862,-187500.02235174447,-187500.02235174447,-187500.02235174447,-187500.02235174447,-187500.02235174447,1730656579.2556589,1730656577.150621,2000
23097.30924335829,-104686.78679308736,26064.34685758911,-187500.02235174447,-187500.02235174447,-187500.02235174447,-187500.02235174447,-187500.02235174447,1730656579.2596831,1730656577.150621,2000
23099.34325210372,-104713.05009282232,26064.99505817832,-187500.02235174447,-187500.02235174447,-187500.02235174447,-187500.02235174447,-187500.02235174447,1730656579.2636762,1730656577.150621,2000
23097.398650336105,-104737.01116287842,26065.419741322967,-187500.02235174447,-187500.02235174447,-187500.02235174447,-187500.02235174447,-187500.02235174447,1730656579.2676916,1730656577.150621,2000
23088.99439442091,-104674.49333363691,26056.233174351837,-187500.02235174447,-187500.02235174447,-187500.02235174447,-187500.02235174447,-187500.02235174447,1730656579.2717144,1730656577.150621,2000
23096.169304391064,-104653.9073769936,26060.189433120424,-187500.02235174447,-187500.02235174447,-187500.02235174447,-187500.02235174447,-187500.02235174447,1730656579.274716,1730656577.150621,2000
23097.62216778066,-104674.78390631484,26062.96104943288,-187500.02235174447,-187500.02235174447,-187500.02235174447,-187500.02235174447,-187500.02235174447,1730656579.278702,1730656577.150621,2000
23095.588159035226,-104659.38355438516,26061.86581395457,-187500.02235174447,-187500.02235174447,-187500.02235174447,-187500.02235174447,-187500.02235174447,1730656579.2841456,1730656577.150621,2000
23095.789324735324,-104677.84609530524,26062.53636628823,-187500.02235174447,-187500.02235174447,-187500.02235174447,-187500.02235174447,-187500.02235174447,1730656579.287693,1730656577.150621,2000
23097.71157475848,-104692.710005368,26065.375037834056,-187500.02235174447,-187500.02235174447,-187500.02235174447,-187500.02235174447,-187500.02235174447,1730656579.291736,1730656577.150621,2000
23096.392821835616,-104680.9529877845,26068.03489542424,-187500.02235174447,-187500.02235174447,-187500.02235174447,-187500.02235174447,-187500.02235174447,1730656579.2957444,1730656577.150621,2000
23096.728098002448,-104672.32521442477,26066.2020523789,-187500.02235174447,-187500.02235174447,-187500.02235174447,-187500.02235174447,-187500.02235174447,1730656579.299726,1730656577.150621,2000
23098.80681023679,-104707.32804624178,26061.93286918794,-187500.02235174447,-187500.02235174447,-187500.02235174447,-187500.02235174447,-187500.02235174447,1730656579.3027644,1730656577.150621,2000
23098.80681023679,-104693.98405480196,26056.83667145213,-187500.02235174447,-187500.02235174447,-187500.02235174447,-187500.02235174447,-187500.02235174447,1730656579.3097584,1730656577.150621,2000
23098.650348025603,-104661.26110091938,26063.83276746664,-187500.02235174447,-187500.02235174447,-187500.02235174447,-187500.02235174447,-187500.02235174447,1730656579.3137968,1730656577.150621,2000
23096.839856724724,-104664.81502828778,26065.21857562287,-187500.02235174447,-187500.02235174447,-187500.02235174447,-187500.02235174447,-187500.02235174447,1730656579.318812,1730656577.150621,2000
23100.12556315965,-104667.67605157806,26066.49262505682,-187500.02235174447,-187500.02235174447,-187500.02235174447,-187500.02235174447,-187500.02235174447,1730656579.3217883,1730656577.150621,2000
23092.61537702267,-104653.81797001576,26059.34006683112,-187500.02235174447,-187500.02235174447,-187500.02235174447,-187500.02235174447,-187500.02235174447,1730656579.3247428,1730656577.150621,2000
23096.683394513537,-104642.73150476594,26054.601497006595,-187500.02235174447,-187500.02235174447,-187500.02235174447,-187500.02235174447,-187500.02235174447,1730656579.3288195,1730656577.150621,2000
23101.533723060336,-104670.11239172368,26067.744322746315,-187500.02235174447,-187500.02235174447,-187500.02235174447,-187500.02235174447,-187500.02235174447,1730656579.33182,1730656577.150621,2000
23104.953539962,-104701.87422059468,26068.012543679783,-187500.02235174447,-187500.02235174447,-187500.02235174447,-187500.02235174447,-187500.02235174447,1730656579.3348167,1730656577.150621,2000
23101.28785387133,-104677.01908076038,26065.665610511973,-187500.02235174447,-187500.02235174447,-187500.02235174447,-187500.02235174447,-187500.02235174447,1730656579.338797,1730656577.150621,2000
23099.030327681343,-104699.8625635937,26069.219537880366,-187500.02235174447,-187500.02235174447,-187500.02235174447,-187500.02235174447,-187500.02235174447,1730656579.3438263,1730656577.150621,2000
23094.358813090184,-104699.05790079333,26061.463482554376,-187500.02235174447,-187500.02235174447,-187500.02235174447,-187500.02235174447,-187500.02235174447,1730656579.3478065,1730656577.150621,2000
23093.28592935633,-104647.0006879569,26057.417816807967,-187500.02235174447,-187500.02235174447,-187500.02235174447,-187500.02235174447,-187500.02235174447,1730656579.3508108,1730656577.150621,2000
23099.790286992826,-104645.5925280562,26056.099063885104,-187500.02235174447,-187500.02235174447,-187500.02235174447,-187500.02235174447,-187500.02235174447,1730656579.3547747,1730656577.150621,2000
23099.276196870356,-104648.61001355769,26058.98243891984,-187500.02235174447,-187500.02235174447,-187500.02235174447,-187500.02235174447,-187500.02235174447,1730656579.3588216,1730656577.150621,2000
23098.33742360323,-104658.5565398403,26066.22440412336,-187500.02235174447,-187500.02235174447,-187500.02235174447,-187500.02235174447,-187500.02235174447,1730656579.3628469,1730656577.150621,2000
23102.204275394,-104646.37483911216,26064.905651200494,-187500.02235174447,-187500.02235174447,-187500.02235174447,-187500.02235174447,-187500.02235174447,1730656579.3678324,1730656577.150621,2000
23098.650348025603,-104630.66156276008,26064.100988400103,-187500.02235174447,-187500.02235174447,-187500.02235174447,-187500.02235174447,-187500.02235174447,1730656579.3717873,1730656577.150621,2000
23101.48901957143,-104637.5011965634,26066.738494245827,-187500.02235174447,-187500.02235174447,-187500.02235174447,-187500.02235174447,-187500.02235174447,1730656579.3759053,1730656577.150621,2000
23098.38212709214,-104638.90935646408,26068.638392524528,-187500.02235174447,-187500.02235174447,-187500.02235174447,-187500.02235174447,-187500.02235174447,1730656579.3799157,1730656577.150621,2000
23089.32967058774,-104671.94523476902,26064.68213375594,-187500.02235174447,-187500.02235174447,-187500.02235174447,-187500.02235174447,-187500.02235174447,1730656579.382858,1730656577.150621,2000
23089.19556012101,-104682.1152784962,26061.709351743382,-187500.02235174447,-187500.02235174447,-187500.02235174447,-187500.02235174447,-187500.02235174447,1730656579.3868935,1730656577.150621,2000
23093.509446800883,-104643.29029837732,26060.34589533161,-187500.02235174447,-187500.02235174447,-187500.02235174447,-187500.02235174447,-187500.02235174447,1730656579.3908265,1730656577.150621,2000
23107.85926674119,-104653.68385954904,26058.69186624192,-187500.02235174447,-187500.02235174447,-187500.02235174447,-187500.02235174447,-187500.02235174447,1730656579.3948674,1730656577.150621,2000
23104.886484728635,-104674.31451968128,26061.664648254475,-187500.02235174447,-187500.02235174447,-187500.02235174447,-187500.02235174447,-187500.02235174447,1730656579.4019313,1730656577.150621,2000
23091.251920610892,-104652.99095547092,26063.899822700005,-187500.02235174447,-187500.02235174447,-187500.02235174447,-187500.02235174447,-187500.02235174447,1730656579.4069412,1730656577.150621,2000
23094.47057181246,-104635.91422270708,26064.39156107802,-187500.02235174447,-187500.02235174447,-187500.02235174447,-187500.02235174447,-187500.02235174447,1730656579.409937,1730656577.150621,2000
23101.824295738257,-104642.08330417672,26069.420703580465,-187500.02235174447,-187500.02235174447,-187500.02235174447,-187500.02235174447,-187500.02235174447,1730656579.4129243,1730656577.150621,2000
23102.91953121657,-104694.31933096878,26067.699619257408,-187500.02235174447,-187500.02235174447,-187500.02235174447,-187500.02235174447,-187500.02235174447,1730656579.4169948,1730656577.150621,2000
23101.936054460533,-104658.33302239576,26064.548023289208,-187500.02235174447,-187500.02235174447,-187500.02235174447,-187500.02235174447,-187500.02235174447,1730656579.4199305,1730656577.150621,2000
23102.11486841617,-104652.16394092608,26065.598555278608,-187500.02235174447,-187500.02235174447,-187500.02235174447,-187500.02235174447,-187500.02235174447,1730656579.422932,1730656577.150621,2000
23100.147914904108,-104652.40981011507,26068.459578568887,-187500.02235174447,-187500.02235174447,-187500.02235174447,-187500.02235174447,-187500.02235174447,1730656579.4269469,1730656577.150621,2000
23101.533723060336,-104657.17073168406,26063.050456410703,-187500.02235174447,-187500.02235174447,-187500.02235174447,-187500.02235174447,-187500.02235174447,1730656579.431939,1730656577.150621,2000
23102.785420749835,-104712.15602304412,26067.92313670196,-187500.02235174447,-187500.02235174447,-187500.02235174447,-187500.02235174447,-187500.02235174447,1730656579.4349797,1730656577.150621,2000
23095.878731713143,-104701.02485430536,26065.106816900592,-187500.02235174447,-187500.02235174447,-187500.02235174447,-187500.02235174447,-187500.02235174447,1730656579.4389486,1730656577.150621,2000
23093.86707471217,-104669.9559295125,26060.703523242897,-187500.02235174447,-187500.02235174447,-187500.02235174447,-187500.02235174447,-187500.02235174447,1730656579.4429853,1730656577.150621,2000
23094.559978790283,-104660.72465905246,26059.228308108846,-187500.02235174447,-187500.02235174447,-187500.02235174447,-187500.02235174447,-187500.02235174447,1730656579.446978,1730656577.150621,2000
23096.035193924334,-104661.05993521928,26055.96495341837,-187500.02235174447,-187500.02235174447,-187500.02235174447,-187500.02235174447,-187500.02235174447,1730656579.4509854,1730656577.150621,2000
23096.19165613552,-104668.10073472271,26064.43626456693,-187500.02235174447,-187500.02235174447,-187500.02235174447,-187500.02235174447,-187500.02235174447,1730656579.4549787,1730656577.150621,2000
23099.320900359264,-104680.72947033995,26068.77250299126,-187500.02235174447,-187500.02235174447,-187500.02235174447,-187500.02235174447,-187500.02235174447,1730656579.4610045,1730656577.150621,2000
23103.925359717057,-104692.08415652324,26058.669514497466,-187500.02235174447,-187500.02235174447,-187500.02235174447,-187500.02235174447,-187500.02235174447,1730656579.4639604,1730656577.150621,2000
23099.499714314905,-104624.6489435016,26057.618982508066,-187500.02235174447,-187500.02235174447,-187500.02235174447,-187500.02235174447,-187500.02235174447,1730656579.467991,1730656577.150621,2000
23097.465705569477,-104644.8549204892,26066.89495645701,-187500.02235174447,-187500.02235174447,-187500.02235174447,-187500.02235174447,-187500.02235174447,1730656579.4709888,1730656577.150621,2000
23100.326728859756,-104670.78294405734,26068.616040780074,-187500.02235174447,-187500.02235174447,-187500.02235174447,-187500.02235174447,-187500.02235174447,1730656579.4751112,1730656577.150621,2000
23104.461801583984,-104652.83449325974,26067.4537500684,-187500.02235174447,-187500.02235174447,-187500.02235174447,-187500.02235174447,-187500.02235174447,1730656579.479045,1730656577.150621,2000
23101.556074804797,-104651.69455429252,26064.01158142228,-187500.02235174447,-187500.02235174447,-187500.02235174447,-187500.02235174447,-187500.02235174447,1730656579.4830253,1730656577.150621,2000
23098.76210674788,-104652.96860372646,26068.794854735715,-187500.02235174447,-187500.02235174447,-187500.02235174447,-187500.02235174447,-187500.02235174447,1730656579.4870665,1730656577.150621,2000
23099.36560384817,-104660.2552724189,26067.520805301763,-187500.02235174447,-187500.02235174447,-187500.02235174447,-187500.02235174447,-187500.02235174447,1730656579.490028,1730656577.150621,2000
23105.75820276239,-104686.719737854,26071.141787903525,-187500.02235174447,-187500.02235174447,-187500.02235174447,-187500.02235174447,-187500.02235174447,1730656579.4950144,1730656577.150621,2000
23098.62799628115,-104679.09779299473,26068.191357635424,-187500.02235174447,-187500.02235174447,-187500.02235174447,-187500.02235174447,-187500.02235174447,1730656579.499009,1730656577.150621,2000
23092.57067353376,-104667.76545855588,26054.71325572887,-187500.02235174447,-187500.02235174447,-187500.02235174447,-187500.02235174447,-187500.02235174447,1730656579.5031075,1730656577.150621,2000
23098.04685092531,-104659.4953131074,26057.373113319056,-187500.02235174447,-187500.02235174447,-187500.02235174447,-187500.02235174447,-187500.02235174447,1730656579.5071142,1730656577.150621,2000
23104.50650507289,-104696.82272634776,26068.68309601344,-187500.02235174447,-187500.02235174447,-187500.02235174447,-187500.02235174447,-187500.02235174447,1730656579.512097,1730656577.150621,2000
23098.13625790313,-104696.08511878076,26062.15638663249,-187500.02235174447,-187500.02235174447,-187500.02235174447,-187500.02235174447,-187500.02235174447,1730656579.515483,1730656577.150621,2000
23093.19652237851,-104663.67508932056,26056.456691796386,-187500.02235174447,-187500.02235174447,-187500.02235174447,-187500.02235174447,-187500.02235174447,1730656579.5181088,1730656577.150621,2000
23094.559978790283,-104657.5060078509,26064.39156107802,-187500.02235174447,-187500.02235174447,-187500.02235174447,-187500.02235174447,-187500.02235174447,1730656579.5220785,1730656577.150621,2000
23096.52693230235,-104657.26013866188,26067.766674490773,-187500.02235174447,-187500.02235174447,-187500.02235174447,-187500.02235174447,-187500.02235174447,1730656579.5271647,1730656577.150621,2000
23097.13042940264,-104644.96667921147,26059.63063950904,-187500.02235174447,-187500.02235174447,-187500.02235174447,-187500.02235174447,-187500.02235174447,1730656579.531084,1730656577.150621,2000
23096.638691024626,-104626.32532433576,26060.72587498735,-187500.02235174447,-187500.02235174447,-187500.02235174447,-187500.02235174447,-187500.02235174447,1730656579.5350816,1730656577.150621,2000
23101.04198468232,-104647.22420540144,26066.02323842326,-187500.02235174447,-187500.02235174447,-187500.02235174447,-187500.02235174447,-187500.02235174447,1730656579.5390766,1730656577.150621,2000
23101.310205615784,-104697.33681647026,26067.34199134612,-187500.02235174447,-187500.02235174447,-187500.02235174447,-187500.02235174447,-187500.02235174447,1730656579.545142,1730656577.150621,2000
23097.3539468472,-104642.3962285991,26059.094197642116,-187500.02235174447,-187500.02235174447,-187500.02235174447,-187500.02235174447,-187500.02235174447,1730656579.549117,1730656577.150621,2000
23102.27133062736,-104618.65867598756,26062.804587221694,-187500.02235174447,-187500.02235174447,-187500.02235174447,-187500.02235174447,-187500.02235174447,1730656579.5532367,1730656577.150621,2000
23099.92439745956,-104620.58092601072,26061.999924421303,-187500.02235174447,-187500.02235174447,-187500.02235174447,-187500.02235174447,-187500.02235174447,1730656579.556176,1730656577.150621,2000
23101.377260849156,-104608.75685319387,26066.87260471256,-187500.02235174447,-187500.02235174447,-187500.02235174447,-187500.02235174447,-187500.02235174447,1730656579.5592594,1730656577.150621,2000
