Fp1,Fp2,C3,C4,P7,P8,O1,O2,time_board,time_marker,marker
-31716.678347191617,-183108.3068976768,-1445.6214243914396,-187500.02235174447,-187500.02235174447,-187500.02235174447,-187500.02235174447,-187500.02235174447,1730328071.4725204,1730328071.4696314,2000
-31758.61021978977,-183140.1357817812,-1466.2744362681433,-187500.02235174447,-187500.02235174447,-187500.02235174447,-187500.02235174447,-187500.02235174447,1730328071.476648,1730328071.4696314,2000
-31783.018324734967,-183137.34181372428,-1421.6603543353503,-187500.02235174447,-187500.02235174447,-187500.02235174447,-187500.02235174447,-187500.02235174447,1730328071.4805672,1730328071.4696314,2000
-31738.33718756881,-183193.10941614027,-1387.8421649744707,-187500.02235174447,-187500.02235174447,-187500.02235174447,-187500.02235174447,-187500.02235174447,1730328071.4857428,1730328071.4696314,2000
-31712.587977956293,-183252.4532976691,-1425.8624822929482,-187500.02235174447,-187500.02235174447,-187500.02235174447,-187500.02235174447,-187500.02235174447,1730328071.4886065,1730328071.4696314,2000
-31752.932876698123,-183265.0596815419,-1464.3968897338975,-187500.02235174447,-187500.02235174447,-187500.02235174447,-187500.02235174447,-187500.02235174447,1730328071.492689,1730328071.4696314,2000
-31789.120350971265,-183237.7011463286,-1434.289089952599,-187500.02235174447,-187500.02235174447,-187500.02235174447,-187500.02235174447,-187500.02235174447,1730328071.4966187,1730328071.4696314,2000
-31748.842507462803,-183276.3696642363,-1390.032635931091,-187500.02235174447,-187500.02235174447,-187500.02235174447,-187500.02235174447,-187500.02235174447,1730328071.5005894,1730328071.4696314,2000
-31709.637547688195,-183332.45019107463,-1419.4698833787304,-187500.02235174447,-187500.02235174447,-187500.02235174447,-187500.02235174447,-187500.02235174447,1730328071.5047035,1730328071.4696314,2000
-31735.38675730071,-183373.01860726104,-1463.1004885554896,-187500.02235174447,-187500.02235174447,-187500.02235174447,-187500.02235174447,-187500.02235174447,1730328071.508604,1730328071.4696314,2000
-31782.571289845862,-183389.84947083588,-1438.0441830210905,-187500.02235174447,-187500.02235174447,-187500.02235174447,-187500.02235174447,-187500.02235174447,1730328071.5136766,1730328071.4696314,2000
-31767.61797280526,-183372.7280345831,-1398.638057546384,-187500.02235174447,-187500.02235174447,-187500.02235174447,-187500.02235174447,-187500.02235174447,1730328071.5166876,1730328071.4696314,2000
-31721.14869608268,-183452.88139019985,-1413.7925402870824,-187500.02235174447,-187500.02235174447,-187500.02235174447,-187500.02235174447,-187500.02235174447,1730328071.5206506,1730328071.4696314,2000
-31742.271094592943,-183480.97753298012,-1465.8050496345818,-187500.02235174447,-187500.02235174447,-187500.02235174447,-187500.02235174447,-187500.02235174447,1730328071.5247796,1730328071.4696314,2000
-31776.67042930966,-183539.98613834215,-1445.0179272911464,-187500.02235174447,-187500.02235174447,-187500.02235174447,-187500.02235174447,-187500.02235174447,1730328071.5288155,1730328071.4696314,2000
-31775.32932464234,-183531.0454405601,-1403.0413512040795,-187500.02235174447,-187500.02235174447,-187500.02235174447,-187500.02235174447,-187500.02235174447,1730328071.5328507,1730328071.4696314,2000
-31733.173934599632,-183539.6285104309,-1411.7138280527388,-187500.02235174447,-187500.02235174447,-187500.02235174447,-187500.02235174447,-187500.02235174447,1730328071.5365956,1730328071.4696314,2000
-31728.144792097188,-183609.589470576,-1457.736069886216,-187500.02235174447,-187500.02235174447,-187500.02235174447,-187500.02235174447,-187500.02235174447,1730328071.5408628,1730328071.4696314,2000
-31774.994048475517,-183624.38632540544,-1456.640834407906,-187500.02235174447,-187500.02235174447,-187500.02235174447,-187500.02235174447,-187500.02235174447,1730328071.5447536,1730328071.4696314,2000
-31781.54310960092,-183639.04906976808,-1406.282354150099,-187500.02235174447,-187500.02235174447,-187500.02235174447,-187500.02235174447,-187500.02235174447,1730328071.5476696,1730328071.4696314,2000
-31739.52183002494,-183636.43391566683,-1405.1871186717892,-187500.02235174447,-187500.02235174447,-187500.02235174447,-187500.02235174447,-187500.02235174447,1730328071.5528216,1730328071.4696314,2000
-31722.132172838712,-183711.69223924784,-1446.0908110250011,-187500.02235174447,-187500.02235174447,-187500.02235174447,-187500.02235174447,-187500.02235174447,1730328071.5568976,1730328071.4696314,2000
-31764.980466959536,-183769.56090564263,-1456.640834407906,-187500.02235174447,-187500.02235174447,-187500.02235174447,-187500.02235174447,-187500.02235174447,1730328071.5608692,1730328071.4696314,2000
-31782.81715903487,-183784.76009187225,-1411.8255867750154,-187500.02235174447,-187500.02235174447,-187500.02235174447,-187500.02235174447,-187500.02235174447,1730328071.5646667,1730328071.4696314,2000
-31744.953303927578,-183794.5054524548,-1403.0189994596244,-187500.02235174447,-187500.02235174447,-187500.02235174447,-187500.02235174447,-187500.02235174447,1730328071.5689142,1730328071.4696314,2000
-31732.30221656588,-183763.2800654507,-1457.9819390752243,-187500.02235174447,-187500.02235174447,-187500.02235174447,-187500.02235174447,-187500.02235174447,1730328071.5717058,1730328071.4696314,2000
-31752.61995227575,-183852.24000838285,-1463.1675437888557,-187500.02235174447,-187500.02235174447,-187500.02235174447,-187500.02235174447,-187500.02235174447,1730328071.5759337,1730328071.4696314,2000
-31775.418731620164,-183901.8161775847,-1419.8275112900153,-187500.02235174447,-187500.02235174447,-187500.02235174447,-187500.02235174447,-187500.02235174447,1730328071.579837,1730328071.4696314,2000
-31739.49947828049,-183912.00857305632,-1395.7323307671943,-187500.02235174447,-187500.02235174447,-187500.02235174447,-187500.02235174447,-187500.02235174447,1730328071.5847228,1730328071.4696314,2000
-31723.24976006148,-183895.17770948145,-1439.7429155996938,-187500.02235174447,-187500.02235174447,-187500.02235174447,-187500.02235174447,-187500.02235174447,1730328071.5886984,1730328071.4696314,2000
-31758.409054089672,-183919.29524174877,-1469.4260322363416,-187500.02235174447,-187500.02235174447,-187500.02235174447,-187500.02235174447,-187500.02235174447,1730328071.592697,1730328071.4696314,2000
-31778.503272355,-183992.45250135096,-1430.221072461733,-187500.02235174447,-187500.02235174447,-187500.02235174447,-187500.02235174447,-187500.02235174447,1730328071.5967388,1730328071.4696314,2000
-31751.85999296427,-184009.4845306259,-1395.061778433535,-187500.02235174447,-187500.02235174447,-187500.02235174447,-187500.02235174447,-187500.02235174447,1730328071.5999253,1730328071.4696314,2000
-31724.434402517607,-183993.7712542738,-1434.154979485867,-187500.02235174447,-187500.02235174447,-187500.02235174447,-187500.02235174447,-187500.02235174447,1730328071.6038923,1730328071.4696314,2000
-31744.70743473857,-184011.74205681589,-1474.9245613723472,-187500.02235174447,-187500.02235174447,-187500.02235174447,-187500.02235174447,-187500.02235174447,1730328071.608905,1730328071.4696314,2000
-31773.272964152453,-184100.7467032369,-1439.027659777124,-187500.02235174447,-187500.02235174447,-187500.02235174447,-187500.02235174447,-187500.02235174447,1730328071.612944,1730328071.4696314,2000
-31761.58300180233,-184117.1081801782,-1396.9169732233254,-187500.02235174447,-187500.02235174447,-187500.02235174447,-187500.02235174447,-187500.02235174447,1730328071.6169736,1730328071.4696314,2000
-31724.21088507305,-184158.7941835873,-1414.418389131831,-187500.02235174447,-187500.02235174447,-187500.02235174447,-187500.02235174447,-187500.02235174447,1730328071.620963,1730328071.4696314,2000
-31736.28082707892,-184180.29656175332,-1471.2365235372215,-187500.02235174447,-187500.02235174447,-187500.02235174447,-187500.02235174447,-187500.02235174447,1730328071.6240168,1730328071.4696314,2000
-31776.938650243123,-184183.55991644383,-1460.932369343325,-187500.02235174447,-187500.02235174447,-187500.02235174447,-187500.02235174447,-187500.02235174447,1730328071.6279905,1730328071.4696314,2000
-31768.48969083902,-184246.52478057443,-1403.7789587711047,-187500.02235174447,-187500.02235174447,-187500.02235174447,-187500.02235174447,-187500.02235174447,1730328071.6320062,1730328071.4696314,2000
-31727.116611852245,-184251.01748120997,-1415.1112932099454,-187500.02235174447,-187500.02235174447,-187500.02235174447,-187500.02235174447,-187500.02235174447,1730328071.6360176,1730328071.4696314,2000
-31728.23419907501,-184276.6325803557,-1468.0625758245678,-187500.02235174447,-187500.02235174447,-187500.02235174447,-187500.02235174447,-187500.02235174447,1730328071.640061,1730328071.4696314,2000
-31773.027094963443,-184282.0640542584,-1467.995520591202,-187500.02235174447,-187500.02235174447,-187500.02235174447,-187500.02235174447,-187500.02235174447,1730328071.6440463,1730328071.4696314,2000
-31774.50231009749,-184336.26703456248,-1410.7750547856158,-187500.02235174447,-187500.02235174447,-187500.02235174447,-187500.02235174447,-187500.02235174447,1730328071.6478832,1730328071.4696314,2000
-31736.772565456937,-184363.04442441996,-1407.0199617171245,-187500.02235174447,-187500.02235174447,-187500.02235174447,-187500.02235174447,-187500.02235174447,1730328071.6530426,1730328071.4696314,2000
-31726.98250138551,-184408.73139008656,-1461.513514699163,-187500.02235174447,-187500.02235174447,-187500.02235174447,-187500.02235174447,-187500.02235174447,1730328071.656968,1730328071.4696314,2000
-31768.422635605653,-184418.78967509148,-1478.76906141866,-187500.02235174447,-187500.02235174447,-187500.02235174447,-187500.02235174447,-187500.02235174447,1730328071.6610577,1730328071.4696314,2000
-31785.16409220268,-184398.74016031504,-1427.4718078937303,-187500.02235174447,-187500.02235174447,-187500.02235174447,-187500.02235174447,-187500.02235174447,1730328071.663828,1730328071.4696314,2000
-31737.15254511268,-184450.66326268477,-1403.153109926356,-187500.02235174447,-187500.02235174447,-187500.02235174447,-187500.02235174447,-187500.02235174447,1730328071.6679728,1730328071.4696314,2000
-31717.99710011448,-184503.01104819909,-1450.2035320047776,-187500.02235174447,-187500.02235174447,-187500.02235174447,-187500.02235174447,-187500.02235174447,1730328071.6718912,1730328071.4696314,2000
-31758.56551630086,-184503.2345656436,-1481.183049819833,-187500.02235174447,-187500.02235174447,-187500.02235174447,-187500.02235174447,-187500.02235174447,1730328071.6760118,1730328071.4696314,2000
-31783.308897412888,-184506.18499591167,-1439.050011521579,-187500.02235174447,-187500.02235174447,-187500.02235174447,-187500.02235174447,-187500.02235174447,1730328071.6808715,1730328071.4696314,2000
-31746.13794638371,-184550.62026388888,-1404.829490760504,-187500.02235174447,-187500.02235174447,-187500.02235174447,-187500.02235174447,-187500.02235174447,1730328071.6850352,1730328071.4696314,2000
-31723.450925761572,-184574.80485138952,-1448.415392448353,-187500.02235174447,-187500.02235174447,-187500.02235174447,-187500.02235174447,-187500.02235174447,1730328071.6889155,1730328071.4696314,2000
-31747.680216751127,-184616.60261352092,-1483.3958725209086,-187500.02235174447,-187500.02235174447,-187500.02235174447,-187500.02235174447,-187500.02235174447,1730328071.691866,1730328071.4696314,2000
-31781.878385767748,-184641.70362254424,-1448.7059651262718,-187500.02235174447,-187500.02235174447,-187500.02235174447,-187500.02235174447,-187500.02235174447,1730328071.6960728,1730328071.4696314,2000
-31753.35755984277,-184668.68217810185,-1405.678857049806,-187500.02235174447,-187500.02235174447,-187500.02235174447,-187500.02235174447,-187500.02235174447,1730328071.7001011,1730328071.4696314,2000
-31718.846466403786,-184684.55191666508,-1435.607842875462,-187500.02235174447,-187500.02235174447,-187500.02235174447,-187500.02235174447,-187500.02235174447,1730328071.704152,1730328071.4696314,2000
-31744.59567601629,-184678.60635264,-1483.1052998429896,-187500.02235174447,-187500.02235174447,-187500.02235174447,-187500.02235174447,-187500.02235174447,1730328071.7081244,1730328071.4696314,2000
-31778.547975843907,-184735.75976321215,-1458.9877675757132,-187500.02235174447,-187500.02235174447,-187500.02235174447,-187500.02235174447,-187500.02235174447,1730328071.7131484,1730328071.4696314,2000
-31762.253554135987,-184753.01530993168,-1415.6253833324174,-187500.02235174447,-187500.02235174447,-187500.02235174447,-187500.02235174447,-187500.02235174447,1730328071.716128,1730328071.4696314,2000
-31720.99223387149,-184774.89766775345,-1433.5514823855738,-187500.02235174447,-187500.02235174447,-187500.02235174447,-187500.02235174447,-187500.02235174447,1730328071.7201445,1730328071.4696314,2000
-31733.06217587736,-184756.77040300015,-1487.374483033953,-187500.02235174447,-187500.02235174447,-187500.02235174447,-187500.02235174447,-187500.02235174447,1730328071.724152,1730328071.4696314,2000
-31760.57717330184,-184857.1297356045,-1460.6194449209506,-187500.02235174447,-187500.02235174447,-187500.02235174447,-187500.02235174447,-187500.02235174447,1730328071.72814,1730328071.4696314,2000
-31757.582039544828,-184929.0576492617,-1407.9810867287024,-187500.02235174447,-187500.02235174447,-187500.02235174447,-187500.02235174447,-187500.02235174447,1730328071.732124,1730328071.4696314,2000
-31719.986405371,-184937.52896041024,-1419.3581246564538,-187500.02235174447,-187500.02235174447,-187500.02235174447,-187500.02235174447,-187500.02235174447,1730328071.7361512,1730328071.4696314,2000
-31725.26141706245,-184939.98765230036,-1473.4046427493863,-187500.02235174447,-187500.02235174447,-187500.02235174447,-187500.02235174447,-187500.02235174447,1730328071.7409947,1730328071.4696314,2000
-31765.874536737745,-184969.02256834775,-1471.5494479595957,-187500.02235174447,-187500.02235174447,-187500.02235174447,-187500.02235174447,-187500.02235174447,1730328071.7440135,1730328071.4696314,2000
-31769.69668503961,-185005.14298738755,-1421.2133194462442,-187500.02235174447,-187500.02235174447,-187500.02235174447,-187500.02235174447,-187500.02235174447,1730328071.74797,1730328071.4696314,2000
-31729.21767583104,-185018.71049627196,-1414.3736856429202,-187500.02235174447,-187500.02235174447,-187500.02235174447,-187500.02235174447,-187500.02235174447,1730328071.7521667,1730328071.4696314,2000
-31720.075812348823,-185029.55109233275,-1469.895418869903,-187500.02235174447,-187500.02235174447,-187500.02235174447,-187500.02235174447,-187500.02235174447,1730328071.7560103,1730328071.4696314,2000
-31761.024208190946,-185037.7094790589,-1486.0780818555454,-187500.02235174447,-187500.02235174447,-187500.02235174447,-187500.02235174447,-187500.02235174447,1730328071.760134,1730328071.4696314,2000
-31762.074740180346,-185135.56541628423,-1424.9460607702806,-187500.02235174447,-187500.02235174447,-187500.02235174447,-187500.02235174447,-187500.02235174447,1730328071.764001,1730328071.4696314,2000
-31728.99415838649,-185137.4429628185,-1407.846976261971,-187500.02235174447,-187500.02235174447,-187500.02235174447,-187500.02235174447,-187500.02235174447,1730328071.7690449,1730328071.4696314,2000
-31713.66086169015,-185152.2621693924,-1455.5232471851407,-187500.02235174447,-187500.02235174447,-187500.02235174447,-187500.02235174447,-187500.02235174447,1730328071.7719886,1730328071.4696314,2000
-31749.937742941114,-185191.69064661156,-1484.5134597436738,-187500.02235174447,-187500.02235174447,-187500.02235174447,-187500.02235174447,-187500.02235174447,1730328071.776121,1730328071.4696314,2000
-31781.74427530101,-185185.78978607533,-1445.6884796248055,-187500.02235174447,-187500.02235174447,-187500.02235174447,-187500.02235174447,-187500.02235174447,1730328071.7801342,1730328071.4696314,2000
-31737.823097446337,-185275.59909529675,-1399.353313368954,-187500.02235174447,-187500.02235174447,-187500.02235174447,-187500.02235174447,-187500.02235174447,1730328071.78419,1730328071.4696314,2000
-31704.720163908027,-185316.5921946278,-1438.4241626768307,-187500.02235174447,-187500.02235174447,-187500.02235174447,-187500.02235174447,-187500.02235174447,1730328071.78833,1730328071.4696314,2000
-31741.242914348,-185300.36482815325,-1488.5814772345398,-187500.02235174447,-187500.02235174447,-187500.02235174447,-187500.02235174447,-187500.02235174447,1730328071.7921195,1730328071.4696314,2000
-31778.39151363272,-185332.998375058,-1451.566988416551,-187500.02235174447,-187500.02235174447,-187500.02235174447,-187500.02235174447,-187500.02235174447,1730328071.7971551,1730328071.4696314,2000
-31754.117519154253,-185384.005055905,-1402.9295924818032,-187500.02235174447,-187500.02235174447,-187500.02235174447,-187500.02235174447,-187500.02235174447,1730328071.8002183,1730328071.4696314,2000
-31716.07485009132,-185399.38305609024,-1432.9479852852803,-187500.02235174447,-187500.02235174447,-187500.02235174447,-187500.02235174447,-187500.02235174447,1730328071.804253,1730328071.4696314,2000
-31733.28569332191,-185401.4170648357,-1484.2899422991209,-187500.02235174447,-187500.02235174447,-187500.02235174447,-187500.02235174447,-187500.02235174447,1730328071.8082752,1730328071.4696314,2000
-31765.20398440409,-185477.54710645045,-1455.120915784945,-187500.02235174447,-187500.02235174447,-187500.02235174447,-187500.02235174447,-187500.02235174447,1730328071.8122723,1730328071.4696314,2000
-31757.49263256701,-185508.6383829878,-1409.836281518493,-187500.02235174447,-187500.02235174447,-187500.02235174447,-187500.02235174447,-187500.02235174447,1730328071.8163188,1730328071.4696314,2000
-31726.043728118388,-185473.74730989305,-1431.316307940043,-187500.02235174447,-187500.02235174447,-187500.02235174447,-187500.02235174447,-187500.02235174447,1730328071.8203375,1730328071.4696314,2000
-31724.1885333286,-185517.3779150698,-1475.8856863839253,-187500.02235174447,-187500.02235174447,-187500.02235174447,-187500.02235174447,-187500.02235174447,1730328071.8242085,1730328071.4696314,2000
-31761.001856446488,-185576.23005822065,-1467.3249682575429,-187500.02235174447,-187500.02235174447,-187500.02235174447,-187500.02235174447,-187500.02235174447,1730328071.828155,1730328071.4696314,2000
-31762.9464582141,-185590.46811943868,-1419.5592903565516,-187500.02235174447,-187500.02235174447,-187500.02235174447,-187500.02235174447,-187500.02235174447,1730328071.831088,1730328071.4696314,2000
-31721.05928910485,-185586.02012229207,-1419.5592903565516,-187500.02235174447,-187500.02235174447,-187500.02235174447,-187500.02235174447,-187500.02235174447,1730328071.8362858,1730328071.4696314,2000
-31715.963091369045,-185620.55356747552,-1470.0295293366348,-187500.02235174447,-187500.02235174447,-187500.02235174447,-187500.02235174447,-187500.02235174447,1730328071.8403332,1730328071.4696314,2000
-31762.70058902509,-185600.88403235484,-1483.932314387836,-187500.02235174447,-187500.02235174447,-187500.02235174447,-187500.02235174447,-187500.02235174447,1730328071.844144,1730328071.4696314,2000
-31765.85218499329,-185680.94798099372,-1421.7944648020823,-187500.02235174447,-187500.02235174447,-187500.02235174447,-187500.02235174447,-187500.02235174447,1730328071.8482563,1730328071.4696314,2000
-31730.46937352054,-185702.96444928224,-1412.3396768974874,-187500.02235174447,-187500.02235174447,-187500.02235174447,-187500.02235174447,-187500.02235174447,1730328071.8523588,1730328071.4696314,2000
-31704.1837220411,-185758.5532377426,-1460.5523896875848,-187500.02235174447,-187500.02235174447,-187500.02235174447,-187500.02235174447,-187500.02235174447,1730328071.8551447,1730328071.4696314,2000
-31745.08741439431,-185764.72231921225,-1487.061558611579,-187500.02235174447,-187500.02235174447,-187500.02235174447,-187500.02235174447,-187500.02235174447,1730328071.8592098,1730328071.4696314,2000
-31765.494557082005,-185754.03818536265,-1440.5252266556297,-187500.02235174447,-187500.02235174447,-187500.02235174447,-187500.02235174447,-187500.02235174447,1730328071.864168,1730328071.4696314,2000
-31722.84742866128,-185807.57061333308,-1409.322191396021,-187500.02235174447,-187500.02235174447,-187500.02235174447,-187500.02235174447,-187500.02235174447,1730328071.868226,1730328071.4696314,2000
-31698.37226848272,-185836.35966019152,-1450.0247180491351,-187500.02235174447,-187500.02235174447,-187500.02235174447,-187500.02235174447,-187500.02235174447,1730328071.8721447,1730328071.4696314,2000
-31732.90571366617,-185861.7959453817,-1482.3676922759644,-187500.02235174447,-187500.02235174447,-187500.02235174447,-187500.02235174447,-187500.02235174447,1730328071.8762944,1730328071.4696314,2000
-31757.939667456118,-185926.37013511304,-1440.1005435109787,-187500.02235174447,-187500.02235174447,-187500.02235174447,-187500.02235174447,-187500.02235174447,1730328071.8791404,1730328071.4696314,2000
-31729.575303742327,-185955.5391616272,-1404.002476215658,-187500.02235174447,-187500.02235174447,-187500.02235174447,-187500.02235174447,-187500.02235174447,1730328071.8833551,1730328071.4696314,2000
-31702.619099929227,-185956.47793489436,-1440.5922818889956,-187500.02235174447,-187500.02235174447,-187500.02235174447,-187500.02235174447,-187500.02235174447,1730328071.88733,1730328071.4696314,2000
-31736.8396206903,-185940.96582424236,-1494.7729104486598,-187500.02235174447,-187500.02235174447,-187500.02235174447,-187500.02235174447,-187500.02235174447,1730328071.8913643,1730328071.4696314,2000
-31771.68599029613,-185957.21554246132,-1463.3687094889533,-187500.02235174447,-187500.02235174447,-187500.02235174447,-187500.02235174447,-187500.02235174447,1730328071.896383,1730328071.4696314,2000
-31744.23804810501,-186031.915072431,-1408.2940111510768,-187500.02235174447,-187500.02235174447,-187500.02235174447,-187500.02235174447,-187500.02235174447,1730328071.9003513,1730328071.4696314,2000
-31704.56370169684,-186068.5719333377,-1431.606880617962,-187500.02235174447,-187500.02235174447,-187500.02235174447,-187500.02235174447,-187500.02235174447,1730328071.904296,1730328071.4696314,2000
-31717.0359751029,-186124.36188749812,-1478.3443782740092,-187500.02235174447,-187500.02235174447,-187500.02235174447,-187500.02235174447,-187500.02235174447,1730328071.9073029,1730328071.4696314,2000
-31766.567440815863,-186104.424131444,-1473.0693665825568,-187500.02235174447,-187500.02235174447,-187500.02235174447,-187500.02235174447,-187500.02235174447,1730328071.9113476,1730328071.4696314,2000
-31750.76475748596,-186158.425946048,-1411.8926420083812,-187500.02235174447,-187500.02235174447,-187500.02235174447,-187500.02235174447,-187500.02235174447,1730328071.915311,1730328071.4696314,2000
-31700.786256883894,-186247.60940642472,-1412.1161594529342,-187500.02235174447,-187500.02235174447,-187500.02235174447,-187500.02235174447,-187500.02235174447,1730328071.919356,1730328071.4696314,2000
-31709.57049245483,-186259.209961797,-1474.477526483241,-187500.02235174447,-187500.02235174447,-187500.02235174447,-187500.02235174447,-187500.02235174447,1730328071.9243932,1730328071.4696314,2000
-31759.41488259016,-186246.26830175737,-1480.1101660859783,-187500.02235174447,-187500.02235174447,-187500.02235174447,-187500.02235174447,-187500.02235174447,1730328071.9283538,1730328071.4696314,2000
-31767.930897227638,-186244.70367964552,-1433.0597440075571,-187500.02235174447,-187500.02235174447,-187500.02235174447,-187500.02235174447,-187500.02235174447,1730328071.9312725,1730328071.4696314,2000
-31729.46354502005,-186221.457865412,-1431.9198050403363,-187500.02235174447,-187500.02235174447,-187500.02235174447,-187500.02235174447,-187500.02235174447,1730328071.9354024,1730328071.4696314,2000
-31713.929082623614,-186283.48395627548,-1473.67286368285,-187500.02235174447,-187500.02235174447,-187500.02235174447,-187500.02235174447,-187500.02235174447,1730328071.939266,1730328071.4696314,2000
-31755.77154824395,-186321.32545963832,-1487.0839103560345,-187500.02235174447,-187500.02235174447,-187500.02235174447,-187500.02235174447,-187500.02235174447,1730328071.943308,1730328071.4696314,2000
-31768.221469905555,-186344.7947913164,-1442.5145319121518,-187500.02235174447,-187500.02235174447,-187500.02235174447,-187500.02235174447,-187500.02235174447,1730328071.9473228,1730328071.4696314,2000
-31733.486859022007,-186338.3798406577,-1428.5670433720402,-187500.02235174447,-187500.02235174447,-187500.02235174447,-187500.02235174447,-187500.02235174447,1730328071.9524062,1730328071.4696314,2000
-31709.57049245483,-186388.87243138225,-1467.7496514021936,-187500.02235174447,-187500.02235174447,-187500.02235174447,-187500.02235174447,-187500.02235174447,1730328071.956359,1730328071.4696314,2000
-31747.94843768459,-186437.263958128,-1489.7437679462157,-187500.02235174447,-187500.02235174447,-187500.02235174447,-187500.02235174447,-187500.02235174447,1730328071.9593494,1730328071.4696314,2000
-31776.491615354014,-186439.1638564067,-1447.2978052255876,-187500.02235174447,-187500.02235174447,-187500.02235174447,-187500.02235174447,-187500.02235174447,1730328071.9640305,1730328071.4696314,2000
-31740.237085847508,-186485.5660778959,-1414.418389131831,-187500.02235174447,-187500.02235174447,-187500.02235174447,-187500.02235174447,-187500.02235174447,1730328071.9675517,1730328071.4696314,2000
-31720.41108851565,-186497.85953734632,-1459.7253751427384,-187500.02235174447,-187500.02235174447,-187500.02235174447,-187500.02235174447,-187500.02235174447,1730328071.9713657,1730328071.4696314,2000
-31755.39156858821,-186499.6700286472,-1498.9973901507128,-187500.02235174447,-187500.02235174447,-187500.02235174447,-187500.02235174447,-187500.02235174447,1730328071.9755118,1730328071.4696314,2000
-31777.8997752547,-186585.36661688884,-1455.1432675294004,-187500.02235174447,-187500.02235174447,-187500.02235174447,-187500.02235174447,-187500.02235174447,1730328071.9794028,1730328071.4696314,2000
-31755.548030799397,-186600.61050660737,-1419.9839735012024,-187500.02235174447,-187500.02235174447,-187500.02235174447,-187500.02235174447,-187500.02235174447,1730328071.9844449,1730328071.4696314,2000
-31726.75898394096,-186590.79809079148,-1456.126744285434,-187500.02235174447,-187500.02235174447,-187500.02235174447,-187500.02235174447,-187500.02235174447,1730328071.9874957,1730328071.4696314,2000
-31743.63455100472,-186620.07887602795,-1492.96241914778,-187500.02235174447,-187500.02235174447,-187500.02235174447,-187500.02235174447,-187500.02235174447,1730328071.9914954,1730328071.4696314,2000
-31772.468301352063,-186713.6656300623,-1460.8429623655036,-187500.02235174447,-187500.02235174447,-187500.02235174447,-187500.02235174447,-187500.02235174447,1730328071.9955232,1730328071.4696314,2000
-31766.880365238238,-186701.3051153785,-1424.834302048004,-187500.02235174447,-187500.02235174447,-187500.02235174447,-187500.02235174447,-187500.02235174447,1730328071.9995303,1730328071.4696314,2000
-31727.38483278571,-186716.03491497456,-1442.6486423788838,-187500.02235174447,-187500.02235174447,-187500.02235174447,-187500.02235174447,-187500.02235174447,1730328072.0035205,1730328071.4696314,2000
-31744.66273124966,-186740.66653736436,-1492.0459976251122,-187500.02235174447,-187500.02235174447,-187500.02235174447,-187500.02235174447,-187500.02235174447,1730328072.0074444,1730328071.4696314,2000
-31785.16409220268,-186764.11351729796,-1476.9809218622354,-187500.02235174447,-187500.02235174447,-187500.02235174447,-187500.02235174447,-187500.02235174447,1730328072.0126014,1730328071.4696314,2000
-31778.279754910443,-186811.9909539212,-1424.990764259191,-187500.02235174447,-187500.02235174447,-187500.02235174447,-187500.02235174447,-187500.02235174447,1730328072.0154624,1730328071.4696314,2000
-31740.66176899216,-186778.55274421605,-1436.1889882313,-187500.02235174447,-187500.02235174447,-187500.02235174447,-187500.02235174447,-187500.02235174447,1730328072.019442,1730328071.4696314,2000
-31731.25168457648,-186840.5564833351,-1477.964398618269,-187500.02235174447,-187500.02235174447,-187500.02235174447,-187500.02235174447,-187500.02235174447,1730328072.023641,1730328071.4696314,2000
-31776.96100198758,-186896.7040654068,-1478.187916062822,-187500.02235174447,-187500.02235174447,-187500.02235174447,-187500.02235174447,-187500.02235174447,1730328072.0276735,1730328071.4696314,2000
-31786.61695559227,-186924.0626006201,-1429.1481887278785,-187500.02235174447,-187500.02235174447,-187500.02235174447,-187500.02235174447,-187500.02235174447,1730328072.031441,1730328071.4696314,2000
-31747.121423139743,-186956.56203705812,-1419.7157525677387,-187500.02235174447,-187500.02235174447,-187500.02235174447,-187500.02235174447,-187500.02235174447,1730328072.0355265,1730328071.4696314,2000
-31742.47226029304,-186902.42611198736,-1484.2675905546655,-187500.02235174447,-187500.02235174447,-187500.02235174447,-187500.02235174447,-187500.02235174447,1730328072.03951,1730328071.4696314,2000
-31768.33322862783,-186946.66021426444,-1492.4930325142184,-187500.02235174447,-187500.02235174447,-187500.02235174447,-187500.02235174447,-187500.02235174447,1730328072.042436,1730328071.4696314,2000
-31775.82106302036,-187047.17600907997,-1433.931462041314,-187500.02235174447,-187500.02235174447,-187500.02235174447,-187500.02235174447,-187500.02235174447,1730328072.04752,1730328071.4696314,2000
-31742.31579808185,-187076.36738733857,-1414.6866100652946,-187500.02235174447,-187500.02235174447,-187500.02235174447,-187500.02235174447,-187500.02235174447,1730328072.051636,1730328071.4696314,2000
-31726.043728118388,-187092.52769857977,-1467.3696717464534,-187500.02235174447,-187500.02235174447,-187500.02235174447,-187500.02235174447,-187500.02235174447,1730328072.0555997,1730328071.4696314,2000
-31766.43333034913,-187107.52571910928,-1497.2092505942885,-187500.02235174447,-187500.02235174447,-187500.02235174447,-187500.02235174447,-187500.02235174447,1730328072.0598795,1730328071.4696314,2000
-31797.614013864284,-187105.69287606396,-1455.6797093963278,-187500.02235174447,-187500.02235174447,-187500.02235174447,-187500.02235174447,-187500.02235174447,1730328072.0646217,1730328071.4696314,2000
-31757.0455976779,-187136.9629665569,-1414.3960373873756,-187500.02235174447,-187500.02235174447,-187500.02235174447,-187500.02235174447,-187500.02235174447,1730328072.0675995,1730328071.4696314,2000
-31725.484934507007,-187187.85788868164,-1451.991671561202,-187500.02235174447,-187500.02235174447,-187500.02235174447,-187500.02235174447,-187500.02235174447,1730328072.0707247,1730328071.4696314,2000
-31761.35948435777,-187194.4740050404,-1498.1703756058664,-187500.02235174447,-187500.02235174447,-187500.02235174447,-187500.02235174447,-187500.02235174447,1730328072.0757763,1730328071.4696314,2000
-31800.96677553258,-187165.3720337596,-1472.510572971174,-187500.02235174447,-187500.02235174447,-187500.02235174447,-187500.02235174447,-187500.02235174447,1730328072.079762,1730328071.4696314,2000
-31765.494557082005,-187211.97542094893,-1423.515549125141,-187500.02235174447,-187500.02235174447,-187500.02235174447,-187500.02235174447,-187500.02235174447,1730328072.0837717,1730328071.4696314,2000
-31725.12730659572,-187277.84601185872,-1445.3084999690652,-187500.02235174447,-187500.02235174447,-187500.02235174447,-187500.02235174447,-187500.02235174447,1730328072.088005,1730328071.4696314,2000
-31748.55193478488,-187292.03936958784,-1493.6776749703497,-187500.02235174447,-187500.02235174447,-187500.02235174447,-187500.02235174447,-187500.02235174447,1730328072.0918336,1730328071.4696314,2000
-31792.83074055085,-187266.8042500978,-1478.7467096742046,-187500.02235174447,-187500.02235174447,-187500.02235174447,-187500.02235174447,-187500.02235174447,1730328072.095683,1730328071.4696314,2000
-31769.853147250797,-187339.7826957444,-1421.906223524359,-187500.02235174447,-187500.02235174447,-187500.02235174447,-187500.02235174447,-187500.02235174447,1730328072.0986423,1730328071.4696314,2000
-31732.32456831033,-187381.7145683425,-1438.155941743367,-187500.02235174447,-187500.02235174447,-187500.02235174447,-187500.02235174447,-187500.02235174447,1730328072.1040187,1730328071.4696314,2000
-31749.647170263197,-187359.8322105208,-1498.639762239428,-187500.02235174447,-187500.02235174447,-187500.02235174447,-187500.02235174447,-187500.02235174447,1730328072.1078637,1730328071.4696314,2000
-31784.67235382466,-187400.0877022848,-1485.1393085884224,-187500.02235174447,-187500.02235174447,-187500.02235174447,-187500.02235174447,-187500.02235174447,1730328072.111726,1730328071.4696314,2000
-31775.32932464234,-187452.7037087326,-1428.701153838772,-187500.02235174447,-187500.02235174447,-187500.02235174447,-187500.02235174447,-187500.02235174447,1730328072.1157508,1730328071.4696314,2000
-31737.174896857134,-187450.42383079813,-1436.412505675853,-187500.02235174447,-187500.02235174447,-187500.02235174447,-187500.02235174447,-187500.02235174447,1730328072.1197596,1730328071.4696314,2000
-31734.9397224116,-187476.57537181085,-1485.9439713888137,-187500.02235174447,-187500.02235174447,-187500.02235174447,-187500.02235174447,-187500.02235174447,1730328072.1236887,1730328071.4696314,2000
-31782.43717937913,-187500.02235174447,-1488.1120906009785,-187500.02235174447,-187500.02235174447,-187500.02235174447,-187500.02235174447,-187500.02235174447,1730328072.1267471,1730328071.4696314,2000
-31791.08730448333,-187500.02235174447,-1444.2132644907551,-187500.02235174447,-187500.02235174447,-187500.02235174447,-187500.02235174447,-187500.02235174447,1730328072.1306486,1730328071.4696314,2000
-31745.0427109054,-187500.02235174447,-1430.37753467292,-187500.02235174447,-187500.02235174447,-187500.02235174447,-187500.02235174447,-187500.02235174447,1730328072.1357536,1730328071.4696314,2000
-31720.74636468248,-187500.02235174447,-1468.7778316471376,-187500.02235174447,-187500.02235174447,-187500.02235174447,-187500.02235174447,-187500.02235174447,1730328072.1396396,1730328071.4696314,2000
-31767.10388268279,-187500.02235174447,-1494.9070209153915,-187500.02235174447,-187500.02235174447,-187500.02235174447,-187500.02235174447,-187500.02235174447,1730328072.1437335,1730328071.4696314,2000
-31790.126179471757,-187500.02235174447,-1448.415392448353,-187500.02235174447,-187500.02235174447,-187500.02235174447,-187500.02235174447,-187500.02235174447,1730328072.146653,1730328071.4696314,2000
-31754.631609276727,-187500.02235174447,-1426.1083514819566,-187500.02235174447,-187500.02235174447,-187500.02235174447,-187500.02235174447,-187500.02235174447,1730328072.1508803,1730328071.4696314,2000
-31739.18655385811,-187500.02235174447,-1481.7865469201265,-187500.02235174447,-187500.02235174447,-187500.02235174447,-187500.02235174447,-187500.02235174447,1730328072.1553082,1730328071.4696314,2000
-31766.455682093583,-187500.02235174447,-1505.7252652317602,-187500.02235174447,-187500.02235174447,-187500.02235174447,-187500.02235174447,-187500.02235174447,1730328072.1587229,1730328071.4696314,2000
-31789.47797888255,-187500.02235174447,-1458.3395669865092,-187500.02235174447,-187500.02235174447,-187500.02235174447,-187500.02235174447,-187500.02235174447,1730328072.1636937,1730328071.4696314,2000
-31764.533432070428,-187500.02235174447,-1432.6797643518169,-187500.02235174447,-187500.02235174447,-187500.02235174447,-187500.02235174447,-187500.02235174447,1730328072.167958,1730328071.4696314,2000
-31730.178800842623,-187500.02235174447,-1466.185029290322,-187500.02235174447,-187500.02235174447,-187500.02235174447,-187500.02235174447,-187500.02235174447,1730328072.1717136,1730328071.4696314,2000
-31750.89886795269,-187500.02235174447,-1499.220907595266,-187500.02235174447,-187500.02235174447,-187500.02235174447,-187500.02235174447,-187500.02235174447,1730328072.1749475,1730328071.4696314,2000
-31793.545996373417,-187500.02235174447,-1472.8011456490929,-187500.02235174447,-187500.02235174447,-187500.02235174447,-187500.02235174447,-187500.02235174447,1730328072.178926,1730328071.4696314,2000
-31770.031961206438,-187500.02235174447,-1430.221072461733,-187500.02235174447,-187500.02235174447,-187500.02235174447,-187500.02235174447,-187500.02235174447,1730328072.1828165,1730328071.4696314,2000
-31726.9377978966,-187500.02235174447,-1451.544636672096,-187500.02235174447,-187500.02235174447,-187500.02235174447,-187500.02235174447,-187500.02235174447,1730328072.186843,1730328071.4696314,2000
-31751.27884760843,-187500.02235174447,-1509.8826897004474,-187500.02235174447,-187500.02235174447,-187500.02235174447,-187500.02235174447,-187500.02235174447,1730328072.1919484,1730328071.4696314,2000
-31792.316650428376,-187500.02235174447,-1493.051826125601,-187500.02235174447,-187500.02235174447,-187500.02235174447,-187500.02235174447,-187500.02235174447,1730328072.1959312,1730328071.4696314,2000
-31781.47605436755,-187500.02235174447,-1436.5913196314957,-187500.02235174447,-187500.02235174447,-187500.02235174447,-187500.02235174447,-187500.02235174447,1730328072.1999333,1730328071.4696314,2000
-31738.96303641356,-187500.02235174447,-1446.023755791635,-187500.02235174447,-187500.02235174447,-187500.02235174447,-187500.02235174447,-187500.02235174447,1730328072.2029033,1730328071.4696314,2000
-31733.26334157745,-187500.02235174447,-1497.4327680388417,-187500.02235174447,-187500.02235174447,-187500.02235174447,-187500.02235174447,-187500.02235174447,1730328072.2069812,1730328071.4696314,2000
-31780.827853778348,-187500.02235174447,-1500.383198306942,-187500.02235174447,-187500.02235174447,-187500.02235174447,-187500.02235174447,-187500.02235174447,1730328072.2109604,1730328071.4696314,2000
-31781.00666773399,-187500.02235174447,-1442.5592354010626,-187500.02235174447,-187500.02235174447,-187500.02235174447,-187500.02235174447,-187500.02235174447,1730328072.2147849,1730328071.4696314,2000
-31744.66273124966,-187500.02235174447,-1445.6884796248055,-187500.02235174447,-187500.02235174447,-187500.02235174447,-187500.02235174447,-187500.02235174447,1730328072.2199352,1730328071.4696314,2000
-31741.868763192742,-187500.02235174447,-1501.34432331852,-187500.02235174447,-187500.02235174447,-187500.02235174447,-187500.02235174447,-187500.02235174447,1730328072.2239933,1730328071.4696314,2000
-31777.318629898866,-187500.02235174447,-1502.9760006637575,-187500.02235174447,-187500.02235174447,-187500.02235174447,-187500.02235174447,-187500.02235174447,1730328072.2279806,1730328071.4696314,2000
-31781.74427530101,-187500.02235174447,-1448.1695232593445,-187500.02235174447,-187500.02235174447,-187500.02235174447,-187500.02235174447,-187500.02235174447,1730328072.2307978,1730328071.4696314,2000
-31745.556801027877,-187500.02235174447,-1440.9052063113695,-187500.02235174447,-187500.02235174447,-187500.02235174447,-187500.02235174447,-187500.02235174447,1730328072.234954,1730328071.4696314,2000
-31736.526696267927,-187500.02235174447,-1495.1975935933106,-187500.02235174447,-187500.02235174447,-187500.02235174447,-187500.02235174447,-187500.02235174447,1730328072.238829,1730328071.4696314,2000
-31763.169975658653,-187500.02235174447,-1506.1499483764112,-187500.02235174447,-187500.02235174447,-187500.02235174447,-187500.02235174447,-187500.02235174447,1730328072.2430065,1730328071.4696314,2000
-31782.66069682368,-187500.02235174447,-1462.4075844773752,-187500.02235174447,-187500.02235174447,-187500.02235174447,-187500.02235174447,-187500.02235174447,1730328072.2468705,1730328071.4696314,2000
-31751.457661564076,-187500.02235174447,-1439.0053080326686,-187500.02235174447,-187500.02235174447,-187500.02235174447,-187500.02235174447,-187500.02235174447,1730328072.2520242,1730328071.4696314,2000
-31725.12730659572,-187500.02235174447,-1481.3842155199309,-187500.02235174447,-187500.02235174447,-187500.02235174447,-187500.02235174447,-187500.02235174447,1730328072.2549598,1730328071.4696314,2000
-31760.8453942353,-187500.02235174447,-1514.2412798692324,-187500.02235174447,-187500.02235174447,-187500.02235174447,-187500.02235174447,-187500.02235174447,1730328072.259015,1730328071.4696314,2000
-31788.516853870973,-187500.02235174447,-1474.835154394526,-187500.02235174447,-187500.02235174447,-187500.02235174447,-187500.02235174447,-187500.02235174447,1730328072.263018,1730328071.4696314,2000
-31754.877478465736,-187500.02235174447,-1436.3454504424872,-187500.02235174447,-187500.02235174447,-187500.02235174447,-187500.02235174447,-187500.02235174447,1730328072.267027,1730328071.4696314,2000
-31717.32654778082,-187500.02235174447,-1469.6271979364394,-187500.02235174447,-187500.02235174447,-187500.02235174447,-187500.02235174447,-187500.02235174447,1730328072.2710383,1730328071.4696314,2000
-31741.17585911463,-187500.02235174447,-1512.0061054237017,-187500.02235174447,-187500.02235174447,-187500.02235174447,-187500.02235174447,-187500.02235174447,1730328072.2749376,1730328071.4696314,2000
-31783.219490435065,-187500.02235174447,-1498.9526866618023,-187500.02235174447,-187500.02235174447,-187500.02235174447,-187500.02235174447,-187500.02235174447,1730328072.2800384,1730328071.4696314,2000
-31759.124309912244,-187500.02235174447,-1457.3113867415652,-187500.02235174447,-187500.02235174447,-187500.02235174447,-187500.02235174447,-187500.02235174447,1730328072.2831004,1730328071.4696314,2000
-31717.773582669925,-187500.02235174447,-1465.089793812012,-187500.02235174447,-187500.02235174447,-187500.02235174447,-187500.02235174447,-187500.02235174447,1730328072.287089,1730328071.4696314,2000
-31745.780318472425,-187500.02235174447,-1518.3316491045534,-187500.02235174447,-187500.02235174447,-187500.02235174447,-187500.02235174447,-187500.02235174447,1730328072.2911153,1730328071.4696314,2000
-31788.472150382066,-187500.02235174447,-1509.3238960890646,-187500.02235174447,-187500.02235174447,-187500.02235174447,-187500.02235174447,-187500.02235174447,1730328072.295122,1730328071.4696314,2000
-31749.513059796463,-187500.02235174447,-1447.163694758856,-187500.02235174447,-187500.02235174447,-187500.02235174447,-187500.02235174447,-187500.02235174447,1730328072.2991369,1730328071.4696314,2000
-31707.402373242665,-187500.02235174447,-1445.9567005582692,-187500.02235174447,-187500.02235174447,-187500.02235174447,-187500.02235174447,-187500.02235174447,1730328072.3031497,1730328071.4696314,2000
-31731.631664232216,-187500.02235174447,-1500.7408262182269,-187500.02235174447,-187500.02235174447,-187500.02235174447,-187500.02235174447,-187500.02235174447,1730328072.3071656,1730328071.4696314,2000
-31783.33124915734,-187500.02235174447,-1501.992523907724,-187500.02235174447,-187500.02235174447,-187500.02235174447,-187500.02235174447,-187500.02235174447,1730328072.3109596,1730328071.4696314,2000
-31788.62861259325,-187500.02235174447,-1461.9381978438137,-187500.02235174447,-187500.02235174447,-187500.02235174447,-187500.02235174447,-187500.02235174447,1730328072.3150406,1730328071.4696314,2000
-31720.209922815557,-187500.02235174447,-1466.9673403462575,-187500.02235174447,-187500.02235174447,-187500.02235174447,-187500.02235174447,-187500.02235174447,1730328072.3191357,1730328071.4696314,2000
-31693.968974825024,-187500.02235174447,-1502.9536489193022,-187500.02235174447,-187500.02235174447,-187500.02235174447,-187500.02235174447,-187500.02235174447,1730328072.323126,1730328071.4696314,2000
-31756.75502499998,-187500.02235174447,-1513.4589688132965,-187500.02235174447,-187500.02235174447,-187500.02235174447,-187500.02235174447,-187500.02235174447,1730328072.3271272,1730328071.4696314,2000
-31820.54690367543,-187500.02235174447,-1486.4804132557408,-187500.02235174447,-187500.02235174447,-187500.02235174447,-187500.02235174447,-187500.02235174447,1730328072.3310916,1730328071.4696314,2000
-31747.50140279549,-187500.02235174447,-1439.5864533885067,-187500.02235174447,-187500.02235174447,-187500.02235174447,-187500.02235174447,-187500.02235174447,1730328072.335192,1730328071.4696314,2000
-31739.07479513583,-187500.02235174447,-1491.2413348247212,-187500.02235174447,-187500.02235174447,-187500.02235174447,-187500.02235174447,-187500.02235174447,1730328072.339046,1730328071.4696314,2000
-31786.81812129237,-187500.02235174447,-1542.2927191606427,-187500.02235174447,-187500.02235174447,-187500.02235174447,-187500.02235174447,-187500.02235174447,1730328072.3421755,1730328071.4696314,2000
-31733.218638088543,-187500.02235174447,-1502.3278000745536,-187500.02235174447,-187500.02235174447,-187500.02235174447,-187500.02235174447,-187500.02235174447,1730328072.346986,1730328071.4696314,2000
-31684.335372964782,-187500.02235174447,-1468.2413897802105,-187500.02235174447,-187500.02235174447,-187500.02235174447,-187500.02235174447,-187500.02235174447,1730328072.351178,1730328071.4696314,2000
-31674.70177110455,-187500.02235174447,-1494.9070209153915,-187500.02235174447,-187500.02235174447,-187500.02235174447,-187500.02235174447,-187500.02235174447,1730328072.3550856,1730328071.4696314,2000
-31687.665782888627,-187500.02235174447,-1489.6543609683945,-187500.02235174447,-187500.02235174447,-187500.02235174447,-187500.02235174447,-187500.02235174447,1730328072.3592436,1730328071.4696314,2000
-31774.547013586405,-187500.02235174447,-1447.320156970043,-187500.02235174447,-187500.02235174447,-187500.02235174447,-187500.02235174447,-187500.02235174447,1730328072.363001,1730328071.4696314,2000
-31693.81251261384,-187500.02235174447,-1448.996537804191,-187500.02235174447,-187500.02235174447,-187500.02235174447,-187500.02235174447,-187500.02235174447,1730328072.3662531,1730328071.4696314,2000
-31684.96122180953,-187500.02235174447,-1501.053750640601,-187500.02235174447,-187500.02235174447,-187500.02235174447,-187500.02235174447,-187500.02235174447,1730328072.3702643,1730328071.4696314,2000
-31771.37306587375,-187500.02235174447,-1497.5892302500283,-187500.02235174447,-187500.02235174447,-187500.02235174447,-187500.02235174447,-187500.02235174447,1730328072.3743036,1730328071.4696314,2000
-31819.518723430483,-187500.02235174447,-1484.6475702104058,-187500.02235174447,-187500.02235174447,-187500.02235174447,-187500.02235174447,-187500.02235174447,1730328072.3792708,1730328071.4696314,2000
-31816.18831350664,-187500.02235174447,-1474.5892852055176,-187500.02235174447,-187500.02235174447,-187500.02235174447,-187500.02235174447,-187500.02235174447,1730328072.3832188,1730328071.4696314,2000
-31761.76181575797,-187500.02235174447,-1515.4929775587295,-187500.02235174447,-187500.02235174447,-187500.02235174447,-187500.02235174447,-187500.02235174447,1730328072.3873072,1730328071.4696314,2000
-31718.354728025763,-187500.02235174447,-1544.9302250063688,-187500.02235174447,-187500.02235174447,-187500.02235174447,-187500.02235174447,-187500.02235174447,1730328072.390246,1730328071.4696314,2000
-31746.13794638371,-187500.02235174447,-1509.6144687669837,-187500.02235174447,-187500.02235174447,-187500.02235174447,-187500.02235174447,-187500.02235174447,1730328072.3942356,1730328071.4696314,2000
-31592.08972359773,-187500.02235174447,-1447.1189912699451,-187500.02235174447,-187500.02235174447,-187500.02235174447,-187500.02235174447,-187500.02235174447,1730328072.39829,1730328071.4696314,2000
-31497.51949280733,-187500.02235174447,-1445.6214243914396,-187500.02235174447,-187500.02235174447,-187500.02235174447,-187500.02235174447,-187500.02235174447,1730328072.403148,1730328071.4696314,2000
-31717.907693136654,-187500.02235174447,-1531.4074196109082,-187500.02235174447,-187500.02235174447,-187500.02235174447,-187500.02235174447,-187500.02235174447,1730328072.4072986,1730328071.4696314,2000
-31795.401191163208,-187500.02235174447,-1514.1965763803216,-187500.02235174447,-187500.02235174447,-187500.02235174447,-187500.02235174447,-187500.02235174447,1730328072.411166,1730328071.4696314,2000
-31615.760220975902,-187500.02235174447,-1424.4096189033532,-187500.02235174447,-187500.02235174447,-187500.02235174447,-187500.02235174447,-187500.02235174447,1730328072.415146,1730328071.4696314,2000
-31755.972713944044,-187500.02235174447,-1423.3143834250432,-187500.02235174447,-187500.02235174447,-187500.02235174447,-187500.02235174447,-187500.02235174447,1730328072.4182594,1730328071.4696314,2000
-31813.506104172007,-187500.02235174447,-1495.8234424380591,-187500.02235174447,-187500.02235174447,-187500.02235174447,-187500.02235174447,-187500.02235174447,1730328072.4221373,1730328071.4696314,2000
-31757.403225589187,-187500.02235174447,-1525.73007651926,-187500.02235174447,-187500.02235174447,-187500.02235174447,-187500.02235174447,-187500.02235174447,1730328072.4262912,1730328071.4696314,2000
-31778.23505142153,-187500.02235174447,-1469.8507153809924,-187500.02235174447,-187500.02235174447,-187500.02235174447,-187500.02235174447,-187500.02235174447,1730328072.4301932,1730328071.4696314,2000
-31736.750213712483,-187500.02235174447,-1487.7768144341487,-187500.02235174447,-187500.02235174447,-187500.02235174447,-187500.02235174447,-187500.02235174447,1730328072.435391,1730328071.4696314,2000
-31695.980631826,-187500.02235174447,-1582.4811556912848,-187500.02235174447,-187500.02235174447,-187500.02235174447,-187500.02235174447,-187500.02235174447,1730328072.4391744,1730328071.4696314,2000
-31655.054587728333,-187500.02235174447,-1547.7465448077376,-187500.02235174447,-187500.02235174447,-187500.02235174447,-187500.02235174447,-187500.02235174447,1730328072.4434009,1730328071.4696314,2000
-31713.683213434604,-187500.02235174447,-1412.89847050887,-187500.02235174447,-187500.02235174447,-187500.02235174447,-187500.02235174447,-187500.02235174447,1730328072.446414,1730328071.4696314,2000
-31704.697812163573,-187500.02235174447,-1378.6779497477949,-187500.02235174447,-187500.02235174447,-187500.02235174447,-187500.02235174447,-187500.02235174447,1730328072.4504163,1730328071.4696314,2000
-31703.200245285065,-187500.02235174447,-1456.3726134744422,-187500.02235174447,-187500.02235174447,-187500.02235174447,-187500.02235174447,-187500.02235174447,1730328072.4543388,1730328071.4696314,2000
-31730.491725264998,-187500.02235174447,-1543.8126377836036,-187500.02235174447,-187500.02235174447,-187500.02235174447,-187500.02235174447,-187500.02235174447,1730328072.4583232,1730328071.4696314,2000
-31780.537281100427,-187500.02235174447,-1500.9643436627798,-187500.02235174447,-187500.02235174447,-187500.02235174447,-187500.02235174447,-187500.02235174447,1730328072.4640656,1730328071.4696314,2000
-31720.36638502674,-187500.02235174447,-1454.5621221735623,-187500.02235174447,-187500.02235174447,-187500.02235174447,-187500.02235174447,-187500.02235174447,1730328072.4672682,1730328071.4696314,2000
-31709.726954666014,-187500.02235174447,-1505.8146722095814,-187500.02235174447,-187500.02235174447,-187500.02235174447,-187500.02235174447,-187500.02235174447,1730328072.471394,1730328071.4696314,2000
-31821.262159498,-187500.02235174447,-1471.214171792766,-187500.02235174447,-187500.02235174447,-187500.02235174447,-187500.02235174447,-187500.02235174447,1730328072.4744492,1730328071.4696314,2000
-31825.01725256649,-187500.02235174447,-1480.8701253974589,-187500.02235174447,-187500.02235174447,-187500.02235174447,-187500.02235174447,-187500.02235174447,1730328072.4782937,1730328071.4696314,2000
-31717.12538208072,-187500.02235174447,-1485.4298812663417,-187500.02235174447,-187500.02235174447,-187500.02235174447,-187500.02235174447,-187500.02235174447,1730328072.48248,1730328071.4696314,2000
-31614.84379945324,-187500.02235174447,-1445.2414447356994,-187500.02235174447,-187500.02235174447,-187500.02235174447,-187500.02235174447,-187500.02235174447,1730328072.486352,1730328071.4696314,2000
-31664.21880295501,-187500.02235174447,-1445.062630780057,-187500.02235174447,-187500.02235174447,-187500.02235174447,-187500.02235174447,-187500.02235174447,1730328072.4914808,1730328071.4696314,2000
-31751.23414411952,-187500.02235174447,-1448.5942064039957,-187500.02235174447,-187500.02235174447,-187500.02235174447,-187500.02235174447,-187500.02235174447,1730328072.4955084,1730328071.4696314,2000
-31648.08084345828,-187500.02235174447,-1437.641851620895,-187500.02235174447,-187500.02235174447,-187500.02235174447,-187500.02235174447,-187500.02235174447,1730328072.4983928,1730328071.4696314,2000
-31586.859415395196,-187500.02235174447,-1504.25005009771,-187500.02235174447,-187500.02235174447,-187500.02235174447,-187500.02235174447,-187500.02235174447,1730328072.5025363,1730328071.4696314,2000
-31708.51996046543,-187500.02235174447,-1564.890332804958,-187500.02235174447,-187500.02235174447,-187500.02235174447,-187500.02235174447,-187500.02235174447,1730328072.5064356,1730328071.4696314,2000
-31801.16794123268,-187500.02235174447,-1611.8289961611029,-187500.02235174447,-187500.02235174447,-187500.02235174447,-187500.02235174447,-187500.02235174447,1730328072.510523,1730328071.4696314,2000
-31677.585146139285,-187500.02235174447,-1369.6254932433956,-187500.02235174447,-187500.02235174447,-187500.02235174447,-187500.02235174447,-187500.02235174447,1730328072.514396,1730328071.4696314,2000
-31627.53959030385,-187500.02235174447,-1287.661646325785,-187500.02235174447,-187500.02235174447,-187500.02235174447,-187500.02235174447,-187500.02235174447,1730328072.519331,1730328071.4696314,2000
-31701.859140617747,-187500.02235174447,-1401.387322114387,-187500.02235174447,-187500.02235174447,-187500.02235174447,-187500.02235174447,-187500.02235174447,1730328072.5234494,1730328071.4696314,2000
-31656.149823206644,-187500.02235174447,-1455.2326745072216,-187500.02235174447,-187500.02235174447,-187500.02235174447,-187500.02235174447,-187500.02235174447,1730328072.5263789,1730328071.4696314,2000
-31527.02379548833,-187500.02235174447,-1426.4883311376968,-187500.02235174447,-187500.02235174447,-187500.02235174447,-187500.02235174447,-187500.02235174447,1730328072.5303392,1730328071.4696314,2000
-31659.54728836385,-187500.02235174447,-1462.2287705217327,-187500.02235174447,-187500.02235174447,-187500.02235174447,-187500.02235174447,-187500.02235174447,1730328072.5345435,1730328071.4696314,2000
-31844.038587097955,-187500.02235174447,-1507.2675355991764,-187500.02235174447,-187500.02235174447,-187500.02235174447,-187500.02235174447,-187500.02235174447,1730328072.538316,1730328071.4696314,2000
-31700.98742258399,-187500.02235174447,-1463.413412977864,-187500.02235174447,-187500.02235174447,-187500.02235174447,-187500.02235174447,-187500.02235174447,1730328072.5429306,1730328071.4696314,2000
-31557.332760969733,-187500.02235174447,-1394.3241708665098,-187500.02235174447,-187500.02235174447,-187500.02235174447,-187500.02235174447,-187500.02235174447,1730328072.546419,1730328071.4696314,2000
-31629.55124730483,-187500.02235174447,-1351.8111529125158,-187500.02235174447,-187500.02235174447,-187500.02235174447,-187500.02235174447,-187500.02235174447,1730328072.5518703,1730328071.4696314,2000
-31690.21388175653,-187500.02235174447,-1389.4291388307977,-187500.02235174447,-187500.02235174447,-187500.02235174447,-187500.02235174447,-187500.02235174447,1730328072.554608,1730328071.4696314,2000
-31594.66017421009,-187500.02235174447,-1478.254971296188,-187500.02235174447,-187500.02235174447,-187500.02235174447,-187500.02235174447,-187500.02235174447,1730328072.5587902,1730328071.4696314,2000
-31680.401465940653,-187500.02235174447,-1474.2093055497774,-187500.02235174447,-187500.02235174447,-187500.02235174447,-187500.02235174447,-187500.02235174447,1730328072.5627809,1730328071.4696314,2000
-31754.184574387626,-187500.02235174447,-1436.2336917202106,-187500.02235174447,-187500.02235174447,-187500.02235174447,-187500.02235174447,-187500.02235174447,1730328072.566634,1730328071.4696314,2000
-31632.814601995306,-187500.02235174447,-1438.6476801213837,-187500.02235174447,-187500.02235174447,-187500.02235174447,-187500.02235174447,-187500.02235174447,1730328072.5706885,1730328071.4696314,2000
-31646.046834712844,-187500.02235174447,-1479.2607997966768,-187500.02235174447,-187500.02235174447,-187500.02235174447,-187500.02235174447,-187500.02235174447,1730328072.5746553,1730328071.4696314,2000
-31730.447021776086,-187500.02235174447,-1410.8868135078924,-187500.02235174447,-187500.02235174447,-187500.02235174447,-187500.02235174447,-187500.02235174447,1730328072.5788324,1730328071.4696314,2000
-31667.1245297342,-187500.02235174447,-1339.4729899731865,-187500.02235174447,-187500.02235174447,-187500.02235174447,-187500.02235174447,-187500.02235174447,1730328072.5816443,1730328071.4696314,2000
-31665.55990762233,-187500.02235174447,-1424.5660811145403,-187500.02235174447,-187500.02235174447,-187500.02235174447,-187500.02235174447,-187500.02235174447,1730328072.5866497,1730328071.4696314,2000
-31700.249815016967,-187500.02235174447,-1407.80227277306,-187500.02235174447,-187500.02235174447,-187500.02235174447,-187500.02235174447,-187500.02235174447,1730328072.5907729,1730328071.4696314,2000
-31782.347772401303,-187500.02235174447,-1388.1997928857556,-187500.02235174447,-187500.02235174447,-187500.02235174447,-187500.02235174447,-187500.02235174447,1730328072.594715,1730328071.4696314,2000
-31786.035810236437,-187500.02235174447,-1408.8304530180042,-187500.02235174447,-187500.02235174447,-187500.02235174447,-187500.02235174447,-187500.02235174447,1730328072.6007538,1730328071.4696314,2000
-31585.563014216783,-187500.02235174447,-1434.9149387973475,-187500.02235174447,-187500.02235174447,-187500.02235174447,-187500.02235174447,-187500.02235174447,1730328072.6037495,1730328071.4696314,2000
-31469.46805351592,-187500.02235174447,-1516.6105647814948,-187500.02235174447,-187500.02235174447,-187500.02235174447,-187500.02235174447,-187500.02235174447,1730328072.606856,1730328071.4696314,2000
-31532.45526939097,-187500.02235174447,-1471.281227026132,-187500.02235174447,-187500.02235174447,-187500.02235174447,-187500.02235174447,-187500.02235174447,1730328072.6107547,1730328071.4696314,2000
-31551.32014171125,-187500.02235174447,-1373.894676434359,-187500.02235174447,-187500.02235174447,-187500.02235174447,-187500.02235174447,-187500.02235174447,1730328072.6144593,1730328071.4696314,2000
-31592.223834064465,-187500.02235174447,-1315.2213472391782,-187500.02235174447,-187500.02235174447,-187500.02235174447,-187500.02235174447,-187500.02235174447,1730328072.6187837,1730328071.4696314,2000
-31601.54451150233,-187500.02235174447,-1376.8898101913703,-187500.02235174447,-187500.02235174447,-187500.02235174447,-187500.02235174447,-187500.02235174447,1730328072.6226184,1730328071.4696314,2000
-31709.145809310176,-187500.02235174447,-1393.7877289995824,-187500.02235174447,-187500.02235174447,-187500.02235174447,-187500.02235174447,-187500.02235174447,1730328072.6265612,1730328071.4696314,2000
-31757.291466866907,-187500.02235174447,-1411.9820489862025,-187500.02235174447,-187500.02235174447,-187500.02235174447,-187500.02235174447,-187500.02235174447,1730328072.63055,1730328071.4696314,2000
-31570.877918109647,-187500.02235174447,-1413.7254850537165,-187500.02235174447,-187500.02235174447,-187500.02235174447,-187500.02235174447,-187500.02235174447,1730328072.6351109,1730328071.4696314,2000
-31634.803907251822,-187500.02235174447,-1496.158718604889,-187500.02235174447,-187500.02235174447,-187500.02235174447,-187500.02235174447,-187500.02235174447,1730328072.637678,1730328071.4696314,2000
-31683.21778574202,-187500.02235174447,-1493.990599392724,-187500.02235174447,-187500.02235174447,-187500.02235174447,-187500.02235174447,-187500.02235174447,1730328072.6419144,1730328071.4696314,2000
-31493.451475316466,-187500.02235174447,-1383.8635544614262,-187500.02235174447,-187500.02235174447,-187500.02235174447,-187500.02235174447,-187500.02235174447,1730328072.6465375,1730328071.4696314,2000
-31501.87808297612,-187500.02235174447,-1322.820940353983,-187500.02235174447,-187500.02235174447,-187500.02235174447,-187500.02235174447,-187500.02235174447,1730328072.650919,1730328071.4696314,2000
-31608.719421472484,-187500.02235174447,-1325.3019839885217,-187500.02235174447,-187500.02235174447,-187500.02235174447,-187500.02235174447,-187500.02235174447,1730328072.6547775,1730328071.4696314,2000
-31806.57706339086,-187500.02235174447,-1412.2279181752108,-187500.02235174447,-187500.02235174447,-187500.02235174447,-187500.02235174447,-187500.02235174447,1730328072.658816,1730328071.4696314,2000
-31804.766572089982,-187500.02235174447,-1403.3989791153645,-187500.02235174447,-187500.02235174447,-187500.02235174447,-187500.02235174447,-187500.02235174447,1730328072.6625314,1730328071.4696314,2000
-31649.55605859233,-187500.02235174447,-1344.5915394534516,-187500.02235174447,-187500.02235174447,-187500.02235174447,-187500.02235174447,-187500.02235174447,1730328072.6656868,1730328071.4696314,2000
-31477.693495475472,-187500.02235174447,-1361.1988855837449,-187500.02235174447,-187500.02235174447,-187500.02235174447,-187500.02235174447,-187500.02235174447,1730328072.6696813,1730328071.4696314,2000
-31495.99957418437,-187500.02235174447,-1423.783770058605,-187500.02235174447,-187500.02235174447,-187500.02235174447,-187500.02235174447,-187500.02235174447,1730328072.6747165,1730328071.4696314,2000
-31477.380571053098,-187500.02235174447,-1439.1394184994006,-187500.02235174447,-187500.02235174447,-187500.02235174447,-187500.02235174447,-187500.02235174447,1730328072.6792505,1730328071.4696314,2000
-31539.0937374942,-187500.02235174447,-1384.958789939736,-187500.02235174447,-187500.02235174447,-187500.02235174447,-187500.02235174447,-187500.02235174447,1730328072.6826873,1730328071.4696314,2000
-31611.044002895836,-187500.02235174447,-1409.8139297740377,-187500.02235174447,-187500.02235174447,-187500.02235174447,-187500.02235174447,-187500.02235174447,1730328072.6860883,1730328071.4696314,2000
-31844.10564233132,-187500.02235174447,-1439.184121988311,-187500.02235174447,-187500.02235174447,-187500.02235174447,-187500.02235174447,-187500.02235174447,1730328072.6895983,1730328071.4696314,2000
-31809.907473314703,-187500.02235174447,-1451.3881744609089,-187500.02235174447,-187500.02235174447,-187500.02235174447,-187500.02235174447,-187500.02235174447,1730328072.6942177,1730328071.4696314,2000
-31670.58905012477,-187500.02235174447,-1475.349244516998,-187500.02235174447,-187500.02235174447,-187500.02235174447,-187500.02235174447,-187500.02235174447,1730328072.6976233,1730328071.4696314,2000
-31553.22003998996,-187500.02235174447,-1309.7004663587174,-187500.02235174447,-187500.02235174447,-187500.02235174447,-187500.02235174447,-187500.02235174447,1730328072.702973,1730328071.4696314,2000
-31451.720768418407,-187500.02235174447,-1330.7558096356163,-187500.02235174447,-187500.02235174447,-187500.02235174447,-187500.02235174447,-187500.02235174447,1730328072.7067337,1730328071.4696314,2000
-31582.50082522641,-187500.02235174447,-1455.3891367184087,-187500.02235174447,-187500.02235174447,-187500.02235174447,-187500.02235174447,-187500.02235174447,1730328072.711002,1730328071.4696314,2000
-31426.03861403926,-187500.02235174447,-1387.8421649744707,-187500.02235174447,-187500.02235174447,-187500.02235174447,-187500.02235174447,-187500.02235174447,1730328072.713611,1730328071.4696314,2000
-31521.704080307973,-187500.02235174447,-1395.1288336669008,-187500.02235174447,-187500.02235174447,-187500.02235174447,-187500.02235174447,-187500.02235174447,1730328072.7177682,1730328071.4696314,2000
-31713.16912331213,-187500.02235174447,-1463.771040889149,-187500.02235174447,-187500.02235174447,-187500.02235174447,-187500.02235174447,-187500.02235174447,1730328072.721645,1730328071.4696314,2000
-31785.83464453633,-187500.02235174447,-1487.1509655894,-187500.02235174447,-187500.02235174447,-187500.02235174447,-187500.02235174447,-187500.02235174447,1730328072.7258658,1730328071.4696314,2000
-31676.98164903899,-187500.02235174447,-1442.0451452785906,-187500.02235174447,-187500.02235174447,-187500.02235174447,-187500.02235174447,-187500.02235174447,1730328072.7296154,1730328071.4696314,2000
-31513.746859281884,-187500.02235174447,-1325.7713706220832,-187500.02235174447,-187500.02235174447,-187500.02235174447,-187500.02235174447,-187500.02235174447,1730328072.7348683,1730328071.4696314,2000
-31539.317254938756,-187500.02235174447,-1424.6107846034508,-187500.02235174447,-187500.02235174447,-187500.02235174447,-187500.02235174447,-187500.02235174447,1730328072.7386377,1730328071.4696314,2000
-31769.428464106142,-187500.02235174447,-1546.5395506071509,-187500.02235174447,-187500.02235174447,-187500.02235174447,-187500.02235174447,-187500.02235174447,1730328072.74191,1730328071.4696314,2000
-31662.296552931854,-187500.02235174447,-1408.6292873179063,-187500.02235174447,-187500.02235174447,-187500.02235174447,-187500.02235174447,-187500.02235174447,1730328072.7458797,1730328071.4696314,2000
-31564.932354084536,-187500.02235174447,-1347.6313766993735,-187500.02235174447,-187500.02235174447,-187500.02235174447,-187500.02235174447,-187500.02235174447,1730328072.7499352,1730328071.4696314,2000
-31345.795851444705,-187500.02235174447,-1390.6584847758395,-187500.02235174447,-187500.02235174447,-187500.02235174447,-187500.02235174447,-187500.02235174447,1730328072.7538931,1730328071.4696314,2000
-31212.55710274662,-187500.02235174447,-1412.9431739977806,-187500.02235174447,-187500.02235174447,-187500.02235174447,-187500.02235174447,-187500.02235174447,1730328072.7578652,1730328071.4696314,2000
-31753.53637379842,-187500.02235174447,-1406.3270576390098,-187500.02235174447,-187500.02235174447,-187500.02235174447,-187500.02235174447,-187500.02235174447,1730328072.7628822,1730328071.4696314,2000
-31911.74202105308,-187500.02235174447,-1362.0929553619571,-187500.02235174447,-187500.02235174447,-187500.02235174447,-187500.02235174447,-187500.02235174447,1730328072.7669833,1730328071.4696314,2000
-31691.622041657218,-187500.02235174447,-1413.2337466756996,-187500.02235174447,-187500.02235174447,-187500.02235174447,-187500.02235174447,-187500.02235174447,1730328072.7698407,1730328071.4696314,2000
-31564.95470582899,-187500.02235174447,-1419.1793107008114,-187500.02235174447,-187500.02235174447,-187500.02235174447,-187500.02235174447,-187500.02235174447,1730328072.7739315,1730328071.4696314,2000
-31629.73006126047,-187500.02235174447,-1469.1131078139674,-187500.02235174447,-187500.02235174447,-187500.02235174447,-187500.02235174447,-187500.02235174447,1730328072.7777011,1730328071.4696314,2000
-31633.552209562327,-187500.02235174447,-1400.381493613898,-187500.02235174447,-187500.02235174447,-187500.02235174447,-187500.02235174447,-187500.02235174447,1730328072.7818468,1730328071.4696314,2000
-31560.30554298229,-187500.02235174447,-1406.125891938912,-187500.02235174447,-187500.02235174447,-187500.02235174447,-187500.02235174447,-187500.02235174447,1730328072.78611,1730328071.4696314,2000
-31559.63499064863,-187500.02235174447,-1473.315235771565,-187500.02235174447,-187500.02235174447,-187500.02235174447,-187500.02235174447,-187500.02235174447,1730328072.7913437,1730328071.4696314,2000
-31605.210197593,-187500.02235174447,-1441.5534069005737,-187500.02235174447,-187500.02235174447,-187500.02235174447,-187500.02235174447,-187500.02235174447,1730328072.7949464,1730328071.4696314,2000
-31678.479215917498,-187500.02235174447,-1407.221127417222,-187500.02235174447,-187500.02235174447,-187500.02235174447,-187500.02235174447,-187500.02235174447,1730328072.7976964,1730328071.4696314,2000
-31594.079028854256,-187500.02235174447,-1408.249307662166,-187500.02235174447,-187500.02235174447,-187500.02235174447,-187500.02235174447,-187500.02235174447,1730328072.8019185,1730328071.4696314,2000
-31545.95572304198,-187500.02235174447,-1451.7458023721938,-187500.02235174447,-187500.02235174447,-187500.02235174447,-187500.02235174447,-187500.02235174447,1730328072.805766,1730328071.4696314,2000
-31537.372653171144,-187500.02235174447,-1378.745004981161,-187500.02235174447,-187500.02235174447,-187500.02235174447,-187500.02235174447,-187500.02235174447,1730328072.8100307,1730328071.4696314,2000
-31481.67210598852,-187500.02235174447,-1367.323263564499,-187500.02235174447,-187500.02235174447,-187500.02235174447,-187500.02235174447,-187500.02235174447,1730328072.8138213,1730328071.4696314,2000
-31631.719366516994,-187500.02235174447,-1428.0753049940236,-187500.02235174447,-187500.02235174447,-187500.02235174447,-187500.02235174447,-187500.02235174447,1730328072.8189492,1730328071.4696314,2000
-31735.00677764497,-187500.02235174447,-1455.7244128852385,-187500.02235174447,-187500.02235174447,-187500.02235174447,-187500.02235174447,-187500.02235174447,1730328072.8218307,1730328071.4696314,2000
-31613.88267444166,-187500.02235174447,-1408.4951768511746,-187500.02235174447,-187500.02235174447,-187500.02235174447,-187500.02235174447,-187500.02235174447,1730328072.8260298,1730328071.4696314,2000
-31658.94379126356,-187500.02235174447,-1382.5000980496525,-187500.02235174447,-187500.02235174447,-187500.02235174447,-187500.02235174447,-187500.02235174447,1730328072.8301752,1730328071.4696314,2000
-31658.11677671871,-187500.02235174447,-1456.57377917454,-187500.02235174447,-187500.02235174447,-187500.02235174447,-187500.02235174447,-187500.02235174447,1730328072.8340852,1730328071.4696314,2000
-31564.10533953969,-187500.02235174447,-1502.864241941481,-187500.02235174447,-187500.02235174447,-187500.02235174447,-187500.02235174447,-187500.02235174447,1730328072.8379457,1730328071.4696314,2000
-31581.42794149255,-187500.02235174447,-1404.51656633813,-187500.02235174447,-187500.02235174447,-187500.02235174447,-187500.02235174447,-187500.02235174447,1730328072.842178,1730328071.4696314,2000
-31631.07116592779,-187500.02235174447,-1385.4952318066637,-187500.02235174447,-187500.02235174447,-187500.02235174447,-187500.02235174447,-187500.02235174447,1730328072.846871,1730328071.4696314,2000
-31394.366192146088,-187500.02235174447,-1391.8654789764262,-187500.02235174447,-187500.02235174447,-187500.02235174447,-187500.02235174447,-187500.02235174447,1730328072.8501408,1730328071.4696314,2000
-31440.097861301645,-187500.02235174447,-1375.6381125018731,-187500.02235174447,-187500.02235174447,-187500.02235174447,-187500.02235174447,-187500.02235174447,1730328072.853157,1730328071.4696314,2000
-31697.500550448964,-187500.02235174447,-1447.9236540703362,-187500.02235174447,-187500.02235174447,-187500.02235174447,-187500.02235174447,-187500.02235174447,1730328072.8579564,1730328071.4696314,2000
-31819.47401994157,-187500.02235174447,-1440.7934475890931,-187500.02235174447,-187500.02235174447,-187500.02235174447,-187500.02235174447,-187500.02235174447,1730328072.8621545,1730328071.4696314,2000
-31762.611182047272,-187500.02235174447,-1401.61083955894,-187500.02235174447,-187500.02235174447,-187500.02235174447,-187500.02235174447,-187500.02235174447,1730328072.865995,1730328071.4696314,2000
-31658.586163352276,-187500.02235174447,-1428.768209072138,-187500.02235174447,-187500.02235174447,-187500.02235174447,-187500.02235174447,-187500.02235174447,1730328072.870238,1730328071.4696314,2000
-31607.73594471645,-187500.02235174447,-1501.5231372741623,-187500.02235174447,-187500.02235174447,-187500.02235174447,-187500.02235174447,-187500.02235174447,1730328072.8754444,1730328071.4696314,2000
-31583.28313628234,-187500.02235174447,-1486.1451370889113,-187500.02235174447,-187500.02235174447,-187500.02235174447,-187500.02235174447,-187500.02235174447,1730328072.8779483,1730328071.4696314,2000
-31612.809790707804,-187500.02235174447,-1380.6449032598618,-187500.02235174447,-187500.02235174447,-187500.02235174447,-187500.02235174447,-187500.02235174447,1730328072.880849,1730328071.4696314,2000
-31572.95663034399,-187500.02235174447,-1372.1512403668453,-187500.02235174447,-187500.02235174447,-187500.02235174447,-187500.02235174447,-187500.02235174447,1730328072.885981,1730328071.4696314,2000
-31548.056787020774,-187500.02235174447,-1454.7185843847496,-187500.02235174447,-187500.02235174447,-187500.02235174447,-187500.02235174447,-187500.02235174447,1730328072.8900585,1730328071.4696314,2000
-31677.495739161463,-187500.02235174447,-1437.418334176342,-187500.02235174447,-187500.02235174447,-187500.02235174447,-187500.02235174447,-187500.02235174447,1730328072.8944948,1730328071.4696314,2000
-31658.74262556346,-187500.02235174447,-1356.84029541496,-187500.02235174447,-187500.02235174447,-187500.02235174447,-187500.02235174447,-187500.02235174447,1730328072.8980465,1730328071.4696314,2000
-31443.0706433142,-187500.02235174447,-1403.5554413265518,-187500.02235174447,-187500.02235174447,-187500.02235174447,-187500.02235174447,-187500.02235174447,1730328072.902274,1730328071.4696314,2000
-31425.569227405696,-187500.02235174447,-1466.1626775458667,-187500.02235174447,-187500.02235174447,-187500.02235174447,-187500.02235174447,-187500.02235174447,1730328072.9059165,1730328071.4696314,2000
-31604.226720836967,-187500.02235174447,-1448.3706889594423,-187500.02235174447,-187500.02235174447,-187500.02235174447,-187500.02235174447,-187500.02235174447,1730328072.909227,1730328071.4696314,2000
-31742.98635041551,-187500.02235174447,-1408.9198599958254,-187500.02235174447,-187500.02235174447,-187500.02235174447,-187500.02235174447,-187500.02235174447,1730328072.914009,1730328071.4696314,2000
-31727.474239763527,-187500.02235174447,-1374.833449701482,-187500.02235174447,-187500.02235174447,-187500.02235174447,-187500.02235174447,-187500.02235174447,1730328072.9180436,1730328071.4696314,2000
-31681.31788746332,-187500.02235174447,-1426.577738115518,-187500.02235174447,-187500.02235174447,-187500.02235174447,-187500.02235174447,-187500.02235174447,1730328072.9219248,1730328071.4696314,2000
-31635.005072951924,-187500.02235174447,-1475.349244516998,-187500.02235174447,-187500.02235174447,-187500.02235174447,-187500.02235174447,-187500.02235174447,1730328072.9265385,1730328071.4696314,2000
-31646.69503530205,-187500.02235174447,-1442.6486423788838,-187500.02235174447,-187500.02235174447,-187500.02235174447,-187500.02235174447,-187500.02235174447,1730328072.9293704,1730328071.4696314,2000
-31695.69005914808,-187500.02235174447,-1442.2686627231435,-187500.02235174447,-187500.02235174447,-187500.02235174447,-187500.02235174447,-187500.02235174447,1730328072.933485,1730328071.4696314,2000
-31565.91583084057,-187500.02235174447,-1395.575868556007,-187500.02235174447,-187500.02235174447,-187500.02235174447,-187500.02235174447,-187500.02235174447,1730328072.9373114,1730328071.4696314,2000
-31542.647664862598,-187500.02235174447,-1465.022738578646,-187500.02235174447,-187500.02235174447,-187500.02235174447,-187500.02235174447,-187500.02235174447,1730328072.942132,1730328071.4696314,2000
-31513.00925171486,-187500.02235174447,-1560.9787775252794,-187500.02235174447,-187500.02235174447,-187500.02235174447,-187500.02235174447,-187500.02235174447,1730328072.9462097,1730328071.4696314,2000
-31677.585146139285,-187500.02235174447,-1412.4961391086745,-187500.02235174447,-187500.02235174447,-187500.02235174447,-187500.02235174447,-187500.02235174447,1730328072.9502025,1730328071.4696314,2000
-31650.02544522589,-187500.02235174447,-1369.5584380100297,-187500.02235174447,-187500.02235174447,-187500.02235174447,-187500.02235174447,-187500.02235174447,1730328072.9539752,1730328071.4696314,2000
-31563.747711628406,-187500.02235174447,-1399.733293024694,-187500.02235174447,-187500.02235174447,-187500.02235174447,-187500.02235174447,-187500.02235174447,1730328072.9580655,1730328071.4696314,2000
-31590.569804974773,-187500.02235174447,-1409.6574675628506,-187500.02235174447,-187500.02235174447,-187500.02235174447,-187500.02235174447,-187500.02235174447,1730328072.9612143,1730328071.4696314,2000
-31683.73187586449,-187500.02235174447,-1431.4280666623197,-187500.02235174447,-187500.02235174447,-187500.02235174447,-187500.02235174447,-187500.02235174447,1730328072.9651928,1730328071.4696314,2000
-31596.24714806642,-187500.02235174447,-1441.575758645029,-187500.02235174447,-187500.02235174447,-187500.02235174447,-187500.02235174447,-187500.02235174447,1730328072.9701755,1730328071.4696314,2000
-31532.991711257902,-187500.02235174447,-1430.7798660731155,-187500.02235174447,-187500.02235174447,-187500.02235174447,-187500.02235174447,-187500.02235174447,1730328072.9746957,1730328071.4696314,2000
-31738.96303641356,-187500.02235174447,-1465.514476956663,-187500.02235174447,-187500.02235174447,-187500.02235174447,-187500.02235174447,-187500.02235174447,1730328072.9781656,1730328071.4696314,2000
-31723.27211180593,-187500.02235174447,-1450.3152907270542,-187500.02235174447,-187500.02235174447,-187500.02235174447,-187500.02235174447,-187500.02235174447,1730328072.9823887,1730328071.4696314,2000
-31661.60364885374,-187500.02235174447,-1433.2385579631996,-187500.02235174447,-187500.02235174447,-187500.02235174447,-187500.02235174447,-187500.02235174447,1730328072.9855704,1730328071.4696314,2000
-31618.420078566087,-187500.02235174447,-1449.9576628157693,-187500.02235174447,-187500.02235174447,-187500.02235174447,-187500.02235174447,-187500.02235174447,1730328072.9890332,1730328071.4696314,2000
-31641.554134077327,-187500.02235174447,-1463.0334333221238,-187500.02235174447,-187500.02235174447,-187500.02235174447,-187500.02235174447,-187500.02235174447,1730328072.9933035,1730328071.4696314,2000
-31649.8689830147,-187500.02235174447,-1398.9733337132138,-187500.02235174447,-187500.02235174447,-187500.02235174447,-187500.02235174447,-187500.02235174447,1730328072.9971292,1730328071.4696314,2000
-31638.38018636468,-187500.02235174447,-1352.548760479541,-187500.02235174447,-187500.02235174447,-187500.02235174447,-187500.02235174447,-187500.02235174447,1730328073.002493,1730328071.4696314,2000
-31571.369656487663,-187500.02235174447,-1437.99947953218,-187500.02235174447,-187500.02235174447,-187500.02235174447,-187500.02235174447,-187500.02235174447,1730328073.0061743,1730328071.4696314,2000
-31540.032510761324,-187500.02235174447,-1464.57570368954,-187500.02235174447,-187500.02235174447,-187500.02235174447,-187500.02235174447,-187500.02235174447,1730328073.010606,1730328071.4696314,2000
-31638.134317175667,-187500.02235174447,-1419.603993845462,-187500.02235174447,-187500.02235174447,-187500.02235174447,-187500.02235174447,-187500.02235174447,1730328073.0130897,1730328071.4696314,2000
-31690.280936989897,-187500.02235174447,-1424.5660811145403,-187500.02235174447,-187500.02235174447,-187500.02235174447,-187500.02235174447,-187500.02235174447,1730328073.0172596,1730328071.4696314,2000
-31670.47729140249,-187500.02235174447,-1455.8585233519702,-187500.02235174447,-187500.02235174447,-187500.02235174447,-187500.02235174447,-187500.02235174447,1730328073.0213492,1730328071.4696314,2000
-31647.097366702244,-187500.02235174447,-1560.799963569637,-187500.02235174447,-187500.02235174447,-187500.02235174447,-187500.02235174447,-187500.02235174447,1730328073.025365,1730328071.4696314,2000
-31636.636750297163,-187500.02235174447,-1481.2948085421096,-187500.02235174447,-187500.02235174447,-187500.02235174447,-187500.02235174447,-187500.02235174447,1730328073.030087,1730328071.4696314,2000
-31535.271589192344,-187500.02235174447,-1315.869547828382,-187500.02235174447,-187500.02235174447,-187500.02235174447,-187500.02235174447,-187500.02235174447,1730328073.034654,1730328071.4696314,2000
-31605.79134294884,-187500.02235174447,-1472.8905526269143,-187500.02235174447,-187500.02235174447,-187500.02235174447,-187500.02235174447,-187500.02235174447,1730328073.037546,1730328071.4696314,2000
-31688.31398347783,-187500.02235174447,-1487.8438696675146,-187500.02235174447,-187500.02235174447,-187500.02235174447,-187500.02235174447,-187500.02235174447,1730328073.0415854,1730328071.4696314,2000
-31760.86774597976,-187500.02235174447,-1404.6059733159511,-187500.02235174447,-187500.02235174447,-187500.02235174447,-187500.02235174447,-187500.02235174447,1730328073.04573,1730328071.4696314,2000
-31568.329819241742,-187500.02235174447,-1352.8840366463703,-187500.02235174447,-187500.02235174447,-187500.02235174447,-187500.02235174447,-187500.02235174447,1730328073.0497022,1730328071.4696314,2000
-31385.98428797535,-187500.02235174447,-1419.9392700122917,-187500.02235174447,-187500.02235174447,-187500.02235174447,-187500.02235174447,-187500.02235174447,1730328073.0536647,1730328071.4696314,2000
-31534.936313025515,-187500.02235174447,-1530.2227771547768,-187500.02235174447,-187500.02235174447,-187500.02235174447,-187500.02235174447,-187500.02235174447,1730328073.0583048,1730328071.4696314,2000
-31675.66289611613,-187500.02235174447,-1463.1898955333108,-187500.02235174447,-187500.02235174447,-187500.02235174447,-187500.02235174447,-187500.02235174447,1730328073.0625162,1730328071.4696314,2000
-31631.65231128363,-187500.02235174447,-1362.31647280651,-187500.02235174447,-187500.02235174447,-187500.02235174447,-187500.02235174447,-187500.02235174447,1730328073.0655084,1730328071.4696314,2000
-31583.216081048977,-187500.02235174447,-1405.8576710054483,-187500.02235174447,-187500.02235174447,-187500.02235174447,-187500.02235174447,-187500.02235174447,1730328073.0699017,1730328071.4696314,2000
-31570.52029019836,-187500.02235174447,-1518.3987043379193,-187500.02235174447,-187500.02235174447,-187500.02235174447,-187500.02235174447,-187500.02235174447,1730328073.0733962,1730328071.4696314,2000
-31708.385849998696,-187500.02235174447,-1475.3045410280874,-187500.02235174447,-187500.02235174447,-187500.02235174447,-187500.02235174447,-187500.02235174447,1730328073.0772943,1730328071.4696314,2000
-31721.05928910485,-187500.02235174447,-1356.3932605258535,-187500.02235174447,-187500.02235174447,-187500.02235174447,-187500.02235174447,-187500.02235174447,1730328073.08124,1730328071.4696314,2000
-31616.676642498573,-187500.02235174447,-1370.3631008104207,-187500.02235174447,-187500.02235174447,-187500.02235174447,-187500.02235174447,-187500.02235174447,1730328073.0856123,1730328071.4696314,2000
-31581.159720559088,-187500.02235174447,-1455.0315088071238,-187500.02235174447,-187500.02235174447,-187500.02235174447,-187500.02235174447,-187500.02235174447,1730328073.0906577,1730328071.4696314,2000
-31558.38329295913,-187500.02235174447,-1451.6340436499172,-187500.02235174447,-187500.02235174447,-187500.02235174447,-187500.02235174447,-187500.02235174447,1730328073.093568,1730328071.4696314,2000
-31519.02187097333,-187500.02235174447,-1393.8771359774037,-187500.02235174447,-187500.02235174447,-187500.02235174447,-187500.02235174447,-187500.02235174447,1730328073.09721,1730328071.4696314,2000
-31589.318107285275,-187500.02235174447,-1355.5662459810071,-187500.02235174447,-187500.02235174447,-187500.02235174447,-187500.02235174447,-187500.02235174447,1730328073.1017673,1730328071.4696314,2000
-31679.060361273336,-187500.02235174447,-1400.247383147166,-187500.02235174447,-187500.02235174447,-187500.02235174447,-187500.02235174447,-187500.02235174447,1730328073.1052296,1730328071.4696314,2000
-31673.67359085961,-187500.02235174447,-1458.5630844310624,-187500.02235174447,-187500.02235174447,-187500.02235174447,-187500.02235174447,-187500.02235174447,1730328073.1092663,1730328071.4696314,2000
-31652.707654560527,-187500.02235174447,-1436.5913196314957,-187500.02235174447,-187500.02235174447,-187500.02235174447,-187500.02235174447,-187500.02235174447,1730328073.113318,1730328071.4696314,2000
-31571.43671172103,-187500.02235174447,-1451.1646570163557,-187500.02235174447,-187500.02235174447,-187500.02235174447,-187500.02235174447,-187500.02235174447,1730328073.1181917,1730328071.4696314,2000
-31588.58049971825,-187500.02235174447,-1507.3345908325423,-187500.02235174447,-187500.02235174447,-187500.02235174447,-187500.02235174447,-187500.02235174447,1730328073.121286,1730328071.4696314,2000
-31606.08191562676,-187500.02235174447,-1430.7798660731155,-187500.02235174447,-187500.02235174447,-187500.02235174447,-187500.02235174447,-187500.02235174447,1730328073.1252935,1730328071.4696314,2000
-31538.132612482623,-187500.02235174447,-1372.1512403668453,-187500.02235174447,-187500.02235174447,-187500.02235174447,-187500.02235174447,-187500.02235174447,1730328073.1294985,1730328071.4696314,2000
-31577.002296090403,-187500.02235174447,-1367.7702984536052,-187500.02235174447,-187500.02235174447,-187500.02235174447,-187500.02235174447,-187500.02235174447,1730328073.133604,1730328071.4696314,2000
-31637.10613693072,-187500.02235174447,-1408.8304530180042,-187500.02235174447,-187500.02235174447,-187500.02235174447,-187500.02235174447,-187500.02235174447,1730328073.137293,1730328071.4696314,2000
-31650.606590581727,-187500.02235174447,-1495.1752418488554,-187500.02235174447,-187500.02235174447,-187500.02235174447,-187500.02235174447,-187500.02235174447,1730328073.14192,1730328071.4696314,2000
-31771.462472851574,-187500.02235174447,-1443.5650639015514,-187500.02235174447,-187500.02235174447,-187500.02235174447,-187500.02235174447,-187500.02235174447,1730328073.1468449,1730328071.4696314,2000
-31577.4046274906,-187500.02235174447,-1339.4059347398204,-187500.02235174447,-187500.02235174447,-187500.02235174447,-187500.02235174447,-187500.02235174447,1730328073.1497664,1730328071.4696314,2000
-31458.56040222173,-187500.02235174447,-1437.1054097539677,-187500.02235174447,-187500.02235174447,-187500.02235174447,-187500.02235174447,-187500.02235174447,1730328073.153746,1730328071.4696314,2000
-31490.054010159256,-187500.02235174447,-1487.1509655894,-187500.02235174447,-187500.02235174447,-187500.02235174447,-187500.02235174447,-187500.02235174447,1730328073.15746,1730328071.4696314,2000
-31641.30826488832,-187500.02235174447,-1454.4950669401965,-187500.02235174447,-187500.02235174447,-187500.02235174447,-187500.02235174447,-187500.02235174447,1730328073.1619515,1730328071.4696314,2000
-31649.198430681045,-187500.02235174447,-1445.66612788035,-187500.02235174447,-187500.02235174447,-187500.02235174447,-187500.02235174447,-187500.02235174447,1730328073.165514,1730328071.4696314,2000
-31563.59124941722,-187500.02235174447,-1392.0442929320686,-187500.02235174447,-187500.02235174447,-187500.02235174447,-187500.02235174447,-187500.02235174447,1730328073.169757,1730328071.4696314,2000
-31621.437564067557,-187500.02235174447,-1428.8129125610487,-187500.02235174447,-187500.02235174447,-187500.02235174447,-187500.02235174447,-187500.02235174447,1730328073.1736424,1730328071.4696314,2000
-31668.286820445875,-187500.02235174447,-1495.354055804498,-187500.02235174447,-187500.02235174447,-187500.02235174447,-187500.02235174447,-187500.02235174447,1730328073.1765914,1730328071.4696314,2000
-31706.86593137573,-187500.02235174447,-1349.8665511449042,-187500.02235174447,-187500.02235174447,-187500.02235174447,-187500.02235174447,-187500.02235174447,1730328073.1803944,1730328071.4696314,2000
-31616.654290754115,-187500.02235174447,-1385.7858044845825,-187500.02235174447,-187500.02235174447,-187500.02235174447,-187500.02235174447,-187500.02235174447,1730328073.1856155,1730328071.4696314,2000
-31558.405644703587,-187500.02235174447,-1510.4191315673747,-187500.02235174447,-187500.02235174447,-187500.02235174447,-187500.02235174447,-187500.02235174447,1730328073.1893897,1730328071.4696314,2000
-31581.383238003644,-187500.02235174447,-1408.1599006843448,-187500.02235174447,-187500.02235174447,-187500.02235174447,-187500.02235174447,-187500.02235174447,1730328073.1937823,1730328071.4696314,2000
-31651.657122571127,-187500.02235174447,-1367.3009118200437,-187500.02235174447,-187500.02235174447,-187500.02235174447,-187500.02235174447,-187500.02235174447,1730328073.1973934,1730328071.4696314,2000
-31355.138880627022,-187500.02235174447,-1375.2134293572224,-187500.02235174447,-187500.02235174447,-187500.02235174447,-187500.02235174447,-187500.02235174447,1730328073.2009509,1730328071.4696314,2000
-31436.99096882236,-187500.02235174447,-1376.3310165799876,-187500.02235174447,-187500.02235174447,-187500.02235174447,-187500.02235174447,-187500.02235174447,1730328073.2046187,1730328071.4696314,2000
-31790.819083549868,-187500.02235174447,-1416.7429705551829,-187500.02235174447,-187500.02235174447,-187500.02235174447,-187500.02235174447,-187500.02235174447,1730328073.2087011,1730328071.4696314,2000
-31764.265211136964,-187500.02235174447,-1441.7769243451269,-187500.02235174447,-187500.02235174447,-187500.02235174447,-187500.02235174447,-187500.02235174447,1730328073.213557,1730328071.4696314,2000
-31586.56884271727,-187500.02235174447,-1375.5263537795963,-187500.02235174447,-187500.02235174447,-187500.02235174447,-187500.02235174447,-187500.02235174447,1730328073.2176538,1730328071.4696314,2000
-31598.30350855631,-187500.02235174447,-1438.155941743367,-187500.02235174447,-187500.02235174447,-187500.02235174447,-187500.02235174447,-187500.02235174447,1730328073.2214775,1730328071.4696314,2000
-31634.49098282945,-187500.02235174447,-1556.6648908454051,-187500.02235174447,-187500.02235174447,-187500.02235174447,-187500.02235174447,-187500.02235174447,1730328073.225858,1730328071.4696314,2000
-31634.17805840708,-187500.02235174447,-1463.7486891446936,-187500.02235174447,-187500.02235174447,-187500.02235174447,-187500.02235174447,-187500.02235174447,1730328073.229051,1730328071.4696314,2000
-31559.791452859816,-187500.02235174447,-1420.8109880460488,-187500.02235174447,-187500.02235174447,-187500.02235174447,-187500.02235174447,-187500.02235174447,1730328073.2331789,1730328071.4696314,2000
-31565.558202929285,-187500.02235174447,-1469.9401223588136,-187500.02235174447,-187500.02235174447,-187500.02235174447,-187500.02235174447,-187500.02235174447,1730328073.2366464,1730328071.4696314,2000
-31531.136516468112,-187500.02235174447,-1416.2959356660767,-187500.02235174447,-187500.02235174447,-187500.02235174447,-187500.02235174447,-187500.02235174447,1730328073.241989,1730328071.4696314,2000
-31459.54387897776,-187500.02235174447,-1300.1786232207564,-187500.02235174447,-187500.02235174447,-187500.02235174447,-187500.02235174447,-187500.02235174447,1730328073.2457073,1730328071.4696314,2000
-31553.60001964569,-187500.02235174447,-1319.4011234523207,-187500.02235174447,-187500.02235174447,-187500.02235174447,-187500.02235174447,-187500.02235174447,1730328073.2499297,1730328071.4696314,2000
-31624.902084458125,-187500.02235174447,-1355.2533215586332,-187500.02235174447,-187500.02235174447,-187500.02235174447,-187500.02235174447,-187500.02235174447,1730328073.253062,1730328071.4696314,2000
-31625.30441585832,-187500.02235174447,-1471.951779359791,-187500.02235174447,-187500.02235174447,-187500.02235174447,-187500.02235174447,-187500.02235174447,1730328073.2565217,1730328071.4696314,2000
-31587.462912495484,-187500.02235174447,-1542.5609400941064,-187500.02235174447,-187500.02235174447,-187500.02235174447,-187500.02235174447,-187500.02235174447,1730328073.260836,1730328071.4696314,2000
-31549.24142947691,-187500.02235174447,-1418.866386278437,-187500.02235174447,-187500.02235174447,-187500.02235174447,-187500.02235174447,-187500.02235174447,1730328073.2645242,1730328071.4696314,2000
-31481.47094028842,-187500.02235174447,-1317.5012251736196,-187500.02235174447,-187500.02235174447,-187500.02235174447,-187500.02235174447,-187500.02235174447,1730328073.2697332,1730328071.4696314,2000
-31638.02255845339,-187500.02235174447,-1376.3310165799876,-187500.02235174447,-187500.02235174447,-187500.02235174447,-187500.02235174447,-187500.02235174447,1730328073.274237,1730328071.4696314,2000
-31655.65808482863,-187500.02235174447,-1411.870290263926,-187500.02235174447,-187500.02235174447,-187500.02235174447,-187500.02235174447,-187500.02235174447,1730328073.2775276,1730328071.4696314,2000
-31549.844926577203,-187500.02235174447,-1434.579662630518,-187500.02235174447,-187500.02235174447,-187500.02235174447,-187500.02235174447,-187500.02235174447,1730328073.2805235,1730328071.4696314,2000
-31634.2674653849,-187500.02235174447,-1365.93745540827,-187500.02235174447,-187500.02235174447,-187500.02235174447,-187500.02235174447,-187500.02235174447,1730328073.2845588,1730328071.4696314,2000
-31507.0860394342,-187500.02235174447,-1411.3338483969983,-187500.02235174447,-187500.02235174447,-187500.02235174447,-187500.02235174447,-187500.02235174447,1730328073.2885368,1730328071.4696314,2000
-31610.19463660653,-187500.02235174447,-1471.0800613260344,-187500.02235174447,-187500.02235174447,-187500.02235174447,-187500.02235174447,-187500.02235174447,1730328073.293104,1730328071.4696314,2000
-31663.391788410165,-187500.02235174447,-1347.2961005325435,-187500.02235174447,-187500.02235174447,-187500.02235174447,-187500.02235174447,-187500.02235174447,1730328073.2965453,1730328071.4696314,2000
-31611.848665696227,-187500.02235174447,-1360.058946616524,-187500.02235174447,-187500.02235174447,-187500.02235174447,-187500.02235174447,-187500.02235174447,1730328073.3021414,1730328071.4696314,2000
-31569.313295997777,-187500.02235174447,-1440.6593371223614,-187500.02235174447,-187500.02235174447,-187500.02235174447,-187500.02235174447,-187500.02235174447,1730328073.3056183,1730328071.4696314,2000
-31614.77674421987,-187500.02235174447,-1507.3569425769977,-187500.02235174447,-187500.02235174447,-187500.02235174447,-187500.02235174447,-187500.02235174447,1730328073.3088496,1730328071.4696314,2000
-31701.479160962008,-187500.02235174447,-1475.349244516998,-187500.02235174447,-187500.02235174447,-187500.02235174447,-187500.02235174447,-187500.02235174447,1730328073.312945,1730328071.4696314,2000
-31497.09480966268,-187500.02235174447,-1428.3658776719426,-187500.02235174447,-187500.02235174447,-187500.02235174447,-187500.02235174447,-187500.02235174447,1730328073.3168068,1730328071.4696314,2000
-31347.78515670123,-187500.02235174447,-1388.7585864971384,-187500.02235174447,-187500.02235174447,-187500.02235174447,-187500.02235174447,-187500.02235174447,1730328073.3209512,1730328071.4696314,2000
-31546.313350953264,-187500.02235174447,-1377.60506601394,-187500.02235174447,-187500.02235174447,-187500.02235174447,-187500.02235174447,-187500.02235174447,1730328073.3248036,1730328071.4696314,2000
-31662.0730354873,-187500.02235174447,-1377.962693925225,-187500.02235174447,-187500.02235174447,-187500.02235174447,-187500.02235174447,-187500.02235174447,1730328073.3296509,1730328071.4696314,2000
-31693.74545738047,-187500.02235174447,-1352.83933315746,-187500.02235174447,-187500.02235174447,-187500.02235174447,-187500.02235174447,-187500.02235174447,1730328073.33405,1730328071.4696314,2000
-31586.65824969509,-187500.02235174447,-1364.484592018675,-187500.02235174447,-187500.02235174447,-187500.02235174447,-187500.02235174447,-187500.02235174447,1730328073.3367677,1730328071.4696314,2000
-31652.41708188261,-187500.02235174447,-1529.284003887654,-187500.02235174447,-187500.02235174447,-187500.02235174447,-187500.02235174447,-187500.02235174447,1730328073.3412316,1730328071.4696314,2000
-31632.3675671062,-187500.02235174447,-1489.9449336463135,-187500.02235174447,-187500.02235174447,-187500.02235174447,-187500.02235174447,-187500.02235174447,1730328073.3452475,1730328071.4696314,2000
-31499.62055678613,-187500.02235174447,-1377.0239206581025,-187500.02235174447,-187500.02235174447,-187500.02235174447,-187500.02235174447,-187500.02235174447,1730328073.3489573,1730328071.4696314,2000
-31405.430305651465,-187500.02235174447,-1355.7897634255603,-187500.02235174447,-187500.02235174447,-187500.02235174447,-187500.02235174447,-187500.02235174447,1730328073.3529272,1730328071.4696314,2000
-31504.42618184402,-187500.02235174447,-1406.572926828018,-187500.02235174447,-187500.02235174447,-187500.02235174447,-187500.02235174447,-187500.02235174447,1730328073.3578403,1730328071.4696314,2000
-31568.016894819368,-187500.02235174447,-1470.7224334147495,-187500.02235174447,-187500.02235174447,-187500.02235174447,-187500.02235174447,-187500.02235174447,1730328073.361015,1730328071.4696314,2000
-31713.90673087916,-187500.02235174447,-1451.1646570163557,-187500.02235174447,-187500.02235174447,-187500.02235174447,-187500.02235174447,-187500.02235174447,1730328073.36479,1730328071.4696314,2000
-31656.30628541783,-187500.02235174447,-1356.2144465702113,-187500.02235174447,-187500.02235174447,-187500.02235174447,-187500.02235174447,-187500.02235174447,1730328073.3689792,1730328071.4696314,2000
-31552.773005100848,-187500.02235174447,-1430.1540172283671,-187500.02235174447,-187500.02235174447,-187500.02235174447,-187500.02235174447,-187500.02235174447,1730328073.3726544,1730328071.4696314,2000
-31627.718404259493,-187500.02235174447,-1432.4562469072637,-187500.02235174447,-187500.02235174447,-187500.02235174447,-187500.02235174447,-187500.02235174447,1730328073.3770645,1730328071.4696314,2000
-31657.49092787396,-187500.02235174447,-1411.3785518859092,-187500.02235174447,-187500.02235174447,-187500.02235174447,-187500.02235174447,-187500.02235174447,1730328073.3806877,1730328071.4696314,2000
-31530.935350768013,-187500.02235174447,-1356.773240181594,-187500.02235174447,-187500.02235174447,-187500.02235174447,-187500.02235174447,-187500.02235174447,1730328073.3862708,1730328071.4696314,2000
-31586.457083995,-187500.02235174447,-1444.3697267019425,-187500.02235174447,-187500.02235174447,-187500.02235174447,-187500.02235174447,-187500.02235174447,1730328073.3889875,1730328071.4696314,2000
-31522.508743108363,-187500.02235174447,-1573.2275334867877,-187500.02235174447,-187500.02235174447,-187500.02235174447,-187500.02235174447,-187500.02235174447,1730328073.3932004,1730328071.4696314,2000
-31471.010323883336,-187500.02235174447,-1440.3687644444424,-187500.02235174447,-187500.02235174447,-187500.02235174447,-187500.02235174447,-187500.02235174447,1730328073.396676,1730328071.4696314,2000
-31569.91679309807,-187500.02235174447,-1270.0931751839132,-187500.02235174447,-187500.02235174447,-187500.02235174447,-187500.02235174447,-187500.02235174447,1730328073.401133,1730328071.4696314,2000
-31454.26886728631,-187500.02235174447,-1355.3427285364544,-187500.02235174447,-187500.02235174447,-187500.02235174447,-187500.02235174447,-187500.02235174447,1730328073.4046602,1730328071.4696314,2000
-31598.34821204522,-187500.02235174447,-1445.0179272911464,-187500.02235174447,-187500.02235174447,-187500.02235174447,-187500.02235174447,-187500.02235174447,1730328073.409058,1730328071.4696314,2000
-31650.69599755955,-187500.02235174447,-1410.3280198965097,-187500.02235174447,-187500.02235174447,-187500.02235174447,-187500.02235174447,-187500.02235174447,1730328073.4138172,1730328071.4696314,2000
-31572.666057666072,-187500.02235174447,-1404.5612698270404,-187500.02235174447,-187500.02235174447,-187500.02235174447,-187500.02235174447,-187500.02235174447,1730328073.4170244,1730328071.4696314,2000
-31600.09164811273,-187500.02235174447,-1417.033543233102,-187500.02235174447,-187500.02235174447,-187500.02235174447,-187500.02235174447,-187500.02235174447,1730328073.4199831,1730328071.4696314,2000
-31598.884653912148,-187500.02235174447,-1458.2725117531434,-187500.02235174447,-187500.02235174447,-187500.02235174447,-187500.02235174447,-187500.02235174447,1730328073.4249988,1730328071.4696314,2000
-31565.289981995826,-187500.02235174447,-1472.488221226719,-187500.02235174447,-187500.02235174447,-187500.02235174447,-187500.02235174447,-187500.02235174447,1730328073.4294305,1730328071.4696314,2000
-31561.512537182876,-187500.02235174447,-1393.452452832753,-187500.02235174447,-187500.02235174447,-187500.02235174447,-187500.02235174447,-187500.02235174447,1730328073.4329724,1730328071.4696314,2000
-31473.111387862136,-187500.02235174447,-1420.609822345951,-187500.02235174447,-187500.02235174447,-187500.02235174447,-187500.02235174447,-187500.02235174447,1730328073.4369,1730328071.4696314,2000
-31565.982886073936,-187500.02235174447,-1464.6427589229058,-187500.02235174447,-187500.02235174447,-187500.02235174447,-187500.02235174447,-187500.02235174447,1730328073.4420707,1730328071.4696314,2000
-31666.766901822917,-187500.02235174447,-1398.1686709128228,-187500.02235174447,-187500.02235174447,-187500.02235174447,-187500.02235174447,-187500.02235174447,1730328073.444792,1730328071.4696314,2000
-31675.41702692712,-187500.02235174447,-1303.486681400142,-187500.02235174447,-187500.02235174447,-187500.02235174447,-187500.02235174447,-187500.02235174447,1730328073.447764,1730328071.4696314,2000
-31535.85273454818,-187500.02235174447,-1353.2193128132,-187500.02235174447,-187500.02235174447,-187500.02235174447,-187500.02235174447,-187500.02235174447,1730328073.4528768,1730328071.4696314,2000
-31544.882839308124,-187500.02235174447,-1476.4668317397634,-187500.02235174447,-187500.02235174447,-187500.02235174447,-187500.02235174447,-187500.02235174447,1730328073.4571157,1730328071.4696314,2000
-31587.39585726212,-187500.02235174447,-1522.533777062151,-187500.02235174447,-187500.02235174447,-187500.02235174447,-187500.02235174447,-187500.02235174447,1730328073.4613383,1730328071.4696314,2000
-31522.262873919357,-187500.02235174447,-1419.156958956356,-187500.02235174447,-187500.02235174447,-187500.02235174447,-187500.02235174447,-187500.02235174447,1730328073.4648712,1730328071.4696314,2000
-31579.550394958307,-187500.02235174447,-1381.9860079271805,-187500.02235174447,-187500.02235174447,-187500.02235174447,-187500.02235174447,-187500.02235174447,1730328073.4679985,1730328071.4696314,2000
-31565.893479096118,-187500.02235174447,-1392.0889964209791,-187500.02235174447,-187500.02235174447,-187500.02235174447,-187500.02235174447,-187500.02235174447,1730328073.4717736,1730328071.4696314,2000
-31614.10619188621,-187500.02235174447,-1396.358179611943,-187500.02235174447,-187500.02235174447,-187500.02235174447,-187500.02235174447,-187500.02235174447,1730328073.4762468,1730328071.4696314,2000
-31577.71755191297,-187500.02235174447,-1417.324115911021,-187500.02235174447,-187500.02235174447,-187500.02235174447,-187500.02235174447,-187500.02235174447,1730328073.4807837,1730328071.4696314,2000
-31599.73402020145,-187500.02235174447,-1395.6876272782836,-187500.02235174447,-187500.02235174447,-187500.02235174447,-187500.02235174447,-187500.02235174447,1730328073.48484,1730328071.4696314,2000
-31537.86439154916,-187500.02235174447,-1425.7507235706717,-187500.02235174447,-187500.02235174447,-187500.02235174447,-187500.02235174447,-187500.02235174447,1730328073.488802,1730328071.4696314,2000
-31505.23084464441,-187500.02235174447,-1470.6777299258388,-187500.02235174447,-187500.02235174447,-187500.02235174447,-187500.02235174447,-187500.02235174447,1730328073.493435,1730328071.4696314,2000
-31670.432587913587,-187500.02235174447,-1405.5223948386188,-187500.02235174447,-187500.02235174447,-187500.02235174447,-187500.02235174447,-187500.02235174447,1730328073.4962072,1730328071.4696314,2000
-31649.041968469857,-187500.02235174447,-1381.2931038490658,-187500.02235174447,-187500.02235174447,-187500.02235174447,-187500.02235174447,-187500.02235174447,1730328073.5001884,1730328071.4696314,2000
-31388.532386843253,-187500.02235174447,-1454.38330821792,-187500.02235174447,-187500.02235174447,-187500.02235174447,-187500.02235174447,-187500.02235174447,1730328073.5038068,1730328071.4696314,2000
-31372.84146223563,-187500.02235174447,-1426.533034626607,-187500.02235174447,-187500.02235174447,-187500.02235174447,-187500.02235174447,-187500.02235174447,1730328073.5079732,1730328071.4696314,2000
-31612.63097675216,-187500.02235174447,-1379.8402404594708,-187500.02235174447,-187500.02235174447,-187500.02235174447,-187500.02235174447,-187500.02235174447,1730328073.5128863,1730328071.4696314,2000
-31505.923748722525,-187500.02235174447,-1474.030491594135,-187500.02235174447,-187500.02235174447,-187500.02235174447,-187500.02235174447,-187500.02235174447,1730328073.5171766,1730328071.4696314,2000
-31540.52424913934,-187500.02235174447,-1437.7759620876268,-187500.02235174447,-187500.02235174447,-187500.02235174447,-187500.02235174447,-187500.02235174447,1730328073.5209816,1730328071.4696314,2000
-31612.04983139632,-187500.02235174447,-1314.3719809498766,-187500.02235174447,-187500.02235174447,-187500.02235174447,-187500.02235174447,-187500.02235174447,1730328073.5240982,1730328071.4696314,2000
-31601.16453184659,-187500.02235174447,-1384.020016672613,-187500.02235174447,-187500.02235174447,-187500.02235174447,-187500.02235174447,-187500.02235174447,1730328073.5279205,1730328071.4696314,2000
-31632.322863617286,-187500.02235174447,-1404.2259936602109,-187500.02235174447,-187500.02235174447,-187500.02235174447,-187500.02235174447,-187500.02235174447,1730328073.5322015,1730328071.4696314,2000
-31501.02871668681,-187500.02235174447,-1383.0141881721245,-187500.02235174447,-187500.02235174447,-187500.02235174447,-187500.02235174447,-187500.02235174447,1730328073.5371723,1730328071.4696314,2000
-31441.908352602524,-187500.02235174447,-1508.8098059665926,-187500.02235174447,-187500.02235174447,-187500.02235174447,-187500.02235174447,-187500.02235174447,1730328073.5413308,1730328071.4696314,2000
-31704.049611574366,-187500.02235174447,-1552.7533355657265,-187500.02235174447,-187500.02235174447,-187500.02235174447,-187500.02235174447,-187500.02235174447,1730328073.545503,1730328071.4696314,2000
-31568.48628145293,-187500.02235174447,-1307.9570302912034,-187500.02235174447,-187500.02235174447,-187500.02235174447,-187500.02235174447,-187500.02235174447,1730328073.5494173,1730328071.4696314,2000
-31509.634138302103,-187500.02235174447,-1298.3457801754214,-187500.02235174447,-187500.02235174447,-187500.02235174447,-187500.02235174447,-187500.02235174447,1730328073.5524323,1730328071.4696314,2000
-31505.94610046698,-187500.02235174447,-1369.1784583542894,-187500.02235174447,-187500.02235174447,-187500.02235174447,-187500.02235174447,-187500.02235174447,1730328073.5558548,1730328071.4696314,2000
-31680.826149085304,-187500.02235174447,-1432.2774329516212,-187500.02235174447,-187500.02235174447,-187500.02235174447,-187500.02235174447,-187500.02235174447,1730328073.5602405,1730328071.4696314,2000
-31644.102232945235,-187500.02235174447,-1411.7585315416493,-187500.02235174447,-187500.02235174447,-187500.02235174447,-187500.02235174447,-187500.02235174447,1730328073.5639331,1730328071.4696314,2000
-31490.679859004005,-187500.02235174447,-1413.61372633144,-187500.02235174447,-187500.02235174447,-187500.02235174447,-187500.02235174447,-187500.02235174447,1730328073.5692897,1730328071.4696314,2000
-31455.364102764623,-187500.02235174447,-1465.737994401216,-187500.02235174447,-187500.02235174447,-187500.02235174447,-187500.02235174447,-187500.02235174447,1730328073.5730588,1730328071.4696314,2000
-31608.07122088328,-187500.02235174447,-1422.733238069205,-187500.02235174447,-187500.02235174447,-187500.02235174447,-187500.02235174447,-187500.02235174447,1730328073.5765524,1730328071.4696314,2000
-31586.792360161828,-187500.02235174447,-1387.216316129722,-187500.02235174447,-187500.02235174447,-187500.02235174447,-187500.02235174447,-187500.02235174447,1730328073.5799663,1730328071.4696314,2000
-31537.28324619332,-187500.02235174447,-1456.2385030077105,-187500.02235174447,-187500.02235174447,-187500.02235174447,-187500.02235174447,-187500.02235174447,1730328073.5843687,1730328071.4696314,2000
-31640.92828523258,-187500.02235174447,-1579.664835889916,-187500.02235174447,-187500.02235174447,-187500.02235174447,-187500.02235174447,-187500.02235174447,1730328073.588019,1730328071.4696314,2000
-31640.727119532483,-187500.02235174447,-1525.73007651926,-187500.02235174447,-187500.02235174447,-187500.02235174447,-187500.02235174447,-187500.02235174447,1730328073.5924456,1730328071.4696314,2000
-31551.789528344816,-187500.02235174447,-1395.866441233926,-187500.02235174447,-187500.02235174447,-187500.02235174447,-187500.02235174447,-187500.02235174447,1730328073.5962229,1730328071.4696314,2000
-31520.56414134075,-187500.02235174447,-1310.1027977589129,-187500.02235174447,-187500.02235174447,-187500.02235174447,-187500.02235174447,-187500.02235174447,1730328073.601339,1730328071.4696314,2000
-31477.22410884191,-187500.02235174447,-1344.1668563088008,-187500.02235174447,-187500.02235174447,-187500.02235174447,-187500.02235174447,-187500.02235174447,1730328073.6043751,1730328071.4696314,2000
-31589.474569496462,-187500.02235174447,-1452.9080930838695,-187500.02235174447,-187500.02235174447,-187500.02235174447,-187500.02235174447,-187500.02235174447,1730328073.608132,1730328071.4696314,2000
-31515.37853662712,-187500.02235174447,-1483.9099626433806,-187500.02235174447,-187500.02235174447,-187500.02235174447,-187500.02235174447,-187500.02235174447,1730328073.6123369,1730328071.4696314,2000
-31589.49692124092,-187500.02235174447,-1386.0093219291357,-187500.02235174447,-187500.02235174447,-187500.02235174447,-187500.02235174447,-187500.02235174447,1730328073.61621,1730328071.4696314,2000
-31619.69412800004,-187500.02235174447,-1373.9393799232698,-187500.02235174447,-187500.02235174447,-187500.02235174447,-187500.02235174447,-187500.02235174447,1730328073.6202705,1730328071.4696314,2000
-31609.99347090644,-187500.02235174447,-1417.5699851000293,-187500.02235174447,-187500.02235174447,-187500.02235174447,-187500.02235174447,-187500.02235174447,1730328073.6253555,1730328071.4696314,2000
-31574.320086755764,-187500.02235174447,-1454.673880895839,-187500.02235174447,-187500.02235174447,-187500.02235174447,-187500.02235174447,-187500.02235174447,1730328073.6293736,1730328071.4696314,2000
-31576.57761294575,-187500.02235174447,-1443.5874156460063,-187500.02235174447,-187500.02235174447,-187500.02235174447,-187500.02235174447,-187500.02235174447,1730328073.6326969,1730328071.4696314,2000
-31549.464946921464,-187500.02235174447,-1439.050011521579,-187500.02235174447,-187500.02235174447,-187500.02235174447,-187500.02235174447,-187500.02235174447,1730328073.63632,1730328071.4696314,2000
-31470.920916905518,-187500.02235174447,-1469.448383980797,-187500.02235174447,-187500.02235174447,-187500.02235174447,-187500.02235174447,-187500.02235174447,1730328073.6403377,1730328071.4696314,2000
-31578.566918202272,-187500.02235174447,-1428.410581160853,-187500.02235174447,-187500.02235174447,-187500.02235174447,-187500.02235174447,-187500.02235174447,1730328073.6444683,1730328071.4696314,2000
-31574.83417687824,-187500.02235174447,-1412.5631943420403,-187500.02235174447,-187500.02235174447,-187500.02235174447,-187500.02235174447,-187500.02235174447,1730328073.6481657,1730328071.4696314,2000
-31625.50558155842,-187500.02235174447,-1421.481540379708,-187500.02235174447,-187500.02235174447,-187500.02235174447,-187500.02235174447,-187500.02235174447,1730328073.652197,1730328071.4696314,2000
-31586.14415957262,-187500.02235174447,-1482.0994713425007,-187500.02235174447,-187500.02235174447,-187500.02235174447,-187500.02235174447,-187500.02235174447,1730328073.657216,1730328071.4696314,2000
-31486.008344412847,-187500.02235174447,-1426.153054970867,-187500.02235174447,-187500.02235174447,-187500.02235174447,-187500.02235174447,-187500.02235174447,1730328073.6601937,1730328071.4696314,2000
-31464.37185578011,-187500.02235174447,-1334.3767922373763,-187500.02235174447,-187500.02235174447,-187500.02235174447,-187500.02235174447,-187500.02235174447,1730328073.6642003,1730328071.4696314,2000
-31587.284098539843,-187500.02235174447,-1393.1171766659234,-187500.02235174447,-187500.02235174447,-187500.02235174447,-187500.02235174447,-187500.02235174447,1730328073.6681347,1730328071.4696314,2000
-31613.10036338572,-187500.02235174447,-1463.9498548447914,-187500.02235174447,-187500.02235174447,-187500.02235174447,-187500.02235174447,-187500.02235174447,1730328073.6721132,1730328071.4696314,2000
-31480.80038795476,-187500.02235174447,-1454.1374390289116,-187500.02235174447,-187500.02235174447,-187500.02235174447,-187500.02235174447,-187500.02235174447,1730328073.6762695,1730328071.4696314,2000
-31477.201757097457,-187500.02235174447,-1347.452562743731,-187500.02235174447,-187500.02235174447,-187500.02235174447,-187500.02235174447,-187500.02235174447,1730328073.6800785,1730328071.4696314,2000
-31581.96438335948,-187500.02235174447,-1366.7644699531163,-187500.02235174447,-187500.02235174447,-187500.02235174447,-187500.02235174447,-187500.02235174447,1730328073.6842828,1730328071.4696314,2000
-31600.471627768475,-187500.02235174447,-1477.8749916404477,-187500.02235174447,-187500.02235174447,-187500.02235174447,-187500.02235174447,-187500.02235174447,1730328073.6872327,1730328071.4696314,2000
-31648.416119625108,-187500.02235174447,-1477.6738259403498,-187500.02235174447,-187500.02235174447,-187500.02235174447,-187500.02235174447,-187500.02235174447,1730328073.6921356,1730328071.4696314,2000
-31526.71087106596,-187500.02235174447,-1376.2416096021664,-187500.02235174447,-187500.02235174447,-187500.02235174447,-187500.02235174447,-187500.02235174447,1730328073.696127,1730328071.4696314,2000
-31395.863759024596,-187500.02235174447,-1353.5545889800298,-187500.02235174447,-187500.02235174447,-187500.02235174447,-187500.02235174447,-187500.02235174447,1730328073.700271,1730328071.4696314,2000
-31545.57574338624,-187500.02235174447,-1484.3569975324867,-187500.02235174447,-187500.02235174447,-187500.02235174447,-187500.02235174447,-187500.02235174447,1730328073.7042546,1730328071.4696314,2000
-31670.946678036056,-187500.02235174447,-1527.6523265424164,-187500.02235174447,-187500.02235174447,-187500.02235174447,-187500.02235174447,-187500.02235174447,1730328073.7093031,1730328071.4696314,2000
-31557.466871436463,-187500.02235174447,-1429.1481887278785,-187500.02235174447,-187500.02235174447,-187500.02235174447,-187500.02235174447,-187500.02235174447,1730328073.7125232,1730328071.4696314,2000
-31412.627567366075,-187500.02235174447,-1393.385397599387,-187500.02235174447,-187500.02235174447,-187500.02235174447,-187500.02235174447,-187500.02235174447,1730328073.715526,1730328071.4696314,2000
-31532.5446763688,-187500.02235174447,-1426.2424619486883,-187500.02235174447,-187500.02235174447,-187500.02235174447,-187500.02235174447,-187500.02235174447,1730328073.7195537,1730328071.4696314,2000
-31687.62107939972,-187500.02235174447,-1406.2152989167332,-187500.02235174447,-187500.02235174447,-187500.02235174447,-187500.02235174447,-187500.02235174447,1730328073.7242627,1730328071.4696314,2000
-31642.559962577816,-187500.02235174447,-1420.9227467683252,-187500.02235174447,-187500.02235174447,-187500.02235174447,-187500.02235174447,-187500.02235174447,1730328073.728377,1730328071.4696314,2000
-31646.98560797997,-187500.02235174447,-1421.0345054906018,-187500.02235174447,-187500.02235174447,-187500.02235174447,-187500.02235174447,-187500.02235174447,1730328073.7324772,1730328071.4696314,2000
-31554.382330701632,-187500.02235174447,-1439.564101644051,-187500.02235174447,-187500.02235174447,-187500.02235174447,-187500.02235174447,-187500.02235174447,1730328073.7365112,1730328071.4696314,2000
-31545.48633640842,-187500.02235174447,-1473.158773560378,-187500.02235174447,-187500.02235174447,-187500.02235174447,-187500.02235174447,-187500.02235174447,1730328073.7404969,1730328071.4696314,2000
-31638.000206708934,-187500.02235174447,-1534.44725685683,-187500.02235174447,-187500.02235174447,-187500.02235174447,-187500.02235174447,-187500.02235174447,1730328073.7435703,1730328071.4696314,2000
-31498.43591433,-187500.02235174447,-1447.7448401146935,-187500.02235174447,-187500.02235174447,-187500.02235174447,-187500.02235174447,-187500.02235174447,1730328073.748354,1730328071.4696314,2000
-31402.725744572374,-187500.02235174447,-1331.1804927802675,-187500.02235174447,-187500.02235174447,-187500.02235174447,-187500.02235174447,-187500.02235174447,1730328073.752591,1730328071.4696314,2000
-31638.87192474269,-187500.02235174447,-1442.5592354010626,-187500.02235174447,-187500.02235174447,-187500.02235174447,-187500.02235174447,-187500.02235174447,1730328073.7564,1730328071.4696314,2000
-31705.99421334198,-187500.02235174447,-1503.3559803194978,-187500.02235174447,-187500.02235174447,-187500.02235174447,-187500.02235174447,-187500.02235174447,1730328073.7605755,1730328071.4696314,2000
-31549.62140913265,-187500.02235174447,-1448.482447681719,-187500.02235174447,-187500.02235174447,-187500.02235174447,-187500.02235174447,-187500.02235174447,1730328073.7642467,1730328071.4696314,2000
-31531.0918129792,-187500.02235174447,-1417.1453019553785,-187500.02235174447,-187500.02235174447,-187500.02235174447,-187500.02235174447,-187500.02235174447,1730328073.768417,1730328071.4696314,2000
-31642.582314322277,-187500.02235174447,-1429.7963893170822,-187500.02235174447,-187500.02235174447,-187500.02235174447,-187500.02235174447,-187500.02235174447,1730328073.7714157,1730328071.4696314,2000
-31617.861284954703,-187500.02235174447,-1492.96241914778,-187500.02235174447,-187500.02235174447,-187500.02235174447,-187500.02235174447,-187500.02235174447,1730328073.775587,1730328071.4696314,2000
-31661.290724431365,-187500.02235174447,-1517.124654903967,-187500.02235174447,-187500.02235174447,-187500.02235174447,-187500.02235174447,-187500.02235174447,1730328073.7804227,1730328071.4696314,2000
-31623.60568327972,-187500.02235174447,-1425.7507235706717,-187500.02235174447,-187500.02235174447,-187500.02235174447,-187500.02235174447,-187500.02235174447,1730328073.7845674,1730328071.4696314,2000
-31486.120103135123,-187500.02235174447,-1370.2066385992337,-187500.02235174447,-187500.02235174447,-187500.02235174447,-187500.02235174447,-187500.02235174447,1730328073.7882593,1730328071.4696314,2000
-31543.58643812972,-187500.02235174447,-1437.9100725543587,-187500.02235174447,-187500.02235174447,-187500.02235174447,-187500.02235174447,-187500.02235174447,1730328073.7915928,1730328071.4696314,2000
-31639.27425614289,-187500.02235174447,-1496.5834017495397,-187500.02235174447,-187500.02235174447,-187500.02235174447,-187500.02235174447,-187500.02235174447,1730328073.7955656,1730328071.4696314,2000
-31591.195653819523,-187500.02235174447,-1451.6563953943726,-187500.02235174447,-187500.02235174447,-187500.02235174447,-187500.02235174447,-187500.02235174447,1730328073.7999516,1730328071.4696314,2000
-31471.56911749472,-187500.02235174447,-1460.507686198674,-187500.02235174447,-187500.02235174447,-187500.02235174447,-187500.02235174447,-187500.02235174447,1730328073.8038971,1730328071.4696314,2000
-31546.73803409792,-187500.02235174447,-1511.4920153012297,-187500.02235174447,-187500.02235174447,-187500.02235174447,-187500.02235174447,-187500.02235174447,1730328073.8085413,1730328071.4696314,2000
-31642.78348002237,-187500.02235174447,-1497.8350994390369,-187500.02235174447,-187500.02235174447,-187500.02235174447,-187500.02235174447,-187500.02235174447,1730328073.8124871,1730328071.4696314,2000
-31694.01367831393,-187500.02235174447,-1438.4688661657412,-187500.02235174447,-187500.02235174447,-187500.02235174447,-187500.02235174447,-187500.02235174447,1730328073.8164575,1730328071.4696314,2000
-31605.210197593,-187500.02235174447,-1456.4620204522637,-187500.02235174447,-187500.02235174447,-187500.02235174447,-187500.02235174447,-187500.02235174447,1730328073.81996,1730328071.4696314,2000
-31593.229662564954,-187500.02235174447,-1431.9421567847917,-187500.02235174447,-187500.02235174447,-187500.02235174447,-187500.02235174447,-187500.02235174447,1730328073.8236623,1730328071.4696314,2000
-31575.996467589917,-187500.02235174447,-1402.840185503982,-187500.02235174447,-187500.02235174447,-187500.02235174447,-187500.02235174447,-187500.02235174447,1730328073.8274772,1730328071.4696314,2000
-31616.25195935392,-187500.02235174447,-1406.3494093834652,-187500.02235174447,-187500.02235174447,-187500.02235174447,-187500.02235174447,-187500.02235174447,1730328073.8314724,1730328071.4696314,2000
-31559.76910111536,-187500.02235174447,-1415.066589721035,-187500.02235174447,-187500.02235174447,-187500.02235174447,-187500.02235174447,-187500.02235174447,1730328073.8365383,1730328071.4696314,2000
-31564.10533953969,-187500.02235174447,-1476.1986108062997,-187500.02235174447,-187500.02235174447,-187500.02235174447,-187500.02235174447,-187500.02235174447,1730328073.8410416,1730328071.4696314,2000
-31587.082932839745,-187500.02235174447,-1489.3637882904754,-187500.02235174447,-187500.02235174447,-187500.02235174447,-187500.02235174447,-187500.02235174447,1730328073.8444932,1730328071.4696314,2000
