Fp1,Fp2,C3,C4,P7,P8,O1,O2,time_board,time_marker,marker
-19642.5342133682,-154006.67089303385,-12697.89191459321,-187500.02235174447,-187500.02235174447,-187500.02235174447,-187500.02235174447,-187500.02235174447,1731450665.268238,1731450665.2672524,2000
-19635.94044875389,-153993.48336380522,-12705.692673408112,-187500.02235174447,-187500.02235174447,-187500.02235174447,-187500.02235174447,-187500.02235174447,1731450665.2722588,1731450665.2672524,2000
-19573.80259916813,-154096.32374004408,-12679.518780650948,-187500.02235174447,-187500.02235174447,-187500.02235174447,-187500.02235174447,-187500.02235174447,1731450665.275396,1731450665.2672524,2000
-19593.15920986643,-154089.01471960722,-12647.488730846491,-187500.02235174447,-187500.02235174447,-187500.02235174447,-187500.02235174447,-187500.02235174447,1731450665.2784617,1731450665.2672524,2000
-19635.024027231226,-154045.31705919708,-12655.624765828225,-187500.02235174447,-187500.02235174447,-187500.02235174447,-187500.02235174447,-187500.02235174447,1731450665.2825167,1731450665.2672524,2000
-19640.92488776742,-154100.99525463526,-12681.03869927391,-187500.02235174447,-187500.02235174447,-187500.02235174447,-187500.02235174447,-187500.02235174447,1731450665.2862208,1731450665.2672524,2000
-19616.27091363322,-154169.90568279097,-12665.146608966186,-187500.02235174447,-187500.02235174447,-187500.02235174447,-187500.02235174447,-187500.02235174447,1731450665.2903368,1731450665.2672524,2000
-19618.05905318964,-154194.15732552498,-12639.9338412206,-187500.02235174447,-187500.02235174447,-187500.02235174447,-187500.02235174447,-187500.02235174447,1731450665.2943416,1731450665.2672524,2000
-19642.623620346025,-154141.00487721025,-12662.12912346472,-187500.02235174447,-187500.02235174447,-187500.02235174447,-187500.02235174447,-187500.02235174447,1731450665.2982087,1731450665.2672524,2000
-19661.62260313304,-154124.2857723577,-12686.492524921005,-187500.02235174447,-187500.02235174447,-187500.02235174447,-187500.02235174447,-187500.02235174447,1731450665.3023806,1731450665.2672524,2000
-19620.338931124083,-154239.17373885796,-12657.8375885293,-187500.02235174447,-187500.02235174447,-187500.02235174447,-187500.02235174447,-187500.02235174447,1731450665.305313,1731450665.2672524,2000
-19584.39732603995,-154274.0648119527,-12637.184576652597,-187500.02235174447,-187500.02235174447,-187500.02235174447,-187500.02235174447,-187500.02235174447,1731450665.310289,1731450665.2672524,2000
-19608.09017516257,-154222.74520668332,-12665.347774666285,-187500.02235174447,-187500.02235174447,-187500.02235174447,-187500.02235174447,-187500.02235174447,1731450665.3142388,1731450665.2672524,2000
-19649.73147508281,-154184.56842715366,-12690.068804033854,-187500.02235174447,-187500.02235174447,-187500.02235174447,-187500.02235174447,-187500.02235174447,1731450665.3185031,1731450665.2672524,2000
-19622.507050336248,-154255.78108498827,-12661.056239730864,-187500.02235174447,-187500.02235174447,-187500.02235174447,-187500.02235174447,-187500.02235174447,1731450665.3224933,1731450665.2672524,2000
-19575.09900034654,-154367.24923458687,-12638.838605742289,-187500.02235174447,-187500.02235174447,-187500.02235174447,-187500.02235174447,-187500.02235174447,1731450665.326573,1731450665.2672524,2000
-19593.293320333163,-154331.55349869173,-12655.02126872793,-187500.02235174447,-187500.02235174447,-187500.02235174447,-187500.02235174447,-187500.02235174447,1731450665.3303688,1731450665.2672524,2000
-19643.584745357603,-154243.48762553785,-12681.239864974006,-187500.02235174447,-187500.02235174447,-187500.02235174447,-187500.02235174447,-187500.02235174447,1731450665.3335252,1731450665.2672524,2000
-19635.158137697952,-154306.83246932417,-12671.472152647037,-187500.02235174447,-187500.02235174447,-187500.02235174447,-187500.02235174447,-187500.02235174447,1731450665.337348,1731450665.2672524,2000
-19582.67624171689,-154364.76819095234,-12653.143722193685,-187500.02235174447,-187500.02235174447,-187500.02235174447,-187500.02235174447,-187500.02235174447,1731450665.3424456,1731450665.2672524,2000
-19586.63250048548,-154330.681780658,-12664.587815354804,-187500.02235174447,-187500.02235174447,-187500.02235174447,-187500.02235174447,-187500.02235174447,1731450665.347524,1731450665.2672524,2000
-19620.674207290915,-154293.17555346197,-12687.677167377136,-187500.02235174447,-187500.02235174447,-187500.02235174447,-187500.02235174447,-187500.02235174447,1731450665.3514955,1731450665.2672524,2000
-19613.007558942743,-154325.58558292218,-12680.546960895892,-187500.02235174447,-187500.02235174447,-187500.02235174447,-187500.02235174447,-187500.02235174447,1731450665.3543816,1731450665.2672524,2000
-19565.19717755284,-154430.01293301737,-12644.35948662275,-187500.02235174447,-187500.02235174447,-187500.02235174447,-187500.02235174447,-187500.02235174447,1731450665.3574767,1731450665.2672524,2000
-19568.572290965592,-154415.0596159768,-12656.474132117526,-187500.02235174447,-187500.02235174447,-187500.02235174447,-187500.02235174447,-187500.02235174447,1731450665.3613749,1731450665.2672524,2000
-19645.21642270284,-154317.00251305135,-12669.147571223686,-187500.02235174447,-187500.02235174447,-187500.02235174447,-187500.02235174447,-187500.02235174447,1731450665.365624,1731450665.2672524,2000
-19656.03466701921,-154382.02373767184,-12645.320611634328,-187500.02235174447,-187500.02235174447,-187500.02235174447,-187500.02235174447,-187500.02235174447,1731450665.37145,1731450665.2672524,2000
-19602.658701259938,-154473.93411087204,-12624.868765457722,-187500.02235174447,-187500.02235174447,-187500.02235174447,-187500.02235174447,-187500.02235174447,1731450665.3746178,1731450665.2672524,2000
-19577.267119558703,-154467.8097328913,-12635.68700977409,-187500.02235174447,-187500.02235174447,-187500.02235174447,-187500.02235174447,-187500.02235174447,1731450665.3786469,1731450665.2672524,2000
-19618.528439823203,-154434.81855807526,-12660.810370541856,-187500.02235174447,-187500.02235174447,-187500.02235174447,-187500.02235174447,-187500.02235174447,1731450665.3816917,1731450665.2672524,2000
-19647.161024470453,-154400.2404094029,-12668.745239823493,-187500.02235174447,-187500.02235174447,-187500.02235174447,-187500.02235174447,-187500.02235174447,1731450665.385631,1731450665.2672524,2000
-19617.14263166697,-154507.43937581056,-12645.097094189776,-187500.02235174447,-187500.02235174447,-187500.02235174447,-187500.02235174447,-187500.02235174447,1731450665.389649,1731450665.2672524,2000
-19571.38861076696,-154541.235213427,-12631.775454494413,-187500.02235174447,-187500.02235174447,-187500.02235174447,-187500.02235174447,-187500.02235174447,1731450665.393679,1731450665.2672524,2000
-19600.20000936985,-154505.07009089828,-12653.523701849426,-187500.02235174447,-187500.02235174447,-187500.02235174447,-187500.02235174447,-187500.02235174447,1731450665.3975906,1731450665.2672524,2000
-19636.923925509924,-154507.08174789927,-12671.405097413672,-187500.02235174447,-187500.02235174447,-187500.02235174447,-187500.02235174447,-187500.02235174447,1731450665.402691,1731450665.2672524,2000
-19613.92398046541,-154534.84261451277,-12655.669469317136,-187500.02235174447,-187500.02235174447,-187500.02235174447,-187500.02235174447,-187500.02235174447,1731450665.4066412,1731450665.2672524,2000
-19569.71222993281,-154550.06415248683,-12637.475149330516,-187500.02235174447,-187500.02235174447,-187500.02235174447,-187500.02235174447,-187500.02235174447,1731450665.4096973,1731450665.2672524,2000
-19586.76661095221,-154517.22943988198,-12653.16607393814,-187500.02235174447,-187500.02235174447,-187500.02235174447,-187500.02235174447,-187500.02235174447,1731450665.413554,1731450665.2672524,2000
-19630.39721612897,-154564.07869626032,-12673.372050925738,-187500.02235174447,-187500.02235174447,-187500.02235174447,-187500.02235174447,-187500.02235174447,1731450665.4176884,1731450665.2672524,2000
-19611.80056474216,-154592.55481869637,-12673.528513136926,-187500.02235174447,-187500.02235174447,-187500.02235174447,-187500.02235174447,-187500.02235174447,1731450665.4216447,1731450665.2672524,2000
-19547.33813373305,-154615.71122595208,-12663.693745576593,-187500.02235174447,-187500.02235174447,-187500.02235174447,-187500.02235174447,-187500.02235174447,1731450665.4258614,1731450665.2672524,2000
-19585.0231748847,-154578.74144062298,-12652.584928582302,-187500.02235174447,-187500.02235174447,-187500.02235174447,-187500.02235174447,-187500.02235174447,1731450665.430643,1731450665.2672524,2000
-19631.22423067382,-154602.7919176569,-12651.869672759733,-187500.02235174447,-187500.02235174447,-187500.02235174447,-187500.02235174447,-187500.02235174447,1731450665.43375,1731450665.2672524,2000
-19637.728588310318,-154619.22044983154,-12647.153454679665,-187500.02235174447,-187500.02235174447,-187500.02235174447,-187500.02235174447,-187500.02235174447,1731450665.43757,1731450665.2672524,2000
-19559.810407139117,-154667.92490099967,-12610.96598040652,-187500.02235174447,-187500.02235174447,-187500.02235174447,-187500.02235174447,-187500.02235174447,1731450665.4417307,1731450665.2672524,2000
-19534.284714971152,-154671.9035115127,-12636.916355719131,-187500.02235174447,-187500.02235174447,-187500.02235174447,-187500.02235174447,-187500.02235174447,1731450665.4455888,1731450665.2672524,2000
-19629.79371902868,-154616.96292364158,-12669.684013090611,-187500.02235174447,-187500.02235174447,-187500.02235174447,-187500.02235174447,-187500.02235174447,1731450665.4496987,1731450665.2672524,2000
-19648.43507390441,-154702.59245664984,-12648.047524457876,-187500.02235174447,-187500.02235174447,-187500.02235174447,-187500.02235174447,-187500.02235174447,1731450665.453761,1731450665.2672524,2000
-19595.01440465622,-154765.31145159143,-12620.107843888742,-187500.02235174447,-187500.02235174447,-187500.02235174447,-187500.02235174447,-187500.02235174447,1731450665.4587348,1731450665.2672524,2000
-19555.921203603888,-154763.29979459045,-12622.11950088972,-187500.02235174447,-187500.02235174447,-187500.02235174447,-187500.02235174447,-187500.02235174447,1731450665.4617004,1731450665.2672524,2000
-19602.94927393785,-154728.98986685157,-12647.9357657356,-187500.02235174447,-187500.02235174447,-187500.02235174447,-187500.02235174447,-187500.02235174447,1731450665.465593,1731450665.2672524,2000
-19635.426358631412,-154772.86634121733,-12650.662678559149,-187500.02235174447,-187500.02235174447,-187500.02235174447,-187500.02235174447,-187500.02235174447,1731450665.469682,1731450665.2672524,2000
-19589.649985986947,-154834.31128672496,-12632.40130333916,-187500.02235174447,-187500.02235174447,-187500.02235174447,-187500.02235174447,-187500.02235174447,1731450665.473648,1731450665.2672524,2000
-19553.41780822489,-154832.9478303132,-12618.766739221424,-187500.02235174447,-187500.02235174447,-187500.02235174447,-187500.02235174447,-187500.02235174447,1731450665.4777231,1731450665.2672524,2000
-19592.332195321585,-154783.12579192233,-12642.861919744244,-187500.02235174447,-187500.02235174447,-187500.02235174447,-187500.02235174447,-187500.02235174447,1731450665.4817147,1731450665.2672524,2000
-19625.70334979336,-154826.1081965099,-12656.764704795443,-187500.02235174447,-187500.02235174447,-187500.02235174447,-187500.02235174447,-187500.02235174447,1731450665.4867208,1731450665.2672524,2000
-19593.24861684425,-154896.3597293329,-12635.195271396076,-187500.02235174447,-187500.02235174447,-187500.02235174447,-187500.02235174447,-187500.02235174447,1731450665.4897408,1731450665.2672524,2000
-19557.530529204672,-154864.6426039508,-12625.11463464673,-187500.02235174447,-187500.02235174447,-187500.02235174447,-187500.02235174447,-187500.02235174447,1731450665.4937584,1731450665.2672524,2000
-19583.994994639757,-154821.57079238544,-12645.410018612149,-187500.02235174447,-187500.02235174447,-187500.02235174447,-187500.02235174447,-187500.02235174447,1731450665.4977615,1731450665.2672524,2000
-19625.12220443752,-154894.88451419884,-12671.18157996912,-187500.02235174447,-187500.02235174447,-187500.02235174447,-187500.02235174447,-187500.02235174447,1731450665.5017483,1731450665.2672524,2000
-19585.98429989628,-154961.00097429764,-12670.198103213084,-187500.02235174447,-187500.02235174447,-187500.02235174447,-187500.02235174447,-187500.02235174447,1731450665.5059206,1731450665.2672524,2000
-19525.29931370012,-154986.39255599887,-12633.11655916173,-187500.02235174447,-187500.02235174447,-187500.02235174447,-187500.02235174447,-187500.02235174447,1731450665.5100477,1731450665.2672524,2000
-19549.48390120076,-154962.2750237316,-12611.100090873251,-187500.02235174447,-187500.02235174447,-187500.02235174447,-187500.02235174447,-187500.02235174447,1731450665.5147448,1731450665.2672524,2000
-19631.35834114055,-154887.44138329523,-12637.8327772418,-187500.02235174447,-187500.02235174447,-187500.02235174447,-187500.02235174447,-187500.02235174447,1731450665.5177865,1731450665.2672524,2000
-19632.967666741333,-154977.60832042794,-12621.40424506715,-187500.02235174447,-187500.02235174447,-187500.02235174447,-187500.02235174447,-187500.02235174447,1731450665.5206156,1731450665.2672524,2000
-19564.750142663732,-155034.4041030889,-12595.319759287806,-187500.02235174447,-187500.02235174447,-187500.02235174447,-187500.02235174447,-187500.02235174447,1731450665.5257854,1731450665.2672524,2000
-19553.440159969352,-155000.1835823278,-12610.429538539594,-187500.02235174447,-187500.02235174447,-187500.02235174447,-187500.02235174447,-187500.02235174447,1731450665.5297253,1731450665.2672524,2000
-19622.03766370269,-154947.075837502,-12645.432370356604,-187500.02235174447,-187500.02235174447,-187500.02235174447,-187500.02235174447,-187500.02235174447,1731450665.5337844,1731450665.2672524,2000
-19620.45068984636,-155007.35849229796,-12634.07768417331,-187500.02235174447,-187500.02235174447,-187500.02235174447,-187500.02235174447,-187500.02235174447,1731450665.5377505,1731450665.2672524,2000
-19569.15343632143,-155067.43998139384,-12612.999989151956,-187500.02235174447,-187500.02235174447,-187500.02235174447,-187500.02235174447,-187500.02235174447,1731450665.5418053,1731450665.2672524,2000
-19552.52373844668,-155034.6499722779,-12620.219602611018,-187500.02235174447,-187500.02235174447,-187500.02235174447,-187500.02235174447,-187500.02235174447,1731450665.544782,1731450665.2672524,2000
-19593.919169177912,-154968.04177380106,-12651.35558263726,-187500.02235174447,-187500.02235174447,-187500.02235174447,-187500.02235174447,-187500.02235174447,1731450665.548839,1731450665.2672524,2000
-19619.69073053488,-155023.67526575032,-12641.632573799205,-187500.02235174447,-187500.02235174447,-187500.02235174447,-187500.02235174447,-187500.02235174447,1731450665.553848,1731450665.2672524,2000
-19572.30503228963,-155094.5079439292,-12616.375102564703,-187500.02235174447,-187500.02235174447,-187500.02235174447,-187500.02235174447,-187500.02235174447,1731450665.5578177,1731450665.2672524,2000
-19553.50721520272,-155105.03561556764,-12613.759948463434,-187500.02235174447,-187500.02235174447,-187500.02235174447,-187500.02235174447,-187500.02235174447,1731450665.5618808,1731450665.2672524,2000
-19583.41384928392,-155083.7120513573,-12628.69091375958,-187500.02235174447,-187500.02235174447,-187500.02235174447,-187500.02235174447,-187500.02235174447,1731450665.5657356,1731450665.2672524,2000
-19605.0279861722,-155059.7956847901,-12645.812350012346,-187500.02235174447,-187500.02235174447,-187500.02235174447,-187500.02235174447,-187500.02235174447,1731450665.5697503,1731450665.2672524,2000
-19564.794846152647,-155134.49521475975,-12625.852242213756,-187500.02235174447,-187500.02235174447,-187500.02235174447,-187500.02235174447,-187500.02235174447,1731450665.5726511,1731450665.2672524,2000
-19547.78516862216,-155159.26094761622,-12605.266285570418,-187500.02235174447,-187500.02235174447,-187500.02235174447,-187500.02235174447,-187500.02235174447,1731450665.5767276,1731450665.2672524,2000
-19563.990183352256,-155116.45735698432,-12640.157358665152,-187500.02235174447,-187500.02235174447,-187500.02235174447,-187500.02235174447,-187500.02235174447,1731450665.5817478,1731450665.2672524,2000
-19613.298131620664,-155077.4535629098,-12666.487713633504,-187500.02235174447,-187500.02235174447,-187500.02235174447,-187500.02235174447,-187500.02235174447,1731450665.5858264,1731450665.2672524,2000
-19589.560579009125,-155168.91690122092,-12615.34692231976,-187500.02235174447,-187500.02235174447,-187500.02235174447,-187500.02235174447,-187500.02235174447,1731450665.5898864,1731450665.2672524,2000
-19527.020398023174,-155231.2335647623,-12586.602578950236,-187500.02235174447,-187500.02235174447,-187500.02235174447,-187500.02235174447,-187500.02235174447,1731450665.5938249,1731450665.2672524,2000
-19568.92991887688,-155129.53312749066,-12622.477128801003,-187500.02235174447,-187500.02235174447,-187500.02235174447,-187500.02235174447,-187500.02235174447,1731450665.59772,1731450665.2672524,2000
-19618.729605523306,-155148.04037189967,-12631.30606786085,-187500.02235174447,-187500.02235174447,-187500.02235174447,-187500.02235174447,-187500.02235174447,1731450665.6027515,1731450665.2672524,2000
-19596.28845409017,-155235.36863748654,-12609.647227483658,-187500.02235174447,-187500.02235174447,-187500.02235174447,-187500.02235174447,-187500.02235174447,1731450665.605755,1731450665.2672524,2000
-19537.123386516974,-155264.15768434497,-12595.185648821074,-187500.02235174447,-187500.02235174447,-187500.02235174447,-187500.02235174447,-187500.02235174447,1731450665.608888,1731450665.2672524,2000
-19561.643250184447,-155235.9944863313,-12610.653055984149,-187500.02235174447,-187500.02235174447,-187500.02235174447,-187500.02235174447,-187500.02235174447,1731450665.613803,1731450665.2672524,2000
-19612.225247886807,-155241.42596023393,-12631.395474838671,-187500.02235174447,-187500.02235174447,-187500.02235174447,-187500.02235174447,-187500.02235174447,1731450665.617787,1731450665.2672524,2000
-19588.979433653287,-155253.22768130634,-12634.927050462613,-187500.02235174447,-187500.02235174447,-187500.02235174447,-187500.02235174447,-187500.02235174447,1731450665.6218307,1731450665.2672524,2000
-19548.142796533444,-155252.8477016506,-12622.097149145264,-187500.02235174447,-187500.02235174447,-187500.02235174447,-187500.02235174447,-187500.02235174447,1731450665.6249,1731450665.2672524,2000
-19562.246747284746,-155278.28398684075,-12616.35275082025,-187500.02235174447,-187500.02235174447,-187500.02235174447,-187500.02235174447,-187500.02235174447,1731450665.628894,1731450665.2672524,2000
-19592.376898810497,-155250.9478033719,-12628.445044570572,-187500.02235174447,-187500.02235174447,-187500.02235174447,-187500.02235174447,-187500.02235174447,1731450665.6328886,1731450665.2672524,2000
-19586.364279552017,-155242.07416082313,-12614.654018241648,-187500.02235174447,-187500.02235174447,-187500.02235174447,-187500.02235174447,-187500.02235174447,1731450665.6369028,1731450665.2672524,2000
-19539.135043517952,-155351.84357784316,-12594.49274474296,-187500.02235174447,-187500.02235174447,-187500.02235174447,-187500.02235174447,-187500.02235174447,1731450665.6418917,1731450665.2672524,2000
-19525.656941611403,-155399.31868306623,-12596.593808721758,-187500.02235174447,-187500.02235174447,-187500.02235174447,-187500.02235174447,-187500.02235174447,1731450665.645788,1731450665.2672524,2000
-19572.617956712005,-155341.5170719048,-12628.355637592753,-187500.02235174447,-187500.02235174447,-187500.02235174447,-187500.02235174447,-187500.02235174447,1731450665.6488788,1731450665.2672524,2000
-19597.249579101757,-155382.9348543805,-12634.904698718155,-187500.02235174447,-187500.02235174447,-187500.02235174447,-187500.02235174447,-187500.02235174447,1731450665.6537707,1731450665.2672524,2000
-19575.791904424656,-155446.190291189,-12604.752195447943,-187500.02235174447,-187500.02235174447,-187500.02235174447,-187500.02235174447,-187500.02235174447,1731450665.658788,1731450665.2672524,2000
-19538.15156676192,-155452.38172440312,-12590.603541207736,-187500.02235174447,-187500.02235174447,-187500.02235174447,-187500.02235174447,-187500.02235174447,1731450665.6617985,1731450665.2672524,2000
-19565.957136864323,-155361.09720004766,-12623.013570667932,-187500.02235174447,-187500.02235174447,-187500.02235174447,-187500.02235174447,-187500.02235174447,1731450665.6658924,1731450665.2672524,2000
-19591.16990460991,-155410.29338959375,-12637.07281793032,-187500.02235174447,-187500.02235174447,-187500.02235174447,-187500.02235174447,-187500.02235174447,1731450665.6699064,1731450665.2672524,2000
-19579.21172132632,-155497.5545999473,-12612.68706472958,-187500.02235174447,-187500.02235174447,-187500.02235174447,-187500.02235174447,-187500.02235174447,1731450665.6728928,1731450665.2672524,2000
-19518.683197341343,-155532.55743176432,-12595.25270405444,-187500.02235174447,-187500.02235174447,-187500.02235174447,-187500.02235174447,-187500.02235174447,1731450665.6769996,1731450665.2672524,2000
-19531.28958121414,-155482.31071022878,-12617.649151998658,-187500.02235174447,-187500.02235174447,-187500.02235174447,-187500.02235174447,-187500.02235174447,1731450665.6809676,1731450665.2672524,2000
-19596.377861067995,-155483.07066954026,-12636.558727807847,-187500.02235174447,-187500.02235174447,-187500.02235174447,-187500.02235174447,-187500.02235174447,1731450665.686003,1731450665.2672524,2000
-19595.50614303424,-155526.50010901692,-12612.35178856275,-187500.02235174447,-187500.02235174447,-187500.02235174447,-187500.02235174447,-187500.02235174447,1731450665.6890097,1731450665.2672524,2000
-19529.76966259118,-155583.20648470003,-12570.218750264496,-187500.02235174447,-187500.02235174447,-187500.02235174447,-187500.02235174447,-187500.02235174447,1731450665.693088,1731450665.2672524,2000
-19538.0621597841,-155535.48551028795,-12584.322701015795,-187500.02235174447,-187500.02235174447,-187500.02235174447,-187500.02235174447,-187500.02235174447,1731450665.69704,1731450665.2672524,2000
-19593.71800347781,-155520.73335894744,-12624.064102657332,-187500.02235174447,-187500.02235174447,-187500.02235174447,-187500.02235174447,-187500.02235174447,1731450665.7010264,1731450665.2672524,2000
-19581.24573007175,-155580.39016489865,-12619.303181088351,-187500.02235174447,-187500.02235174447,-187500.02235174447,-187500.02235174447,-187500.02235174447,1731450665.704955,1731450665.2672524,2000
-19532.76479634819,-155618.85751710623,-12590.447078996547,-187500.02235174447,-187500.02235174447,-187500.02235174447,-187500.02235174447,-187500.02235174447,1731450665.7090783,1731450665.2672524,2000
-19537.749235361724,-155603.05483377635,-12581.036994580863,-187500.02235174447,-187500.02235174447,-187500.02235174447,-187500.02235174447,-187500.02235174447,1731450665.7141848,1731450665.2672524,2000
-19598.12129713551,-155555.8703012312,-12618.051483398853,-187500.02235174447,-187500.02235174447,-187500.02235174447,-187500.02235174447,-187500.02235174447,1731450665.7170594,1731450665.2672524,2000
-19593.65094824445,-155586.55924636833,-12616.129233375696,-187500.02235174447,-187500.02235174447,-187500.02235174447,-187500.02235174447,-187500.02235174447,1731450665.7210872,1731450665.2672524,2000
-19529.16616549089,-155670.0430119089,-12585.507343471929,-187500.02235174447,-187500.02235174447,-187500.02235174447,-187500.02235174447,-187500.02235174447,1731450665.7251797,1731450665.2672524,2000
-19508.96018850329,-155691.72420403056,-12585.708509172024,-187500.02235174447,-187500.02235174447,-187500.02235174447,-187500.02235174447,-187500.02235174447,1731450665.7290182,1731450665.2672524,2000
-19561.330325762072,-155621.4726712075,-12617.179765365096,-187500.02235174447,-187500.02235174447,-187500.02235174447,-187500.02235174447,-187500.02235174447,1731450665.7332234,1731450665.2672524,2000
-19583.458552772827,-155654.77677044593,-12621.001913666954,-187500.02235174447,-187500.02235174447,-187500.02235174447,-187500.02235174447,-187500.02235174447,1731450665.7372167,1731450665.2672524,2000
-19539.58207840706,-155774.3138997929,-12585.105012071732,-187500.02235174447,-187500.02235174447,-187500.02235174447,-187500.02235174447,-187500.02235174447,1731450665.741934,1731450665.2672524,2000
-19526.37219743397,-155766.33432702237,-12580.433497480572,-187500.02235174447,-187500.02235174447,-187500.02235174447,-187500.02235174447,-187500.02235174447,1731450665.7450004,1731450665.2672524,2000
-19568.37112526549,-155706.6551693267,-12611.837698440278,-187500.02235174447,-187500.02235174447,-187500.02235174447,-187500.02235174447,-187500.02235174447,1731450665.7490425,1731450665.2672524,2000
-19592.913340677424,-155718.03220725444,-12624.68995150208,-187500.02235174447,-187500.02235174447,-187500.02235174447,-187500.02235174447,-187500.02235174447,1731450665.7530465,1731450665.2672524,2000
-19553.57427043608,-155755.29256526145,-12608.373178049706,-187500.02235174447,-187500.02235174447,-187500.02235174447,-187500.02235174447,-187500.02235174447,1731450665.7579613,1731450665.2672524,2000
-19501.852333766503,-155798.520839038,-12601.533544246382,-187500.02235174447,-187500.02235174447,-187500.02235174447,-187500.02235174447,-187500.02235174447,1731450665.761999,1731450665.2672524,2000
-19537.30220047262,-155730.81740508287,-12624.198213124064,-187500.02235174447,-187500.02235174447,-187500.02235174447,-187500.02235174447,-187500.02235174447,1731450665.76503,1731450665.2672524,2000
-19588.01830864171,-155762.04279208696,-12622.633591012192,-187500.02235174447,-187500.02235174447,-187500.02235174447,-187500.02235174447,-187500.02235174447,1731450665.7701328,1731450665.2672524,2000
-19558.29048851615,-155850.0416100075,-12593.44221275356,-187500.02235174447,-187500.02235174447,-187500.02235174447,-187500.02235174447,-187500.02235174447,1731450665.773205,1731450665.2672524,2000
-19512.00002574921,-155881.82579062294,-12590.022395851898,-187500.02235174447,-187500.02235174447,-187500.02235174447,-187500.02235174447,-187500.02235174447,1731450665.7769918,1731450665.2672524,2000
-19533.949438804324,-155844.8783570383,-12591.430555752582,-187500.02235174447,-187500.02235174447,-187500.02235174447,-187500.02235174447,-187500.02235174447,1731450665.78114,1731450665.2672524,2000
-19588.84532318656,-155798.31967333792,-12596.68321569958,-187500.02235174447,-187500.02235174447,-187500.02235174447,-187500.02235174447,-187500.02235174447,1731450665.78505,1731450665.2672524,2000
-19558.469302471796,-155882.78691563453,-12590.625892952192,-187500.02235174447,-187500.02235174447,-187500.02235174447,-187500.02235174447,-187500.02235174447,1731450665.7890437,1731450665.2672524,2000
-19503.81928727857,-155916.87332592887,-12567.15656127412,-187500.02235174447,-187500.02235174447,-187500.02235174447,-187500.02235174447,-187500.02235174447,1731450665.7930765,1731450665.2672524,2000
-19542.48780518625,-155892.93460761724,-12594.336282531773,-187500.02235174447,-187500.02235174447,-187500.02235174447,-187500.02235174447,-187500.02235174447,1731450665.7980683,1731450665.2672524,2000
-19604.06686116062,-155836.49645286758,-12625.271096857918,-187500.02235174447,-187500.02235174447,-187500.02235174447,-187500.02235174447,-187500.02235174447,1731450665.8010745,1731450665.2672524,2000
-19566.404171753427,-155920.8966399308,-12594.91742788761,-187500.02235174447,-187500.02235174447,-187500.02235174447,-187500.02235174447,-187500.02235174447,1731450665.8040493,1731450665.2672524,2000
-19531.15547074741,-155972.84209404496,-12575.694927656046,-187500.02235174447,-187500.02235174447,-187500.02235174447,-187500.02235174447,-187500.02235174447,1731450665.8091977,1731450665.2672524,2000
-19522.32653168756,-155960.2580619166,-12578.623006179692,-187500.02235174447,-187500.02235174447,-187500.02235174447,-187500.02235174447,-187500.02235174447,1731450665.8132172,1731450665.2672524,2000
-19569.309898532618,-155910.61483748138,-12603.9251809031,-187500.02235174447,-187500.02235174447,-187500.02235174447,-187500.02235174447,-187500.02235174447,1731450665.817212,1731450665.2672524,2000
-19569.131084576977,-155967.4553236312,-12594.91742788761,-187500.02235174447,-187500.02235174447,-187500.02235174447,-187500.02235174447,-187500.02235174447,1731450665.8210328,1731450665.2672524,2000
-19526.305142200606,-156034.5329087416,-12574.286767755362,-187500.02235174447,-187500.02235174447,-187500.02235174447,-187500.02235174447,-187500.02235174447,1731450665.8252149,1731450665.2672524,2000
-19515.21867695077,-156003.46398394872,-12576.365479989709,-187500.02235174447,-187500.02235174447,-187500.02235174447,-187500.02235174447,-187500.02235174447,1731450665.8281262,1731450665.2672524,2000
-19559.9668693503,-155980.7769633266,-12605.556858248336,-187500.02235174447,-187500.02235174447,-187500.02235174447,-187500.02235174447,-187500.02235174447,1731450665.8322349,1731450665.2672524,2000
-19583.01151788372,-155975.8148760575,-12615.682198486593,-187500.02235174447,-187500.02235174447,-187500.02235174447,-187500.02235174447,-187500.02235174447,1731450665.8371572,1731450665.2672524,2000
-19534.307066715606,-156071.3909353484,-12586.602578950236,-187500.02235174447,-187500.02235174447,-187500.02235174447,-187500.02235174447,-187500.02235174447,1731450665.8410697,1731450665.2672524,2000
-19503.841639023023,-156059.0304206646,-12577.192494534553,-187500.02235174447,-187500.02235174447,-187500.02235174447,-187500.02235174447,-187500.02235174447,1731450665.845252,1731450665.2672524,2000
-19540.699665629825,-156002.7710798706,-12604.68514021458,-187500.02235174447,-187500.02235174447,-187500.02235174447,-187500.02235174447,-187500.02235174447,1731450665.849161,1731450665.2672524,2000
-19570.20396831083,-156035.15875758635,-12619.660808999635,-187500.02235174447,-187500.02235174447,-187500.02235174447,-187500.02235174447,-187500.02235174447,1731450665.8531995,1731450665.2672524,2000
-19532.38481669245,-156124.9010115744,-12599.54423898986,-187500.02235174447,-187500.02235174447,-187500.02235174447,-187500.02235174447,-187500.02235174447,1731450665.856197,1731450665.2672524,2000
-19486.407278347884,-156169.5597969961,-12584.859142882722,-187500.02235174447,-187500.02235174447,-187500.02235174447,-187500.02235174447,-187500.02235174447,1731450665.8601947,1731450665.2672524,2000
-19537.48101442826,-156097.85540078348,-12598.91839014511,-187500.02235174447,-187500.02235174447,-187500.02235174447,-187500.02235174447,-187500.02235174447,1731450665.8651955,1731450665.2672524,2000
-19601.69757624836,-156090.56873209105,-12600.281846556883,-187500.02235174447,-187500.02235174447,-187500.02235174447,-187500.02235174447,-187500.02235174447,1731450665.8692367,1731450665.2672524,2000
-19551.741427390745,-156169.0010033847,-12574.06325031081,-187500.02235174447,-187500.02235174447,-187500.02235174447,-187500.02235174447,-187500.02235174447,1731450665.873294,1731450665.2672524,2000
-19507.3061594136,-156174.11955286498,-12575.739631144956,-187500.02235174447,-187500.02235174447,-187500.02235174447,-187500.02235174447,-187500.02235174447,1731450665.877216,1731450665.2672524,2000
-19541.884308085955,-156169.26922431818,-12588.904808629131,-187500.02235174447,-187500.02235174447,-187500.02235174447,-187500.02235174447,-187500.02235174447,1731450665.8813343,1731450665.2672524,2000
-19574.87548290199,-156137.8650233585,-12605.668616970614,-187500.02235174447,-187500.02235174447,-187500.02235174447,-187500.02235174447,-187500.02235174447,1731450665.884271,1731450665.2672524,2000
-19551.49555820174,-156177.6511284889,-12581.685195170068,-187500.02235174447,-187500.02235174447,-187500.02235174447,-187500.02235174447,-187500.02235174447,1731450665.888167,1731450665.2672524,2000
-19507.216752435776,-156274.32242325813,-12547.554081386816,-187500.02235174447,-187500.02235174447,-187500.02235174447,-187500.02235174447,-187500.02235174447,1731450665.893328,1731450665.2672524,2000
-19511.083604226544,-156230.2224314478,-12559.646375137136,-187500.02235174447,-187500.02235174447,-187500.02235174447,-187500.02235174447,-187500.02235174447,1731450665.8972237,1731450665.2672524,2000
-19564.124293818983,-156170.63268072996,-12596.862029655222,-187500.02235174447,-187500.02235174447,-187500.02235174447,-187500.02235174447,-187500.02235174447,1731450665.9013753,1731450665.2672524,2000
-19558.11167456051,-156221.61700983252,-12599.097204100754,-187500.02235174447,-187500.02235174447,-187500.02235174447,-187500.02235174447,-187500.02235174447,1731450665.905242,1731450665.2672524,2000
-19505.897999512912,-156301.52449626024,-12583.830962637778,-187500.02235174447,-187500.02235174447,-187500.02235174447,-187500.02235174447,-187500.02235174447,1731450665.909298,1731450665.2672524,2000
-19507.462621624785,-156302.32915906064,-12581.506381214427,-187500.02235174447,-187500.02235174447,-187500.02235174447,-187500.02235174447,-187500.02235174447,1731450665.912289,1731450665.2672524,2000
-19540.56555516309,-156265.31467024263,-12583.20511379303,-187500.02235174447,-187500.02235174447,-187500.02235174447,-187500.02235174447,-187500.02235174447,1731450665.916253,1731450665.2672524,2000
-19578.45176201484,-156253.55765265916,-12584.59092194926,-187500.02235174447,-187500.02235174447,-187500.02235174447,-187500.02235174447,-187500.02235174447,1731450665.921238,1731450665.2672524,2000
-19532.96596204829,-156351.43594162894,-12567.000099062932,-187500.02235174447,-187500.02235174447,-187500.02235174447,-187500.02235174447,-187500.02235174447,1731450665.9253905,1731450665.2672524,2000
-19493.492781340217,-156348.93254624994,-12555.891282068646,-187500.02235174447,-187500.02235174447,-187500.02235174447,-187500.02235174447,-187500.02235174447,1731450665.9292405,1731450665.2672524,2000
-19540.14087201844,-156314.35439757758,-12565.748401373436,-187500.02235174447,-187500.02235174447,-187500.02235174447,-187500.02235174447,-187500.02235174447,1731450665.9324,1731450665.2672524,2000
-19572.57325322309,-156288.78400192072,-12588.100145828745,-187500.02235174447,-187500.02235174447,-187500.02235174447,-187500.02235174447,-187500.02235174447,1731450665.936396,1731450665.2672524,2000
-19521.27599969816,-156362.72357257886,-12571.984538076464,-187500.02235174447,-187500.02235174447,-187500.02235174447,-187500.02235174447,-187500.02235174447,1731450665.94041,1731450665.2672524,2000
-19489.514170827173,-156367.39508717004,-12563.513226927904,-187500.02235174447,-187500.02235174447,-187500.02235174447,-187500.02235174447,-187500.02235174447,1731450665.944425,1731450665.2672524,2000
-19508.11082221399,-156339.36599962309,-12591.385852263673,-187500.02235174447,-187500.02235174447,-187500.02235174447,-187500.02235174447,-187500.02235174447,1731450665.948361,1731450665.2672524,2000
-19551.87553785748,-156372.46893316138,-12617.02330315391,-187500.02235174447,-187500.02235174447,-187500.02235174447,-187500.02235174447,-187500.02235174447,1731450665.9533544,1731450665.2672524,2000
-19553.238994269253,-156445.15680613005,-12581.975767847987,-187500.02235174447,-187500.02235174447,-187500.02235174447,-187500.02235174447,-187500.02235174447,1731450665.957432,1731450665.2672524,2000
-19477.980670688237,-156470.90601574254,-12537.853424293213,-187500.02235174447,-187500.02235174447,-187500.02235174447,-187500.02235174447,-187500.02235174447,1731450665.9604151,1731450665.2672524,2000
-19520.359578175496,-156467.8438267522,-12559.691078626049,-187500.02235174447,-187500.02235174447,-187500.02235174447,-187500.02235174447,-187500.02235174447,1731450665.9644752,1731450665.2672524,2000
-19569.622822954992,-156486.50753337235,-12586.356709761229,-187500.02235174447,-187500.02235174447,-187500.02235174447,-187500.02235174447,-187500.02235174447,1731450665.9682071,1731450665.2672524,2000
-19536.743406861235,-156470.97307097592,-12583.473334726494,-187500.02235174447,-187500.02235174447,-187500.02235174447,-187500.02235174447,-187500.02235174447,1731450665.9725168,1731450665.2672524,2000
-19493.67159529586,-156543.97386836694,-12558.48408442546,-187500.02235174447,-187500.02235174447,-187500.02235174447,-187500.02235174447,-187500.02235174447,1731450665.9764836,1731450665.2672524,2000
-19511.53063911565,-156500.81264982375,-12574.286767755362,-187500.02235174447,-187500.02235174447,-187500.02235174447,-187500.02235174447,-187500.02235174447,1731450665.9814532,1731450665.2672524,2000
-19551.897889601933,-156452.08584691118,-12589.128326073684,-187500.02235174447,-187500.02235174447,-187500.02235174447,-187500.02235174447,-187500.02235174447,1731450665.9852693,1731450665.2672524,2000
-19548.925107589377,-156462.680573783,-12577.483067212472,-187500.02235174447,-187500.02235174447,-187500.02235174447,-187500.02235174447,-187500.02235174447,1731450665.9883592,1731450665.2672524,2000
-19496.532618586138,-156532.8874031171,-12545.140092985645,-187500.02235174447,-187500.02235174447,-187500.02235174447,-187500.02235174447,-187500.02235174447,1731450665.9924028,1731450665.2672524,2000
-19467.85533044998,-156535.88253687412,-12562.842674594243,-187500.02235174447,-187500.02235174447,-187500.02235174447,-187500.02235174447,-187500.02235174447,1731450665.9983416,1731450665.2672524,2000
-19540.029113296165,-156546.23139455693,-12603.120518102707,-187500.02235174447,-187500.02235174447,-187500.02235174447,-187500.02235174447,-187500.02235174447,1731450666.0013409,1731450665.2672524,2000
-19569.73458167727,-156542.14102532162,-12581.595788192248,-187500.02235174447,-187500.02235174447,-187500.02235174447,-187500.02235174447,-187500.02235174447,1731450666.0044663,1731450665.2672524,2000
-19475.81255147607,-156627.90466879663,-12553.544348900838,-187500.02235174447,-187500.02235174447,-187500.02235174447,-187500.02235174447,-187500.02235174447,1731450666.0092711,1731450665.2672524,2000
-19480.975804445246,-156643.84146259326,-12554.281956467865,-187500.02235174447,-187500.02235174447,-187500.02235174447,-187500.02235174447,-187500.02235174447,1731450666.0133932,1731450665.2672524,2000
-19557.91050886041,-156592.8124300018,-12554.237252978952,-187500.02235174447,-187500.02235174447,-187500.02235174447,-187500.02235174447,-187500.02235174447,1731450666.016431,1731450665.2672524,2000
-19555.16124429241,-156607.7210435535,-12560.629851893167,-187500.02235174447,-187500.02235174447,-187500.02235174447,-187500.02235174447,-187500.02235174447,1731450666.020343,1731450665.2672524,2000
-19481.221673634253,-156675.9385676311,-12561.702735627025,-187500.02235174447,-187500.02235174447,-187500.02235174447,-187500.02235174447,-187500.02235174447,1731450666.0245173,1731450665.2672524,2000
-19454.08665586551,-156630.5198228979,-12574.57734043328,-187500.02235174447,-187500.02235174447,-187500.02235174447,-187500.02235174447,-187500.02235174447,1731450666.0285022,1731450665.2672524,2000
-19527.66859861238,-156648.8706050957,-12560.920424571088,-187500.02235174447,-187500.02235174447,-187500.02235174447,-187500.02235174447,-187500.02235174447,1731450666.032491,1731450665.2672524,2000
-19585.35845105153,-156663.7345151585,-12555.734819857458,-187500.02235174447,-187500.02235174447,-187500.02235174447,-187500.02235174447,-187500.02235174447,1731450666.0375605,1731450665.2672524,2000
-19533.77062484868,-156672.7869716629,-12552.829093078268,-187500.02235174447,-187500.02235174447,-187500.02235174447,-187500.02235174447,-187500.02235174447,1731450666.0405538,1731450665.2672524,2000
-19479.52294105565,-156664.69564017007,-12546.972936030978,-187500.02235174447,-187500.02235174447,-187500.02235174447,-187500.02235174447,-187500.02235174447,1731450666.0436084,1731450665.2672524,2000
-19520.985427020245,-156637.00182878994,-12572.655090410124,-187500.02235174447,-187500.02235174447,-187500.02235174447,-187500.02235174447,-187500.02235174447,1731450666.0486443,1731450665.2672524,2000
-19566.56063396461,-156659.44298022307,-12586.401413250138,-187500.02235174447,-187500.02235174447,-187500.02235174447,-187500.02235174447,-187500.02235174447,1731450666.0526364,1731450665.2672524,2000
-19523.421767165877,-156723.52543157645,-12572.118648543195,-187500.02235174447,-187500.02235174447,-187500.02235174447,-187500.02235174447,-187500.02235174447,1731450666.056644,1731450665.2672524,2000
-19462.021525147145,-156765.0549727744,-12552.069133766789,-187500.02235174447,-187500.02235174447,-187500.02235174447,-187500.02235174447,-187500.02235174447,1731450666.0607033,1731450665.2672524,2000
-19491.14584817241,-156748.02294349944,-12564.720221128491,-187500.02235174447,-187500.02235174447,-187500.02235174447,-187500.02235174447,-187500.02235174447,1731450666.0657716,1731450665.2672524,2000
-19556.85997687101,-156718.9433239631,-12602.271151813407,-187500.02235174447,-187500.02235174447,-187500.02235174447,-187500.02235174447,-187500.02235174447,1731450666.0686915,1731450665.2672524,2000
-19543.381874964463,-156791.76530739848,-12574.420878222094,-187500.02235174447,-187500.02235174447,-187500.02235174447,-187500.02235174447,-187500.02235174447,1731450666.071514,1731450665.2672524,2000
-19485.78142950313,-156849.83513949337,-12539.753322571913,-187500.02235174447,-187500.02235174447,-187500.02235174447,-187500.02235174447,-187500.02235174447,1731450666.0765593,1731450665.2672524,2000
-19427.84570787498,-156824.89059268124,-12606.070948370809,-187500.02235174447,-187500.02235174447,-187500.02235174447,-187500.02235174447,-187500.02235174447,1731450666.0805433,1731450665.2672524,2000
-19515.28573218414,-156801.68948193663,-12633.45183532856,-187500.02235174447,-187500.02235174447,-187500.02235174447,-187500.02235174447,-187500.02235174447,1731450666.084536,1731450665.2672524,2000
-19579.278776559684,-156815.90519141022,-12520.262601406885,-187500.02235174447,-187500.02235174447,-187500.02235174447,-187500.02235174447,-187500.02235174447,1731450666.0884316,1731450665.2672524,2000
-19452.499682009184,-156908.06143379945,-12490.445374303506,-187500.02235174447,-187500.02235174447,-187500.02235174447,-187500.02235174447,-187500.02235174447,1731450666.093674,1731450665.2672524,2000
-19485.647319036405,-156871.6727938262,-12525.157633442595,-187500.02235174447,-187500.02235174447,-187500.02235174447,-187500.02235174447,-187500.02235174447,1731450666.0965247,1731450665.2672524,2000
-19572.662660200916,-156848.94106971516,-12555.019564034888,-187500.02235174447,-187500.02235174447,-187500.02235174447,-187500.02235174447,-187500.02235174447,1731450666.099707,1731450665.2672524,2000
-19488.97772896025,-156891.6329016248,-12568.989404319454,-187500.02235174447,-187500.02235174447,-187500.02235174447,-187500.02235174447,-187500.02235174447,1731450666.1044967,1731450665.2672524,2000
-19408.332634965496,-156936.26933530206,-12590.558837718823,-187500.02235174447,-187500.02235174447,-187500.02235174447,-187500.02235174447,-187500.02235174447,1731450666.108546,1731450665.2672524,2000
-19529.43438642435,-156910.78834662298,-12551.62209887768,-187500.02235174447,-187500.02235174447,-187500.02235174447,-187500.02235174447,-187500.02235174447,1731450666.112534,1731450665.2672524,2000
-19562.045581584644,-156865.5707675899,-12493.32874933824,-187500.02235174447,-187500.02235174447,-187500.02235174447,-187500.02235174447,-187500.02235174447,1731450666.116748,1731450665.2672524,2000
-19554.73656114776,-156913.60466642436,-12541.317944683784,-187500.02235174447,-187500.02235174447,-187500.02235174447,-187500.02235174447,-187500.02235174447,1731450666.1204872,1731450665.2672524,2000
-19493.738650529223,-156989.8017632725,-12541.273241194876,-187500.02235174447,-187500.02235174447,-187500.02235174447,-187500.02235174447,-187500.02235174447,1731450666.1248124,1731450665.2672524,2000
-19455.450112277285,-156945.92528890673,-12570.174046775586,-187500.02235174447,-187500.02235174447,-187500.02235174447,-187500.02235174447,-187500.02235174447,1731450666.1278064,1731450665.2672524,2000
-19401.627111628903,-156887.76604983403,-12664.565463610348,-187500.02235174447,-187500.02235174447,-187500.02235174447,-187500.02235174447,-187500.02235174447,1731450666.1316893,1731450665.2672524,2000
-19506.948531502312,-156955.98357391162,-12670.689841591102,-187500.02235174447,-187500.02235174447,-187500.02235174447,-187500.02235174447,-187500.02235174447,1731450666.1365008,1731450665.2672524,2000
-19571.768590422704,-156989.42178361677,-12454.995507597388,-187500.02235174447,-187500.02235174447,-187500.02235174447,-187500.02235174447,-187500.02235174447,1731450666.1407063,1731450665.2672524,2000
-19426.52695495212,-157004.9562460132,-12447.574728438229,-187500.02235174447,-187500.02235174447,-187500.02235174447,-187500.02235174447,-187500.02235174447,1731450666.1447492,1731450665.2672524,2000
-19442.26258304865,-156980.21286490117,-12533.651296335614,-187500.02235174447,-187500.02235174447,-187500.02235174447,-187500.02235174447,-187500.02235174447,1731450666.147683,1731450665.2672524,2000
-19561.933822862367,-156959.38103906883,-12547.688191853547,-187500.02235174447,-187500.02235174447,-187500.02235174447,-187500.02235174447,-187500.02235174447,1731450666.1516128,1731450665.2672524,2000
-19575.54603523565,-157040.85314760843,-12518.183889172542,-187500.02235174447,-187500.02235174447,-187500.02235174447,-187500.02235174447,-187500.02235174447,1731450666.1557083,1731450665.2672524,2000
-19522.840621810035,-157078.49348527117,-12502.872944220657,-187500.02235174447,-187500.02235174447,-187500.02235174447,-187500.02235174447,-187500.02235174447,1731450666.1597211,1731450665.2672524,2000
-19510.48010712625,-157025.74336835663,-12533.181909702053,-187500.02235174447,-187500.02235174447,-187500.02235174447,-187500.02235174447,-187500.02235174447,1731450666.1647315,1731450665.2672524,2000
-19561.196215295346,-157009.068966993,-12550.90684305511,-187500.02235174447,-187500.02235174447,-187500.02235174447,-187500.02235174447,-187500.02235174447,1731450666.1686127,1731450665.2672524,2000
-19565.286584530662,-157100.66641577083,-12534.09833122472,-187500.02235174447,-187500.02235174447,-187500.02235174447,-187500.02235174447,-187500.02235174447,1731450666.1727767,1731450665.2672524,2000
-19520.404281664407,-157121.96762823674,-12531.14790095662,-187500.02235174447,-187500.02235174447,-187500.02235174447,-187500.02235174447,-187500.02235174447,1731450666.1757655,1731450665.2672524,2000
-19500.265359910176,-157108.08719493,-12542.569642373282,-187500.02235174447,-187500.02235174447,-187500.02235174447,-187500.02235174447,-187500.02235174447,1731450666.1798077,1731450665.2672524,2000
-19537.97275280628,-157049.97265934618,-12552.069133766789,-187500.02235174447,-187500.02235174447,-187500.02235174447,-187500.02235174447,-187500.02235174447,1731450666.1836135,1731450665.2672524,2000
-19515.844525795525,-157081.44391553928,-12568.542369430348,-187500.02235174447,-187500.02235174447,-187500.02235174447,-187500.02235174447,-187500.02235174447,1731450666.1878345,1731450665.2672524,2000
-19427.868059619435,-157199.9081611524,-12574.912616600112,-187500.02235174447,-187500.02235174447,-187500.02235174447,-187500.02235174447,-187500.02235174447,1731450666.1928072,1731450665.2672524,2000
-19497.896074997912,-157166.71582063625,-12510.964275713475,-187500.02235174447,-187500.02235174447,-187500.02235174447,-187500.02235174447,-187500.02235174447,1731450666.196684,1731450665.2672524,2000
-19533.927087059867,-157071.98912763468,-12495.765089483868,-187500.02235174447,-187500.02235174447,-187500.02235174447,-187500.02235174447,-187500.02235174447,1731450666.2007585,1731450665.2672524,2000
-19543.851261598025,-157128.20376493977,-12541.273241194876,-187500.02235174447,-187500.02235174447,-187500.02235174447,-187500.02235174447,-187500.02235174447,1731450666.203724,1731450665.2672524,2000
-19518.37027291897,-157212.0004549027,-12535.014752747387,-187500.02235174447,-187500.02235174447,-187500.02235174447,-187500.02235174447,-187500.02235174447,1731450666.2078164,1731450665.2672524,2000
-19495.32562438555,-157202.7468326982,-12517.021598460866,-187500.02235174447,-187500.02235174447,-187500.02235174447,-187500.02235174447,-187500.02235174447,1731450666.21191,1731450665.2672524,2000
-19523.15354623241,-157150.1531779949,-12523.704770053002,-187500.02235174447,-187500.02235174447,-187500.02235174447,-187500.02235174447,-187500.02235174447,1731450666.215659,1731450665.2672524,2000
-19554.222471025285,-157197.51652449567,-12523.458900863994,-187500.02235174447,-187500.02235174447,-187500.02235174447,-187500.02235174447,-187500.02235174447,1731450666.220729,1731450665.2672524,2000
-19493.984519718237,-157265.2199584508,-12505.108118666189,-187500.02235174447,-187500.02235174447,-187500.02235174447,-187500.02235174447,-187500.02235174447,1731450666.2248275,1731450665.2672524,2000
-19425.45407121826,-157261.48721712676,-12522.274258407862,-187500.02235174447,-187500.02235174447,-187500.02235174447,-187500.02235174447,-187500.02235174447,1731450666.2288277,1731450665.2672524,2000
-19488.553045815595,-157228.4066353329,-12548.135226742654,-187500.02235174447,-187500.02235174447,-187500.02235174447,-187500.02235174447,-187500.02235174447,1731450666.2318144,1731450665.2672524,2000
-19555.652982670425,-157261.91190027143,-12546.72706684197,-187500.02235174447,-187500.02235174447,-187500.02235174447,-187500.02235174447,-187500.02235174447,1731450666.2358508,1731450665.2672524,2000
-19509.049595481112,-157313.79029915217,-12529.650334078116,-187500.02235174447,-187500.02235174447,-187500.02235174447,-187500.02235174447,-187500.02235174447,1731450666.2398667,1731450665.2672524,2000
-19480.349955600497,-157357.8902909625,-12566.508360684917,-187500.02235174447,-187500.02235174447,-187500.02235174447,-187500.02235174447,-187500.02235174447,1731450666.243853,1731450665.2672524,2000
-19546.9134505884,-157271.366688176,-12599.83481166778,-187500.02235174447,-187500.02235174447,-187500.02235174447,-187500.02235174447,-187500.02235174447,1731450666.2499433,1731450665.2672524,2000
-19536.788110350142,-157267.85746429654,-12561.993308304944,-187500.02235174447,-187500.02235174447,-187500.02235174447,-187500.02235174447,-187500.02235174447,1731450666.2528603,1731450665.2672524,2000
-19469.442304306307,-157398.3469484266,-12499.296665107808,-187500.02235174447,-187500.02235174447,-187500.02235174447,-187500.02235174447,-187500.02235174447,1731450666.2567787,1731450665.2672524,2000
-19427.778652641613,-157435.13791980004,-12465.210254813464,-187500.02235174447,-187500.02235174447,-187500.02235174447,-187500.02235174447,-187500.02235174447,1731450666.2598658,1731450665.2672524,2000
-19465.307231582075,-157382.27604416324,-12505.309284366283,-187500.02235174447,-187500.02235174447,-187500.02235174447,-187500.02235174447,-187500.02235174447,1731450666.263738,1731450665.2672524,2000
-19539.850299340524,-157331.40347378296,-12524.66589506458,-187500.02235174447,-187500.02235174447,-187500.02235174447,-187500.02235174447,-187500.02235174447,1731450666.2678,1731450665.2672524,2000
-19540.20792725181,-157408.8522683206,-12490.646540003603,-187500.02235174447,-187500.02235174447,-187500.02235174447,-187500.02235174447,-187500.02235174447,1731450666.2717829,1731450665.2672524,2000
-19464.9943071597,-157460.97653639037,-12490.154801625587,-187500.02235174447,-187500.02235174447,-187500.02235174447,-187500.02235174447,-187500.02235174447,1731450666.275781,1731450665.2672524,2000
-19427.823356130524,-157427.0018848183,-12530.298534667318,-187500.02235174447,-187500.02235174447,-187500.02235174447,-187500.02235174447,-187500.02235174447,1731450666.2808878,1731450665.2672524,2000
-19452.54438549809,-157344.6804099894,-12565.524883928882,-187500.02235174447,-187500.02235174447,-187500.02235174447,-187500.02235174447,-187500.02235174447,1731450666.2837615,1731450665.2672524,2000
-19443.335466782508,-157382.36545114106,-12548.269337209384,-187500.02235174447,-187500.02235174447,-187500.02235174447,-187500.02235174447,-187500.02235174447,1731450666.28789,1731450665.2672524,2000
-19364.344401877453,-157445.12914957156,-12497.195601129008,-187500.02235174447,-187500.02235174447,-187500.02235174447,-187500.02235174447,-187500.02235174447,1731450666.2918243,1731450665.2672524,2000
-19375.587329338472,-157491.7772402498,-12526.968124743478,-187500.02235174447,-187500.02235174447,-187500.02235174447,-187500.02235174447,-187500.02235174447,1731450666.2958336,1731450665.2672524,2000
-19457.640583233904,-157472.30887082923,-12584.948549860545,-187500.02235174447,-187500.02235174447,-187500.02235174447,-187500.02235174447,-187500.02235174447,1731450666.3000066,1731450665.2672524,2000
-19564.951308363838,-157466.63152773757,-12527.86219452169,-187500.02235174447,-187500.02235174447,-187500.02235174447,-187500.02235174447,-187500.02235174447,1731450666.303969,1731450665.2672524,2000
-19549.372142478485,-157502.50607758833,-12496.65915926208,-187500.02235174447,-187500.02235174447,-187500.02235174447,-187500.02235174447,-187500.02235174447,1731450666.3090372,1731450665.2672524,2000
-19510.01072049269,-157472.97942316288,-12495.675682506047,-187500.02235174447,-187500.02235174447,-187500.02235174447,-187500.02235174447,-187500.02235174447,1731450666.3118637,1731450665.2672524,2000
-19470.93987118481,-157517.14647020656,-12582.48985797046,-187500.02235174447,-187500.02235174447,-187500.02235174447,-187500.02235174447,-187500.02235174447,1731450666.3160276,1731450665.2672524,2000
-19535.44700568283,-157541.5322234073,-12639.665620287136,-187500.02235174447,-187500.02235174447,-187500.02235174447,-187500.02235174447,-187500.02235174447,1731450666.320884,1731450665.2672524,2000
-19543.784206364657,-157538.04535127227,-12497.128545895644,-187500.02235174447,-187500.02235174447,-187500.02235174447,-187500.02235174447,-187500.02235174447,1731450666.3239636,1731450665.2672524,2000
-19462.781484458625,-157539.5876216397,-12425.871184572125,-187500.02235174447,-187500.02235174447,-187500.02235174447,-187500.02235174447,-187500.02235174447,1731450666.3278172,1731450665.2672524,2000
-19507.462621624785,-157532.72563609193,-12485.57269401225,-187500.02235174447,-187500.02235174447,-187500.02235174447,-187500.02235174447,-187500.02235174447,1731450666.3340287,1731450665.2672524,2000
-19532.094244014534,-157551.56815666775,-12519.837918262234,-187500.02235174447,-187500.02235174447,-187500.02235174447,-187500.02235174447,-187500.02235174447,1731450666.336844,1731450665.2672524,2000
-19492.33049062854,-157589.00732863037,-12529.359761400196,-187500.02235174447,-187500.02235174447,-187500.02235174447,-187500.02235174447,-187500.02235174447,1731450666.3410623,1731450665.2672524,2000
-19448.72223719624,-157612.2531428639,-12480.0965166207,-187500.02235174447,-187500.02235174447,-187500.02235174447,-187500.02235174447,-187500.02235174447,1731450666.3439667,1731450665.2672524,2000
-19376.36964039441,-157538.47003441694,-12490.445374303506,-187500.02235174447,-187500.02235174447,-187500.02235174447,-187500.02235174447,-187500.02235174447,1731450666.3479657,1731450665.2672524,2000
-19304.68759592624,-157591.01898563135,-12534.120682969176,-187500.02235174447,-187500.02235174447,-187500.02235174447,-187500.02235174447,-187500.02235174447,1731450666.351931,1731450665.2672524,2000
-19473.68913575281,-157680.02363205238,-12553.589052389749,-187500.02235174447,-187500.02235174447,-187500.02235174447,-187500.02235174447,-187500.02235174447,1731450666.3560665,1731450665.2672524,2000
-19466.223653104746,-157668.28896621335,-12516.462804849483,-187500.02235174447,-187500.02235174447,-187500.02235174447,-187500.02235174447,-187500.02235174447,1731450666.3600693,1731450665.2672524,2000
-19493.82805750705,-157593.0976978657,-12532.645467835126,-187500.02235174447,-187500.02235174447,-187500.02235174447,-187500.02235174447,-187500.02235174447,1731450666.364028,1731450665.2672524,2000
-19538.35273246202,-157617.5058028109,-12542.18966271754,-187500.02235174447,-187500.02235174447,-187500.02235174447,-187500.02235174447,-187500.02235174447,1731450666.366964,1731450665.2672524,2000
-19428.18098404181,-157650.85460553822,-12524.844709020224,-187500.02235174447,-187500.02235174447,-187500.02235174447,-187500.02235174447,-187500.02235174447,1731450666.37098,1731450665.2672524,2000
-19255.33494416892,-157665.76321908992,-12466.014917613857,-187500.02235174447,-187500.02235174447,-187500.02235174447,-187500.02235174447,-187500.02235174447,1731450666.3760116,1731450665.2672524,2000
-19410.41134719984,-157650.13934971564,-12472.47457176144,-187500.02235174447,-187500.02235174447,-187500.02235174447,-187500.02235174447,-187500.02235174447,1731450666.3799803,1731450665.2672524,2000
-19594.12033487801,-157690.30543450182,-12516.015769960375,-187500.02235174447,-187500.02235174447,-187500.02235174447,-187500.02235174447,-187500.02235174447,1731450666.3840053,1731450665.2672524,2000
-19602.9269221934,-157710.71257718952,-12504.594028543715,-187500.02235174447,-187500.02235174447,-187500.02235174447,-187500.02235174447,-187500.02235174447,1731450666.3880568,1731450665.2672524,2000
-19511.12830771545,-157804.14286901272,-12495.765089483868,-187500.02235174447,-187500.02235174447,-187500.02235174447,-187500.02235174447,-187500.02235174447,1731450666.392119,1731450665.2672524,2000
-19449.1916238298,-157813.1506220282,-12505.868077977668,-187500.02235174447,-187500.02235174447,-187500.02235174447,-187500.02235174447,-187500.02235174447,1731450666.3951445,1731450665.2672524,2000
-19470.13520838442,-157764.96026098257,-12533.114854468688,-187500.02235174447,-187500.02235174447,-187500.02235174447,-187500.02235174447,-187500.02235174447,1731450666.399172,1731450665.2672524,2000
-19489.268301638163,-157759.4393801021,-12543.597822618223,-187500.02235174447,-187500.02235174447,-187500.02235174447,-187500.02235174447,-187500.02235174447,1731450666.4039528,1731450665.2672524,2000
-19402.99056804068,-157876.92014895918,-12498.42494707405,-187500.02235174447,-187500.02235174447,-187500.02235174447,-187500.02235174447,-187500.02235174447,1731450666.4080727,1731450665.2672524,2000
-19426.2363822742,-157883.7597827625,-12510.964275713475,-187500.02235174447,-187500.02235174447,-187500.02235174447,-187500.02235174447,-187500.02235174447,1731450666.412086,1731450665.2672524,2000
-19527.355674190007,-157842.31964854238,-12535.841767292237,-187500.02235174447,-187500.02235174447,-187500.02235174447,-187500.02235174447,-187500.02235174447,1731450666.4161444,1731450665.2672524,2000
-19506.367386146478,-157857.87646268326,-12506.203354144496,-187500.02235174447,-187500.02235174447,-187500.02235174447,-187500.02235174447,-187500.02235174447,1731450666.4200191,1731450665.2672524,2000
-19434.30536202256,-157930.45257692965,-12481.258807332377,-187500.02235174447,-187500.02235174447,-187500.02235174447,-187500.02235174447,-187500.02235174447,1731450666.4230354,1731450665.2672524,2000
-19372.346326392453,-157899.8753905148,-12484.119830622654,-187500.02235174447,-187500.02235174447,-187500.02235174447,-187500.02235174447,-187500.02235174447,1731450666.4271564,1731450665.2672524,2000
-19446.28589705061,-157878.95415770463,-12511.187793158031,-187500.02235174447,-187500.02235174447,-187500.02235174447,-187500.02235174447,-187500.02235174447,1731450666.4322188,1731450665.2672524,2000
-19564.34781126354,-157873.03094542396,-12529.359761400196,-187500.02235174447,-187500.02235174447,-187500.02235174447,-187500.02235174447,-187500.02235174447,1731450666.4362051,1731450665.2672524,2000
-19529.635552124448,-157927.16687049472,-12540.021543505376,-187500.02235174447,-187500.02235174447,-187500.02235174447,-187500.02235174447,-187500.02235174447,1731450666.440308,1731450665.2672524,2000
-19430.46086197625,-157963.66726919025,-12504.772842499357,-187500.02235174447,-187500.02235174447,-187500.02235174447,-187500.02235174447,-187500.02235174447,1731450666.4441984,1731450665.2672524,2000
-19433.344237010984,-157926.00457978304,-12491.317092337262,-187500.02235174447,-187500.02235174447,-187500.02235174447,-187500.02235174447,-187500.02235174447,1731450666.448242,1731450665.2672524,2000
-19498.81249652058,-157893.95217823412,-12530.075017222764,-187500.02235174447,-187500.02235174447,-187500.02235174447,-187500.02235174447,-187500.02235174447,1731450666.4513352,1731450665.2672524,2000
-19453.080827365025,-158008.32605461194,-12565.971918817988,-187500.02235174447,-187500.02235174447,-187500.02235174447,-187500.02235174447,-187500.02235174447,1731450666.455248,1731450665.2672524,2000
-19454.15371109888,-158050.79436907702,-12465.679641447025,-187500.02235174447,-187500.02235174447,-187500.02235174447,-187500.02235174447,-187500.02235174447,1731450666.4602995,1731450665.2672524,2000
-19447.627001717927,-158009.06366217896,-12470.239397315909,-187500.02235174447,-187500.02235174447,-187500.02235174447,-187500.02235174447,-187500.02235174447,1731450666.464269,1731450665.2672524,2000
-19450.868004663946,-157960.76154241106,-12497.821449973757,-187500.02235174447,-187500.02235174447,-187500.02235174447,-187500.02235174447,-187500.02235174447,1731450666.4683008,1731450665.2672524,2000
-19480.37230734495,-158055.62234587938,-12512.975932714457,-187500.02235174447,-187500.02235174447,-187500.02235174447,-187500.02235174447,-187500.02235174447,1731450666.47133,1731450665.2672524,2000
-19369.84293101346,-158089.44053524025,-12476.98962414141,-187500.02235174447,-187500.02235174447,-187500.02235174447,-187500.02235174447,-187500.02235174447,1731450666.4753292,1731450665.2672524,2000
-19381.242320685666,-158040.98195326113,-12484.320996322753,-187500.02235174447,-187500.02235174447,-187500.02235174447,-187500.02235174447,-187500.02235174447,1731450666.4792695,1731450665.2672524,2000
-19534.61999113798,-158007.85666797837,-12530.298534667318,-187500.02235174447,-187500.02235174447,-187500.02235174447,-187500.02235174447,-187500.02235174447,1731450666.4832451,1731450665.2672524,2000
-19494.99034821872,-158050.63790686583,-12520.262601406885,-187500.02235174447,-187500.02235174447,-187500.02235174447,-187500.02235174447,-187500.02235174447,1731450666.4882383,1731450665.2672524,2000
-19441.27910629262,-158145.31989637853,-12481.03528988782,-187500.02235174447,-187500.02235174447,-187500.02235174447,-187500.02235174447,-187500.02235174447,1731450666.492584,1731450665.2672524,2000
-19438.686303935803,-158121.0235501556,-12478.733060208924,-187500.02235174447,-187500.02235174447,-187500.02235174447,-187500.02235174447,-187500.02235174447,1731450666.4964073,1731450665.2672524,2000
-19475.544330542605,-158074.46486645518,-12520.463767106983,-187500.02235174447,-187500.02235174447,-187500.02235174447,-187500.02235174447,-187500.02235174447,1731450666.4995296,1731450665.2672524,2000
-19481.646356778903,-158064.92067157276,-12535.461787636494,-187500.02235174447,-187500.02235174447,-187500.02235174447,-187500.02235174447,-187500.02235174447,1731450666.5034535,1731450665.2672524,2000
-19442.150824326374,-158146.88451849038,-12517.33452288324,-187500.02235174447,-187500.02235174447,-187500.02235174447,-187500.02235174447,-187500.02235174447,1731450666.5075357,1731450665.2672524,2000
-19393.75929758064,-158160.16145469685,-12503.94582795451,-187500.02235174447,-187500.02235174447,-187500.02235174447,-187500.02235174447,-187500.02235174447,1731450666.5114903,1731450665.2672524,2000
-19419.240286259686,-158080.14220954684,-12521.916630496578,-187500.02235174447,-187500.02235174447,-187500.02235174447,-187500.02235174447,-187500.02235174447,1731450666.5155177,1731450665.2672524,2000
-19477.980670688237,-158115.18974485277,-12522.833052019245,-187500.02235174447,-187500.02235174447,-187500.02235174447,-187500.02235174447,-187500.02235174447,1731450666.5201752,1731450665.2672524,2000
-19490.877627238944,-158177.01467001613,-12504.594028543715,-187500.02235174447,-187500.02235174447,-187500.02235174447,-187500.02235174447,-187500.02235174447,1731450666.5243373,1731450665.2672524,2000
-19401.336538950985,-158169.81740830152,-12487.159667868576,-187500.02235174447,-187500.02235174447,-187500.02235174447,-187500.02235174447,-187500.02235174447,1731450666.5274107,1731450665.2672524,2000
-19418.614437414937,-158148.11386443544,-12525.381150887151,-187500.02235174447,-187500.02235174447,-187500.02235174447,-187500.02235174447,-187500.02235174447,1731450666.5314455,1731450665.2672524,2000
-19457.171196600342,-158120.91179143332,-12557.746476858436,-187500.02235174447,-187500.02235174447,-187500.02235174447,-187500.02235174447,-187500.02235174447,1731450666.5355551,1731450665.2672524,2000
-19477.77950498813,-158190.5821789005,-12524.218860175475,-187500.02235174447,-187500.02235174447,-187500.02235174447,-187500.02235174447,-187500.02235174447,1731450666.5396357,1731450665.2672524,2000
-19432.047835832574,-158254.03878140912,-12479.247150331395,-187500.02235174447,-187500.02235174447,-187500.02235174447,-187500.02235174447,-187500.02235174447,1731450666.5433967,1731450665.2672524,2000
-19438.015751602143,-158218.81243214756,-12473.65921421757,-187500.02235174447,-187500.02235174447,-187500.02235174447,-187500.02235174447,-187500.02235174447,1731450666.5483704,1731450665.2672524,2000
-19485.557912058583,-158149.43261735828,-12503.610551787682,-187500.02235174447,-187500.02235174447,-187500.02235174447,-187500.02235174447,-187500.02235174447,1731450666.5522764,1731450665.2672524,2000
-19446.688228450803,-158235.26331606667,-12514.182926915042,-187500.02235174447,-187500.02235174447,-187500.02235174447,-187500.02235174447,-187500.02235174447,1731450666.5553763,1731450665.2672524,2000
-19425.297609007077,-158288.12519170347,-12500.034272674831,-187500.02235174447,-187500.02235174447,-187500.02235174447,-187500.02235174447,-187500.02235174447,1731450666.5594473,1731450665.2672524,2000
-19439.46861499174,-158256.2069006213,-12505.823374488757,-187500.02235174447,-187500.02235174447,-187500.02235174447,-187500.02235174447,-187500.02235174447,1731450666.5632305,1731450665.2672524,2000
-19467.073019394044,-158203.16621102885,-12523.637714819635,-187500.02235174447,-187500.02235174447,-187500.02235174447,-187500.02235174447,-187500.02235174447,1731450666.567397,1731450665.2672524,2000
-19465.061362393066,-158261.99600243522,-12502.627075031647,-187500.02235174447,-187500.02235174447,-187500.02235174447,-187500.02235174447,-187500.02235174447,1731450666.571402,1731450665.2672524,2000
-19373.12863744839,-158373.01711714471,-12488.18784811352,-187500.02235174447,-187500.02235174447,-187500.02235174447,-187500.02235174447,-187500.02235174447,1731450666.5764766,1731450665.2672524,2000
-19397.223817971208,-158345.54682320915,-12495.653330761592,-187500.02235174447,-187500.02235174447,-187500.02235174447,-187500.02235174447,-187500.02235174447,1731450666.5794942,1731450665.2672524,2000
-19495.213865663274,-158295.8812470295,-12486.28794983482,-187500.02235174447,-187500.02235174447,-187500.02235174447,-187500.02235174447,-187500.02235174447,1731450666.5834558,1731450665.2672524,2000
-19479.455885822284,-158279.11743868797,-12519.18971767303,-187500.02235174447,-187500.02235174447,-187500.02235174447,-187500.02235174447,-187500.02235174447,1731450666.5873156,1731450665.2672524,2000
-19431.42198698783,-158371.8771781775,-12492.591141771216,-187500.02235174447,-187500.02235174447,-187500.02235174447,-187500.02235174447,-187500.02235174447,1731450666.5914764,1731450665.2672524,2000
-19408.80202159906,-158359.31549779364,-12484.14218236711,-187500.02235174447,-187500.02235174447,-187500.02235174447,-187500.02235174447,-187500.02235174447,1731450666.5953147,1731450665.2672524,2000
-19439.625077202927,-158299.68104358687,-12504.102290165698,-187500.02235174447,-187500.02235174447,-187500.02235174447,-187500.02235174447,-187500.02235174447,1731450666.599413,1731450665.2672524,2000
-19461.88741468041,-158281.62083406697,-12526.789310787835,-187500.02235174447,-187500.02235174447,-187500.02235174447,-187500.02235174447,-187500.02235174447,1731450666.604542,1731450665.2672524,2000
-19436.764053912648,-158405.82947800512,-12504.258752376883,-187500.02235174447,-187500.02235174447,-187500.02235174447,-187500.02235174447,-187500.02235174447,1731450666.6074994,1731450665.2672524,2000
-19403.70582386325,-158445.2356034798,-12484.65627248958,-187500.02235174447,-187500.02235174447,-187500.02235174447,-187500.02235174447,-187500.02235174447,1731450666.6104722,1731450665.2672524,2000
-19431.757263154657,-158437.03251326474,-12500.414252330573,-187500.02235174447,-187500.02235174447,-187500.02235174447,-187500.02235174447,-187500.02235174447,1731450666.6155877,1731450665.2672524,2000
-19462.826187947536,-158434.08208299664,-12531.505528867903,-187500.02235174447,-187500.02235174447,-187500.02235174447,-187500.02235174447,-187500.02235174447,1731450666.6195776,1731450665.2672524,2000
-19437.41225450185,-158504.19950535294,-12519.815566517778,-187500.02235174447,-187500.02235174447,-187500.02235174447,-187500.02235174447,-187500.02235174447,1731450666.623432,1731450665.2672524,2000
-19386.919663777317,-158487.48040050035,-12507.276237878352,-187500.02235174447,-187500.02235174447,-187500.02235174447,-187500.02235174447,-187500.02235174447,1731450666.6275792,1731450665.2672524,2000
-19391.21119871273,-158363.51762575124,-12553.231424478465,-187500.02235174447,-187500.02235174447,-187500.02235174447,-187500.02235174447,-187500.02235174447,1731450666.6315017,1731450665.2672524,2000
-19491.637586550427,-158403.1919721594,-12542.994325517931,-187500.02235174447,-187500.02235174447,-187500.02235174447,-187500.02235174447,-187500.02235174447,1731450666.6355054,1731450665.2672524,2000
-19452.54438549809,-158502.63488324106,-12509.131432668142,-187500.02235174447,-187500.02235174447,-187500.02235174447,-187500.02235174447,-187500.02235174447,1731450666.638441,1731450665.2672524,2000
-19406.54449540907,-158546.64546807355,-12481.079993376732,-187500.02235174447,-187500.02235174447,-187500.02235174447,-187500.02235174447,-187500.02235174447,1731450666.6435895,1731450665.2672524,2000
-19391.300605690554,-158498.58921749465,-12463.37741176813,-187500.02235174447,-187500.02235174447,-187500.02235174447,-187500.02235174447,-187500.02235174447,1731450666.6475632,1731450665.2672524,2000
-19448.677533707327,-158478.38324050704,-12504.99635994391,-187500.02235174447,-187500.02235174447,-187500.02235174447,-187500.02235174447,-187500.02235174447,1731450666.6514564,1731450665.2672524,2000
-19460.166330357355,-158495.59408373764,-12497.933208696031,-187500.02235174447,-187500.02235174447,-187500.02235174447,-187500.02235174447,-187500.02235174447,1731450666.6555707,1731450665.2672524,2000
-19430.729082909715,-158614.30419853976,-12476.319071807751,-187500.02235174447,-187500.02235174447,-187500.02235174447,-187500.02235174447,-187500.02235174447,1731450666.6596327,1731450665.2672524,2000
-19371.340497891964,-158611.6443409496,-12485.349176567695,-187500.02235174447,-187500.02235174447,-187500.02235174447,-187500.02235174447,-187500.02235174447,1731450666.6634228,1731450665.2672524,2000
-19415.46284144674,-158530.8651364881,-12512.417139103072,-187500.02235174447,-187500.02235174447,-187500.02235174447,-187500.02235174447,-187500.02235174447,1731450666.666544,1731450665.2672524,2000
-19479.545292800107,-158553.52980536578,-12515.99341821592,-187500.02235174447,-187500.02235174447,-187500.02235174447,-187500.02235174447,-187500.02235174447,1731450666.6704853,1731450665.2672524,2000
-19459.65224023488,-158631.24682083688,-12497.933208696031,-187500.02235174447,-187500.02235174447,-187500.02235174447,-187500.02235174447,-187500.02235174447,1731450666.6756625,1731450665.2672524,2000
-19423.80004212857,-158603.6871199235,-12486.019728901354,-187500.02235174447,-187500.02235174447,-187500.02235174447,-187500.02235174447,-187500.02235174447,1731450666.679518,1731450665.2672524,2000
-19438.61924870244,-158601.47429722242,-12529.315057911284,-187500.02235174447,-187500.02235174447,-187500.02235174447,-187500.02235174447,-187500.02235174447,1731450666.68358,1731450665.2672524,2000
-19469.03997290611,-158605.31879726873,-12561.926253071577,-187500.02235174447,-187500.02235174447,-187500.02235174447,-187500.02235174447,-187500.02235174447,1731450666.6866124,1731450665.2672524,2000
-19412.26654198963,-158640.36633257466,-12520.173194429064,-187500.02235174447,-187500.02235174447,-187500.02235174447,-187500.02235174447,-187500.02235174447,1731450666.6907,1731450665.2672524,2000
-19402.610588384938,-158585.4257447035,-12461.298699533783,-187500.02235174447,-187500.02235174447,-187500.02235174447,-187500.02235174447,-187500.02235174447,1731450666.6945837,1731450665.2672524,2000
-19433.612457944448,-158597.24981752038,-12479.694185220504,-187500.02235174447,-187500.02235174447,-187500.02235174447,-187500.02235174447,-187500.02235174447,1731450666.6996553,1731450665.2672524,2000
-19454.75720819917,-158658.35948686118,-12515.9040112381,-187500.02235174447,-187500.02235174447,-187500.02235174447,-187500.02235174447,-187500.02235174447,1731450666.7034867,1731450665.2672524,2000
-19426.169327040832,-158702.21360948248,-12512.350083869707,-187500.02235174447,-187500.02235174447,-187500.02235174447,-187500.02235174447,-187500.02235174447,1731450666.7077637,1731450665.2672524,2000
-19395.03334701459,-158745.48658674795,-12489.081917891732,-187500.02235174447,-187500.02235174447,-187500.02235174447,-187500.02235174447,-187500.02235174447,1731450666.7116897,1731450665.2672524,2000
-19415.284027491096,-158694.4575541565,-12502.42590933155,-187500.02235174447,-187500.02235174447,-187500.02235174447,-187500.02235174447,-187500.02235174447,1731450666.7146256,1731450665.2672524,2000
-19452.41027503136,-158647.51889080036,-12515.345217626718,-187500.02235174447,-187500.02235174447,-187500.02235174447,-187500.02235174447,-187500.02235174447,1731450666.7186427,1731450665.2672524,2000
-19454.310173310063,-158733.0590168308,-12495.94390343951,-187500.02235174447,-187500.02235174447,-187500.02235174447,-187500.02235174447,-187500.02235174447,1731450666.7227738,1731450665.2672524,2000
-19366.4231141118,-158760.61871774422,-12485.304473078784,-187500.02235174447,-187500.02235174447,-187500.02235174447,-187500.02235174447,-187500.02235174447,1731450666.7266855,1731450665.2672524,2000
-19410.27723673311,-158753.33204905177,-12497.24030461792,-187500.02235174447,-187500.02235174447,-187500.02235174447,-187500.02235174447,-187500.02235174447,1731450666.731665,1731450665.2672524,2000
-19474.44909506429,-158691.95415877752,-12515.94871472701,-187500.02235174447,-187500.02235174447,-187500.02235174447,-187500.02235174447,-187500.02235174447,1731450666.735738,1731450665.2672524,2000
-19437.45695799076,-158806.75271829998,-12501.107156408689,-187500.02235174447,-187500.02235174447,-187500.02235174447,-187500.02235174447,-187500.02235174447,1731450666.73964,1731450665.2672524,2000
-19397.380280182395,-158855.07718981235,-12485.975025412445,-187500.02235174447,-187500.02235174447,-187500.02235174447,-187500.02235174447,-187500.02235174447,1731450666.7426903,1731450665.2672524,2000
-19409.047890788068,-158800.226008919,-12495.563923783771,-187500.02235174447,-187500.02235174447,-187500.02235174447,-187500.02235174447,-187500.02235174447,1731450666.7465754,1731450665.2672524,2000
-19462.91559492536,-158800.6730438081,-12523.682418308546,-187500.02235174447,-187500.02235174447,-187500.02235174447,-187500.02235174447,-187500.02235174447,1731450666.750723,1731450665.2672524,2000
-19471.655127007383,-158769.09002889277,-12534.970049258478,-187500.02235174447,-187500.02235174447,-187500.02235174447,-187500.02235174447,-187500.02235174447,1731450666.754599,1731450665.2672524,2000
-19407.59502739847,-158795.8227152613,-12530.209127689495,-187500.02235174447,-187500.02235174447,-187500.02235174447,-187500.02235174447,-187500.02235174447,1731450666.7598765,1731450665.2672524,2000
-19350.93335520427,-158825.21525922004,-12474.933263651525,-187500.02235174447,-187500.02235174447,-187500.02235174447,-187500.02235174447,-187500.02235174447,1731450666.763713,1731450665.2672524,2000
-19355.64957328434,-158790.3688896142,-12493.194638871508,-187500.02235174447,-187500.02235174447,-187500.02235174447,-187500.02235174447,-187500.02235174447,1731450666.7676413,1731450665.2672524,2000
-19465.62015600445,-158802.41647987562,-12509.243191390418,-187500.02235174447,-187500.02235174447,-187500.02235174447,-187500.02235174447,-187500.02235174447,1731450666.770825,1731450665.2672524,2000
-19440.45209174777,-158869.82934115283,-12484.209237600477,-187500.02235174447,-187500.02235174447,-187500.02235174447,-187500.02235174447,-187500.02235174447,1731450666.7757409,1731450665.2672524,2000
-19386.78555331058,-158863.01205909398,-12482.979891655434,-187500.02235174447,-187500.02235174447,-187500.02235174447,-187500.02235174447,-187500.02235174447,1731450666.7797549,1731450665.2672524,2000
-19443.402522015876,-158791.4194216036,-12546.168273230584,-187500.02235174447,-187500.02235174447,-187500.02235174447,-187500.02235174447,-187500.02235174447,1731450666.782666,1731450665.2672524,2000
-19486.407278347884,-158848.08109379784,-12552.7620378449,-187500.02235174447,-187500.02235174447,-187500.02235174447,-187500.02235174447,-187500.02235174447,1731450666.7876897,1731450665.2672524,2000
-19445.078902850026,-158921.37246386678,-12453.162664552054,-187500.02235174447,-187500.02235174447,-187500.02235174447,-187500.02235174447,-187500.02235174447,1731450666.7920592,1731450665.2672524,2000
-19376.034364227577,-158945.73586532305,-12449.60873718366,-187500.02235174447,-187500.02235174447,-187500.02235174447,-187500.02235174447,-187500.02235174447,1731450666.7947652,1731450665.2672524,2000
-19399.54839939456,-158933.97884773958,-12483.71749922246,-187500.02235174447,-187500.02235174447,-187500.02235174447,-187500.02235174447,-187500.02235174447,1731450666.798766,1731450665.2672524,2000
-19450.13039709692,-158890.63881524073,-12511.746586769414,-187500.02235174447,-187500.02235174447,-187500.02235174447,-187500.02235174447,-187500.02235174447,1731450666.8027391,1731450665.2672524,2000
-19438.59689695798,-158916.4103765977,-12494.37928132764,-187500.02235174447,-187500.02235174447,-187500.02235174447,-187500.02235174447,-187500.02235174447,1731450666.8068695,1731450665.2672524,2000
-19403.16938199632,-158972.17797901368,-12465.634937958115,-187500.02235174447,-187500.02235174447,-187500.02235174447,-187500.02235174447,-187500.02235174447,1731450666.8109212,1731450665.2672524,2000
-19410.858382088947,-158935.63287682927,-12487.159667868576,-187500.02235174447,-187500.02235174447,-187500.02235174447,-187500.02235174447,-187500.02235174447,1731450666.8150532,1731450665.2672524,2000
-19432.293705021584,-158902.75346073552,-12524.889412509134,-187500.02235174447,-187500.02235174447,-187500.02235174447,-187500.02235174447,-187500.02235174447,1731450666.8197863,1731450665.2672524,2000
-19424.89527760688,-158987.6230344323,-12515.43462460454,-187500.02235174447,-187500.02235174447,-187500.02235174447,-187500.02235174447,-187500.02235174447,1731450666.8227005,1731450665.2672524,2000
-19380.79528579656,-159048.46448283966,-12484.65627248958,-187500.02235174447,-187500.02235174447,-187500.02235174447,-187500.02235174447,-187500.02235174447,1731450666.8267694,1731450665.2672524,2000
-19386.2267596992,-159045.60345954937,-12495.340406339215,-187500.02235174447,-187500.02235174447,-187500.02235174447,-187500.02235174447,-187500.02235174447,1731450666.8309293,1731450665.2672524,2000
-19437.546364968584,-159000.16236307172,-12528.041008477332,-187500.02235174447,-187500.02235174447,-187500.02235174447,-187500.02235174447,-187500.02235174447,1731450666.8349729,1731450665.2672524,2000
-19425.20820202925,-159014.8921626678,-12507.276237878352,-187500.02235174447,-187500.02235174447,-187500.02235174447,-187500.02235174447,-187500.02235174447,1731450666.8389077,1731450665.2672524,2000
-19353.995544194644,-159127.92493437827,-12476.252016574386,-187500.02235174447,-187500.02235174447,-187500.02235174447,-187500.02235174447,-187500.02235174447,1731450666.8427625,1731450665.2672524,2000
-19363.78560826607,-159119.811251141,-12478.66600497556,-187500.02235174447,-187500.02235174447,-187500.02235174447,-187500.02235174447,-187500.02235174447,1731450666.848018,1731450665.2672524,2000
-19454.064304121053,-159095.6490153848,-12510.628999546649,-187500.02235174447,-187500.02235174447,-187500.02235174447,-187500.02235174447,-187500.02235174447,1731450666.8507996,1731450665.2672524,2000
-19402.00709128465,-159112.23400977065,-12510.42783384655,-187500.02235174447,-187500.02235174447,-187500.02235174447,-187500.02235174447,-187500.02235174447,1731450666.8548825,1731450665.2672524,2000
-19355.493111073152,-159147.1697863543,-12455.084914575207,-187500.02235174447,-187500.02235174447,-187500.02235174447,-187500.02235174447,-187500.02235174447,1731450666.858976,1731450665.2672524,2000
-19412.445355945278,-159152.2659840901,-12456.26955703134,-187500.02235174447,-187500.02235174447,-187500.02235174447,-187500.02235174447,-187500.02235174447,1731450666.862904,1731450665.2672524,2000
-19465.50839728217,-159112.32341674846,-12505.063415177276,-187500.02235174447,-187500.02235174447,-187500.02235174447,-187500.02235174447,-187500.02235174447,1731450666.867349,1731450665.2672524,2000
-19495.7503075302,-159124.63922794335,-12528.24217417743,-187500.02235174447,-187500.02235174447,-187500.02235174447,-187500.02235174447,-187500.02235174447,1731450666.8709407,1731450665.2672524,2000
-19422.10130954997,-159233.9169065853,-12508.99732220141,-187500.02235174447,-187500.02235174447,-187500.02235174447,-187500.02235174447,-187500.02235174447,1731450666.8759882,1731450665.2672524,2000
-19364.00912571062,-159213.30859819753,-12468.495961248394,-187500.02235174447,-187500.02235174447,-187500.02235174447,-187500.02235174447,-187500.02235174447,1731450666.878858,1731450665.2672524,2000
-19398.18494298279,-159163.68772550675,-12468.294795548296,-187500.02235174447,-187500.02235174447,-187500.02235174447,-187500.02235174447,-187500.02235174447,1731450666.8828218,1731450665.2672524,2000
-19430.70673116526,-159141.6042019849,-12497.7990982293,-187500.02235174447,-187500.02235174447,-187500.02235174447,-187500.02235174447,-187500.02235174447,1731450666.8868887,1731450665.2672524,2000
-19377.867207272917,-159184.87717925038,-12488.679586491537,-187500.02235174447,-187500.02235174447,-187500.02235174447,-187500.02235174447,-187500.02235174447,1731450666.8910255,1731450665.2672524,2000
-19385.131524220888,-159219.56708664502,-12468.630071715126,-187500.02235174447,-187500.02235174447,-187500.02235174447,-187500.02235174447,-187500.02235174447,1731450666.8950193,1731450665.2672524,2000
-19400.64363487287,-159214.40383367584,-12488.0984411357,-187500.02235174447,-187500.02235174447,-187500.02235174447,-187500.02235174447,-187500.02235174447,1731450666.898909,1731450665.2672524,2000
-19440.27327779213,-159207.5194963836,-12521.491947351928,-187500.02235174447,-187500.02235174447,-187500.02235174447,-187500.02235174447,-187500.02235174447,1731450666.9028263,1731450665.2672524,2000
-19415.708710635747,-159229.80418560555,-12493.149935382598,-187500.02235174447,-187500.02235174447,-187500.02235174447,-187500.02235174447,-187500.02235174447,1731450666.9060426,1731450665.2672524,2000
-19361.25986114262,-159309.93518947784,-12475.38029854063,-187500.02235174447,-187500.02235174447,-187500.02235174447,-187500.02235174447,-187500.02235174447,1731450666.9110148,1731450665.2672524,2000
-19388.61839635592,-159275.55820650558,-12499.453127318997,-187500.02235174447,-187500.02235174447,-187500.02235174447,-187500.02235174447,-187500.02235174447,1731450666.9149125,1731450665.2672524,2000
-19457.886452422918,-159212.66039760833,-12504.839897732723,-187500.02235174447,-187500.02235174447,-187500.02235174447,-187500.02235174447,-187500.02235174447,1731450666.91896,1731450665.2672524,2000
-19426.70576890776,-159299.02753818364,-12484.879789934132,-187500.02235174447,-187500.02235174447,-187500.02235174447,-187500.02235174447,-187500.02235174447,1731450666.92294,1731450665.2672524,2000
-19361.93041347628,-159361.3218499806,-12459.33174602172,-187500.02235174447,-187500.02235174447,-187500.02235174447,-187500.02235174447,-187500.02235174447,1731450666.9268804,1731450665.2672524,2000
-19365.193768166755,-159331.6610850884,-12471.267577560851,-187500.02235174447,-187500.02235174447,-187500.02235174447,-187500.02235174447,-187500.02235174447,1731450666.930022,1731450665.2672524,2000
-19401.76122209564,-159257.22977605223,-12503.364682598673,-187500.02235174447,-187500.02235174447,-187500.02235174447,-187500.02235174447,-187500.02235174447,1731450666.93408,1731450665.2672524,2000
-19428.963295097747,-159327.39190189744,-12519.48029035095,-187500.02235174447,-187500.02235174447,-187500.02235174447,-187500.02235174447,-187500.02235174447,1731450666.9380004,1731450665.2672524,2000
-19380.102381718443,-159410.76390871571,-12468.764182181858,-187500.02235174447,-187500.02235174447,-187500.02235174447,-187500.02235174447,-187500.02235174447,1731450666.9430523,1731450665.2672524,2000
-19380.05767822953,-159399.20805683234,-12441.65151615757,-187500.02235174447,-187500.02235174447,-187500.02235174447,-187500.02235174447,-187500.02235174447,1731450666.947091,1731450665.2672524,2000
-19434.75239691167,-159319.16645993787,-12508.86321173468,-187500.02235174447,-187500.02235174447,-187500.02235174447,-187500.02235174447,-187500.02235174447,1731450666.9510796,1731450665.2672524,2000
-19464.94960367079,-159374.79995188714,-12533.941869013534,-187500.02235174447,-187500.02235174447,-187500.02235174447,-187500.02235174447,-187500.02235174447,1731450666.9550576,1731450665.2672524,2000
-19428.40450148636,-159412.90967618342,-12512.260676891883,-187500.02235174447,-187500.02235174447,-187500.02235174447,-187500.02235174447,-187500.02235174447,1731450666.9581,1731450665.2672524,2000
-19318.053939110512,-159395.117687597,-12438.499920189372,-187500.02235174447,-187500.02235174447,-187500.02235174447,-187500.02235174447,-187500.02235174447,1731450666.9619925,1731450665.2672524,2000
-19373.240396170662,-159324.1508989514,-12470.060583360266,-187500.02235174447,-187500.02235174447,-187500.02235174447,-187500.02235174447,-187500.02235174447,1731450666.966117,1731450665.2672524,2000
-19399.21312322773,-159385.52878922567,-12502.76118549838,-187500.02235174447,-187500.02235174447,-187500.02235174447,-187500.02235174447,-187500.02235174447,1731450666.9710865,1731450665.2672524,2000
-19350.39691333734,-159484.7481828628,-12472.027536872332,-187500.02235174447,-187500.02235174447,-187500.02235174447,-187500.02235174447,-187500.02235174447,1731450666.9751165,1731450665.2672524,2000
-19337.567012019997,-159498.0921743026,-12467.51248449236,-187500.02235174447,-187500.02235174447,-187500.02235174447,-187500.02235174447,-187500.02235174447,1731450666.97912,1731450665.2672524,2000
-19416.89335309188,-159416.46360355182,-12460.89636813359,-187500.02235174447,-187500.02235174447,-187500.02235174447,-187500.02235174447,-187500.02235174447,1731450666.9830654,1731450665.2672524,2000
-19445.816510417048,-159398.2245800763,-12457.364792509652,-187500.02235174447,-187500.02235174447,-187500.02235174447,-187500.02235174447,-187500.02235174447,1731450666.9861343,1731450665.2672524,2000
-19398.60962612744,-159502.4284127269,-12455.0402110863,-187500.02235174447,-187500.02235174447,-187500.02235174447,-187500.02235174447,-187500.02235174447,1731450666.9901166,1731450665.2672524,2000
-19370.245262413653,-159532.08917761914,-12451.0392488288,-187500.02235174447,-187500.02235174447,-187500.02235174447,-187500.02235174447,-187500.02235174447,1731450666.994197,1731450665.2672524,2000
-19361.237509398165,-159470.8453978116,-12482.354042810684,-187500.02235174447,-187500.02235174447,-187500.02235174447,-187500.02235174447,-187500.02235174447,1731450666.9991708,1731450665.2672524,2000
-19410.858382088947,-159482.02127003926,-12518.228592661451,-187500.02235174447,-187500.02235174447,-187500.02235174447,-187500.02235174447,-187500.02235174447,1731450667.0029263,1731450665.2672524,2000
-19446.71058019526,-159535.91132592098,-12482.979891655434,-187500.02235174447,-187500.02235174447,-187500.02235174447,-187500.02235174447,-187500.02235174447,1731450667.007166,1731450665.2672524,2000
-19352.1179976604,-159523.88608740404,-12433.02374279782,-187500.02235174447,-187500.02235174447,-187500.02235174447,-187500.02235174447,-187500.02235174447,1731450667.0101824,1731450665.2672524,2000
-19380.236492185177,-159488.36916546454,-12470.12763859363,-187500.02235174447,-187500.02235174447,-187500.02235174447,-187500.02235174447,-187500.02235174447,1731450667.014276,1731450665.2672524,2000
-19424.24707701768,-159439.77647301872,-12498.201429629496,-187500.02235174447,-187500.02235174447,-187500.02235174447,-187500.02235174447,-187500.02235174447,1731450667.0182452,1731450665.2672524,2000
-19373.68743105977,-159531.39627354103,-12503.364682598673,-187500.02235174447,-187500.02235174447,-187500.02235174447,-187500.02235174447,-187500.02235174447,1731450667.022395,1731450665.2672524,2000
-19335.68946548575,-159590.47193413638,-12472.698089205993,-187500.02235174447,-187500.02235174447,-187500.02235174447,-187500.02235174447,-187500.02235174447,1731450667.026238,1731450665.2672524,2000
-19363.852663499438,-159554.17270114098,-12434.27544048732,-187500.02235174447,-187500.02235174447,-187500.02235174447,-187500.02235174447,-187500.02235174447,1731450667.0311708,1731450665.2672524,2000
-19414.255847246157,-159526.09891010512,-12470.529969993828,-187500.02235174447,-187500.02235174447,-187500.02235174447,-187500.02235174447,-187500.02235174447,1731450667.0350392,1731450665.2672524,2000
-19408.26557973213,-159567.13671292504,-12469.054754859775,-187500.02235174447,-187500.02235174447,-187500.02235174447,-187500.02235174447,-187500.02235174447,1731450667.038188,1731450665.2672524,2000
-19352.386218593863,-159624.3795304751,-12463.623280957136,-187500.02235174447,-187500.02235174447,-187500.02235174447,-187500.02235174447,-187500.02235174447,1731450667.0421455,1731450665.2672524,2000
-19342.618506266896,-159606.54283839976,-12458.75060066588,-187500.02235174447,-187500.02235174447,-187500.02235174447,-187500.02235174447,-187500.02235174447,1731450667.0461898,1731450665.2672524,2000
-19392.39584116886,-159534.48081427586,-12486.958502168478,-187500.02235174447,-187500.02235174447,-187500.02235174447,-187500.02235174447,-187500.02235174447,1731450667.0501208,1731450665.2672524,2000
-19402.2306087292,-159611.99666404686,-12483.784554455824,-187500.02235174447,-187500.02235174447,-187500.02235174447,-187500.02235174447,-187500.02235174447,1731450667.0540974,1731450665.2672524,2000
-19352.855605227425,-159675.29680434428,-12453.922623863537,-187500.02235174447,-187500.02235174447,-187500.02235174447,-187500.02235174447,-187500.02235174447,1731450667.0590985,1731450665.2672524,2000
-19318.2104013217,-159667.02665889583,-12463.37741176813,-187500.02235174447,-187500.02235174447,-187500.02235174447,-187500.02235174447,-187500.02235174447,1731450667.0630057,1731450665.2672524,2000
-19365.84196875596,-159606.9228180555,-12522.542479341326,-187500.02235174447,-187500.02235174447,-187500.02235174447,-187500.02235174447,-187500.02235174447,1731450667.0661852,1731450665.2672524,2000
-19450.0409901191,-159596.84218130616,-12483.829257944735,-187500.02235174447,-187500.02235174447,-187500.02235174447,-187500.02235174447,-187500.02235174447,1731450667.070105,1731450665.2672524,2000
-19391.16649522382,-159706.209266926,-12436.890594588587,-187500.02235174447,-187500.02235174447,-187500.02235174447,-187500.02235174447,-187500.02235174447,1731450667.0742335,1731450665.2672524,2000
-19358.197672152244,-159762.37920074217,-12443.12673129162,-187500.02235174447,-187500.02235174447,-187500.02235174447,-187500.02235174447,-187500.02235174447,1731450667.0782812,1731450665.2672524,2000
-19376.324936905497,-159712.02072048435,-12429.55922240725,-187500.02235174447,-187500.02235174447,-187500.02235174447,-187500.02235174447,-187500.02235174447,1731450667.0821877,1731450665.2672524,2000
-19438.306324280064,-159671.96639442045,-12471.736964194411,-187500.02235174447,-187500.02235174447,-187500.02235174447,-187500.02235174447,-187500.02235174447,1731450667.0872748,1731450665.2672524,2000
-19347.848814469435,-159738.08285451925,-12450.122827306132,-187500.02235174447,-187500.02235174447,-187500.02235174447,-187500.02235174447,-187500.02235174447,1731450667.091385,1731450665.2672524,2000
-19252.60803134537,-159783.6133579747,-12446.434789471006,-187500.02235174447,-187500.02235174447,-187500.02235174447,-187500.02235174447,-187500.02235174447,1731450667.0942135,1731450665.2672524,2000
-19354.39787559484,-159752.6561919041,-12461.23164430042,-187500.02235174447,-187500.02235174447,-187500.02235174447,-187500.02235174447,-187500.02235174447,1731450667.098334,1731450665.2672524,2000
-19444.43070226082,-159711.3501681507,-12467.601891470182,-187500.02235174447,-187500.02235174447,-187500.02235174447,-187500.02235174447,-187500.02235174447,1731450667.1023896,1731450665.2672524,2000
-19393.736945836183,-159817.69976826906,-12457.722420420936,-187500.02235174447,-187500.02235174447,-187500.02235174447,-187500.02235174447,-187500.02235174447,1731450667.1061757,1731450665.2672524,2000
-19346.753578991127,-159864.16904499164,-12445.831292370713,-187500.02235174447,-187500.02235174447,-187500.02235174447,-187500.02235174447,-187500.02235174447,1731450667.1102755,1731450665.2672524,2000
-19386.182056210288,-159817.69976826906,-12482.152877110586,-187500.02235174447,-187500.02235174447,-187500.02235174447,-187500.02235174447,-187500.02235174447,1731450667.1152687,1731450665.2672524,2000
-19414.255847246157,-159798.27610233738,-12493.105231893687,-187500.02235174447,-187500.02235174447,-187500.02235174447,-187500.02235174447,-187500.02235174447,1731450667.1182947,1731450665.2672524,2000
-19370.44642811375,-159810.4130995766,-12440.913908590544,-187500.02235174447,-187500.02235174447,-187500.02235174447,-187500.02235174447,-187500.02235174447,1731450667.122465,1731450665.2672524,2000
-19337.946991675733,-159861.10685600125,-12438.052885300263,-187500.02235174447,-187500.02235174447,-187500.02235174447,-187500.02235174447,-187500.02235174447,1731450667.1263573,1731450665.2672524,2000
-19327.531078759563,-159873.75794336296,-12439.662210901048,-187500.02235174447,-187500.02235174447,-187500.02235174447,-187500.02235174447,-187500.02235174447,1731450667.1302154,1731450665.2672524,2000
-19372.949823492745,-159817.0739194243,-12467.490132747906,-187500.02235174447,-187500.02235174447,-187500.02235174447,-187500.02235174447,-187500.02235174447,1731450667.1343164,1731450665.2672524,2000
-19368.88180600188,-159807.32855884178,-12459.667022188549,-187500.02235174447,-187500.02235174447,-187500.02235174447,-187500.02235174447,-187500.02235174447,1731450667.1382103,1731450665.2672524,2000
-19349.614602281406,-159914.63928397172,-12448.804074383268,-187500.02235174447,-187500.02235174447,-187500.02235174447,-187500.02235174447,-187500.02235174447,1731450667.143253,1731450665.2672524,2000
-19336.69529398624,-159897.47314423005,-12442.031495813311,-187500.02235174447,-187500.02235174447,-187500.02235174447,-187500.02235174447,-187500.02235174447,1731450667.1461847,1731450665.2672524,2000
-19369.574710079996,-159892.82398138332,-12466.350193780683,-187500.02235174447,-187500.02235174447,-187500.02235174447,-187500.02235174447,-187500.02235174447,1731450667.1494048,1731450665.2672524,2000
-19396.709727848734,-159902.234065799,-12477.682528219526,-187500.02235174447,-187500.02235174447,-187500.02235174447,-187500.02235174447,-187500.02235174447,1731450667.154312,1731450665.2672524,2000
-19349.03345692557,-159980.19695045913,-12475.0450223738,-187500.02235174447,-187500.02235174447,-187500.02235174447,-187500.02235174447,-187500.02235174447,1731450667.158317,1731450665.2672524,2000
-19339.243392854143,-159994.32325295487,-12479.940054409512,-187500.02235174447,-187500.02235174447,-187500.02235174447,-187500.02235174447,-187500.02235174447,1731450667.162244,1731450665.2672524,2000
-19405.069280275024,-159909.0960513468,-12485.393880056608,-187500.02235174447,-187500.02235174447,-187500.02235174447,-187500.02235174447,-187500.02235174447,1731450667.1663032,1731450665.2672524,2000
-19398.766088338627,-159942.95894419658,-12461.790437911804,-187500.02235174447,-187500.02235174447,-187500.02235174447,-187500.02235174447,-187500.02235174447,1731450667.1712923,1731450665.2672524,2000
-19345.30071560153,-159989.89760755273,-12459.46585648845,-187500.02235174447,-187500.02235174447,-187500.02235174447,-187500.02235174447,-187500.02235174447,1731450667.1743522,1731450665.2672524,2000
-19289.28724399653,-159971.34565965482,-12426.832309583702,-187500.02235174447,-187500.02235174447,-187500.02235174447,-187500.02235174447,-187500.02235174447,1731450667.1772127,1731450665.2672524,2000
-19306.319273271474,-159933.92883943664,-12403.675902328005,-187500.02235174447,-187500.02235174447,-187500.02235174447,-187500.02235174447,-187500.02235174447,1731450667.182572,1731450665.2672524,2000
-19431.869021876933,-159915.37689153873,-12477.280196819327,-187500.02235174447,-187500.02235174447,-187500.02235174447,-187500.02235174447,-187500.02235174447,1731450667.1863585,1731450665.2672524,2000
-19512.42470889386,-160009.79066011796,-12589.01656735141,-187500.02235174447,-187500.02235174447,-187500.02235174447,-187500.02235174447,-187500.02235174447,1731450667.1903636,1731450665.2672524,2000
-19394.40749816984,-160003.97920655957,-12497.24030461792,-187500.02235174447,-187500.02235174447,-187500.02235174447,-187500.02235174447,-187500.02235174447,1731450667.194498,1731450665.2672524,2000
-19239.35344688337,-159946.8481477318,-12317.934610597444,-187500.02235174447,-187500.02235174447,-187500.02235174447,-187500.02235174447,-187500.02235174447,1731450667.198338,1731450665.2672524,2000
-19347.46883481369,-159949.68681927765,-12413.421262910517,-187500.02235174447,-187500.02235174447,-187500.02235174447,-187500.02235174447,-187500.02235174447,1731450667.202443,1731450665.2672524,2000
-19367.65246005684,-160039.5184802435,-12418.74097809088,-187500.02235174447,-187500.02235174447,-187500.02235174447,-187500.02235174447,-187500.02235174447,1731450667.2054546,1731450665.2672524,2000
-19313.44947975272,-160070.25212886956,-12416.93048679,-187500.02235174447,-187500.02235174447,-187500.02235174447,-187500.02235174447,-187500.02235174447,1731450667.2103884,1731450665.2672524,2000
-19325.3629595474,-160028.78964290497,-12431.526175919316,-187500.02235174447,-187500.02235174447,-187500.02235174447,-187500.02235174447,-187500.02235174447,1731450667.2144282,1731450665.2672524,2000
-19393.245207458163,-160000.29116872445,-12488.880752191631,-187500.02235174447,-187500.02235174447,-187500.02235174447,-187500.02235174447,-187500.02235174447,1731450667.2184515,1731450665.2672524,2000
-19400.084841261487,-160085.92070173274,-12478.37543229764,-187500.02235174447,-187500.02235174447,-187500.02235174447,-187500.02235174447,-187500.02235174447,1731450667.2225385,1731450665.2672524,2000
-19320.512631000594,-160150.22667053065,-12414.31533268873,-187500.02235174447,-187500.02235174447,-187500.02235174447,-187500.02235174447,-187500.02235174447,1731450667.2254677,1731450665.2672524,2000
-19301.71481391368,-160137.82145235795,-12400.770175548814,-187500.02235174447,-187500.02235174447,-187500.02235174447,-187500.02235174447,-187500.02235174447,1731450667.2292917,1731450665.2672524,2000
-19364.52321583309,-160058.51746303053,-12447.284155760308,-187500.02235174447,-187500.02235174447,-187500.02235174447,-187500.02235174447,-187500.02235174447,1731450667.2333555,1731450665.2672524,2000
-19380.907044518837,-160064.86535845583,-12469.054754859775,-187500.02235174447,-187500.02235174447,-187500.02235174447,-187500.02235174447,-187500.02235174447,1731450667.2374227,1731450665.2672524,2000
-19333.230773595664,-160163.7047724372,-12431.012085796843,-187500.02235174447,-187500.02235174447,-187500.02235174447,-187500.02235174447,-187500.02235174447,1731450667.2425888,1731450665.2672524,2000
-19299.211418534687,-160217.2148486632,-12420.283248458296,-187500.02235174447,-187500.02235174447,-187500.02235174447,-187500.02235174447,-187500.02235174447,1731450667.246355,1731450665.2672524,2000
-19355.62722153988,-160168.46569400618,-12453.430885485515,-187500.02235174447,-187500.02235174447,-187500.02235174447,-187500.02235174447,-187500.02235174447,1731450667.2505157,1731450665.2672524,2000
-19393.64753885836,-160108.20539095468,-12466.149028080588,-187500.02235174447,-187500.02235174447,-187500.02235174447,-187500.02235174447,-187500.02235174447,1731450667.254455,1731450665.2672524,2000
-19349.27932611457,-160196.3159675975,-12459.0411733438,-187500.02235174447,-187500.02235174447,-187500.02235174447,-187500.02235174447,-187500.02235174447,1731450667.257429,1731450665.2672524,2000
-19268.41071467528,-160235.5209273721,-12447.32885924922,-187500.02235174447,-187500.02235174447,-187500.02235174447,-187500.02235174447,-187500.02235174447,1731450667.2614627,1731450665.2672524,2000
-19313.44947975272,-160167.1022375944,-12411.677826843004,-187500.02235174447,-187500.02235174447,-187500.02235174447,-187500.02235174447,-187500.02235174447,1731450667.2664745,1731450665.2672524,2000
-19382.337556163973,-160140.79423437052,-12434.253088742864,-187500.02235174447,-187500.02235174447,-187500.02235174447,-187500.02235174447,-187500.02235174447,1731450667.2703896,1731450665.2672524,2000
-19334.63893349635,-160216.23137190717,-12428.665152629035,-187500.02235174447,-187500.02235174447,-187500.02235174447,-187500.02235174447,-187500.02235174447,1731450667.2744892,1731450665.2672524,2000
-19333.58840150695,-160283.84539888447,-12412.191916965476,-187500.02235174447,-187500.02235174447,-187500.02235174447,-187500.02235174447,-187500.02235174447,1731450667.278375,1731450665.2672524,2000
-19323.597171735422,-160252.8882328139,-12474.55328399578,-187500.02235174447,-187500.02235174447,-187500.02235174447,-187500.02235174447,-187500.02235174447,1731450667.2815208,1731450665.2672524,2000
-19339.310448087508,-160143.45409196068,-12465.165551324551,-187500.02235174447,-187500.02235174447,-187500.02235174447,-187500.02235174447,-187500.02235174447,1731450667.2854033,1731450665.2672524,2000
-19335.93533467476,-160219.42767136428,-12432.956687564456,-187500.02235174447,-187500.02235174447,-187500.02235174447,-187500.02235174447,-187500.02235174447,1731450667.2895184,1731450665.2672524,2000
-19303.16767730328,-160300.9891868817,-12371.668204268004,-187500.02235174447,-187500.02235174447,-187500.02235174447,-187500.02235174447,-187500.02235174447,1731450667.293496,1731450665.2672524,2000
-19364.45616059973,-160282.88427387289,-12430.78856835229,-187500.02235174447,-187500.02235174447,-187500.02235174447,-187500.02235174447,-187500.02235174447,1731450667.2985485,1731450665.2672524,2000
-19419.84378335998,-160208.20709564773,-12498.536705796329,-187500.02235174447,-187500.02235174447,-187500.02235174447,-187500.02235174447,-187500.02235174447,1731450667.3026996,1731450665.2672524,2000
-19343.289058600552,-160252.91058455833,-12425.804129338758,-187500.02235174447,-187500.02235174447,-187500.02235174447,-187500.02235174447,-187500.02235174447,1731450667.3065784,1731450665.2672524,2000
-19281.28531948153,-160318.37884406792,-12369.768305989302,-187500.02235174447,-187500.02235174447,-187500.02235174447,-187500.02235174447,-187500.02235174447,1731450667.3096328,1731450665.2672524,2000
-19289.980148074646,-160304.34194855,-12393.952893489944,-187500.02235174447,-187500.02235174447,-187500.02235174447,-187500.02235174447,-187500.02235174447,1731450667.313501,1731450665.2672524,2000
-19337.075273641974,-160246.85326181093,-12427.59226889518,-187500.02235174447,-187500.02235174447,-187500.02235174447,-187500.02235174447,-187500.02235174447,1731450667.3176491,1731450665.2672524,2000
-19351.514500560108,-160285.65589018536,-12451.307469762263,-187500.02235174447,-187500.02235174447,-187500.02235174447,-187500.02235174447,-187500.02235174447,1731450667.321473,1731450665.2672524,2000
-19320.06559611149,-160361.22713818875,-12423.747768848869,-187500.02235174447,-187500.02235174447,-187500.02235174447,-187500.02235174447,-187500.02235174447,1731450667.3265672,1731450665.2672524,2000
-19307.794488405525,-160363.03762948964,-12408.347416919163,-187500.02235174447,-187500.02235174447,-187500.02235174447,-187500.02235174447,-187500.02235174447,1731450667.3305166,1731450665.2672524,2000
-19325.09473861393,-160288.15928556435,-12430.721513118926,-187500.02235174447,-187500.02235174447,-187500.02235174447,-187500.02235174447,-187500.02235174447,1731450667.333547,1731450665.2672524,2000
-19361.46102684272,-160311.2933410756,-12430.900327074569,-187500.02235174447,-187500.02235174447,-187500.02235174447,-187500.02235174447,-187500.02235174447,1731450667.337504,1731450665.2672524,2000
-19337.29879108653,-160395.64882464992,-12418.249239712864,-187500.02235174447,-187500.02235174447,-187500.02235174447,-187500.02235174447,-187500.02235174447,1731450667.3416069,1731450665.2672524,2000
-19302.54182845853,-160384.42824893334,-12457.476551231928,-187500.02235174447,-187500.02235174447,-187500.02235174447,-187500.02235174447,-187500.02235174447,1731450667.3456104,1731450665.2672524,2000
-19304.86640988188,-160381.07548726507,-12462.081010589722,-187500.02235174447,-187500.02235174447,-187500.02235174447,-187500.02235174447,-187500.02235174447,1731450667.3496134,1731450665.2672524,2000
-19346.887689457857,-160405.10361255452,-12409.442652397473,-187500.02235174447,-187500.02235174447,-187500.02235174447,-187500.02235174447,-187500.02235174447,1731450667.3546033,1731450665.2672524,2000
-19332.26964858409,-160436.8207379366,-12376.563236303717,-187500.02235174447,-187500.02235174447,-187500.02235174447,-187500.02235174447,-187500.02235174447,1731450667.3586624,1731450665.2672524,2000
-19279.16190375828,-160356.2426991752,-12412.527193132306,-187500.02235174447,-187500.02235174447,-187500.02235174447,-187500.02235174447,-187500.02235174447,1731450667.3616805,1731450665.2672524,2000
-19297.24446502262,-160312.41092829837,-12473.681565962026,-187500.02235174447,-187500.02235174447,-187500.02235174447,-187500.02235174447,-187500.02235174447,1731450667.3656533,1731450665.2672524,2000
-19327.37461654837,-160362.3447254115,-12417.01989376782,-187500.02235174447,-187500.02235174447,-187500.02235174447,-187500.02235174447,-187500.02235174447,1731450667.3696754,1731450665.2672524,2000
-19343.42316906729,-160429.80229017764,-12376.138553159066,-187500.02235174447,-187500.02235174447,-187500.02235174447,-187500.02235174447,-187500.02235174447,1731450667.3735833,1731450665.2672524,2000
-19275.362107200875,-160468.47080808532,-12413.465966399428,-187500.02235174447,-187500.02235174447,-187500.02235174447,-187500.02235174447,-187500.02235174447,1731450667.3775597,1731450665.2672524,2000
-19329.140404360343,-160450.25413635423,-12454.481417474915,-187500.02235174447,-187500.02235174447,-187500.02235174447,-187500.02235174447,-187500.02235174447,1731450667.3817384,1731450665.2672524,2000
-19353.615564538904,-160360.55658585508,-12441.092722546187,-187500.02235174447,-187500.02235174447,-187500.02235174447,-187500.02235174447,-187500.02235174447,1731450667.386816,1731450665.2672524,2000
-19367.9206809903,-160463.5757760496,-12394.243466167864,-187500.02235174447,-187500.02235174447,-187500.02235174447,-187500.02235174447,-187500.02235174447,1731450667.389676,1731450665.2672524,2000
-19268.298955953,-160512.16846849542,-12345.24844232183,-187500.02235174447,-187500.02235174447,-187500.02235174447,-187500.02235174447,-187500.02235174447,1731450667.3937929,1731450665.2672524,2000
-19274.758610100584,-160518.71752962083,-12397.573876091705,-187500.02235174447,-187500.02235174447,-187500.02235174447,-187500.02235174447,-187500.02235174447,1731450667.3978815,1731450665.2672524,2000
-19335.35418931892,-160493.16948570844,-12422.630181626104,-187500.02235174447,-187500.02235174447,-187500.02235174447,-187500.02235174447,-187500.02235174447,1731450667.4018955,1731450665.2672524,2000
-19315.68465419825,-160470.8847964865,-12420.439710669483,-187500.02235174447,-187500.02235174447,-187500.02235174447,-187500.02235174447,-187500.02235174447,1731450667.4059558,1731450665.2672524,2000
-19279.76540085857,-160522.71849187833,-12395.495163857362,-187500.02235174447,-187500.02235174447,-187500.02235174447,-187500.02235174447,-187500.02235174447,1731450667.40997,1731450665.2672524,2000
-19312.376596018865,-160482.48535185878,-12408.928562275,-187500.02235174447,-187500.02235174447,-187500.02235174447,-187500.02235174447,-187500.02235174447,1731450667.414764,1731450665.2672524,2000
-19372.771009537104,-160449.36006657602,-12451.79920814028,-187500.02235174447,-187500.02235174447,-187500.02235174447,-187500.02235174447,-187500.02235174447,1731450667.417834,1731450665.2672524,2000
-19369.820579269,-160516.46000343087,-12443.46200745845,-187500.02235174447,-187500.02235174447,-187500.02235174447,-187500.02235174447,-187500.02235174447,1731450667.421596,1731450665.2672524,2000
-19248.070627220943,-160563.91275690947,-12390.488373099372,-187500.02235174447,-187500.02235174447,-187500.02235174447,-187500.02235174447,-187500.02235174447,1731450667.425781,1731450665.2672524,2000
-19257.056028491977,-160529.7369396373,-12351.261061580308,-187500.02235174447,-187500.02235174447,-187500.02235174447,-187500.02235174447,-187500.02235174447,1731450667.4296572,1731450665.2672524,2000
-19361.1704541648,-160493.50476187526,-12411.32019893172,-187500.02235174447,-187500.02235174447,-187500.02235174447,-187500.02235174447,-187500.02235174447,1731450667.4336612,1731450665.2672524,2000
-19372.27927115909,-160530.20632627085,-12492.9487696825,-187500.02235174447,-187500.02235174447,-187500.02235174447,-187500.02235174447,-187500.02235174447,1731450667.4377751,1731450665.2672524,2000
-19217.582847783902,-160590.1537049,-12407.967437263422,-187500.02235174447,-187500.02235174447,-187500.02235174447,-187500.02235174447,-187500.02235174447,1731450667.4417293,1731450665.2672524,2000
-19236.939458482204,-160627.59287686265,-12312.369026228074,-187500.02235174447,-187500.02235174447,-187500.02235174447,-187500.02235174447,-187500.02235174447,1731450667.4448323,1731450665.2672524,2000
-19309.82849715096,-160604.23530390684,-12363.643928008549,-187500.02235174447,-187500.02235174447,-187500.02235174447,-187500.02235174447,-187500.02235174447,1731450667.4487956,1731450665.2672524,2000
-19389.51246613413,-160531.32391349363,-12475.872036918645,-187500.02235174447,-187500.02235174447,-187500.02235174447,-187500.02235174447,-187500.02235174447,1731450667.4536548,1731450665.2672524,2000
-19319.842078666938,-160642.9708770479,-12450.569862195238,-187500.02235174447,-187500.02235174447,-187500.02235174447,-187500.02235174447,-187500.02235174447,1731450667.4577644,1731450665.2672524,2000
-19184.815190412428,-160664.04857206924,-12312.458433205897,-187500.02235174447,-187500.02235174447,-187500.02235174447,-187500.02235174447,-187500.02235174447,1731450667.4617436,1731450665.2672524,2000
-19283.43108694924,-160634.29840019924,-12344.980221388369,-187500.02235174447,-187500.02235174447,-187500.02235174447,-187500.02235174447,-187500.02235174447,1731450667.4661117,1731450665.2672524,2000
-19342.238526611152,-160614.74062380084,-12399.943161003966,-187500.02235174447,-187500.02235174447,-187500.02235174447,-187500.02235174447,-187500.02235174447,1731450667.469802,1731450665.2672524,2000
-19322.39017753484,-160624.75420531683,-12392.231809166886,-187500.02235174447,-187500.02235174447,-187500.02235174447,-187500.02235174447,-187500.02235174447,1731450667.4727232,1731450665.2672524,2000
-19269.52830189804,-160695.2292555844,-12395.07048071271,-187500.02235174447,-187500.02235174447,-187500.02235174447,-187500.02235174447,-187500.02235174447,1731450667.477866,1731450665.2672524,2000
-19307.570970960973,-160693.70933696144,-12482.778725955335,-187500.02235174447,-187500.02235174447,-187500.02235174447,-187500.02235174447,-187500.02235174447,1731450667.4817822,1731450665.2672524,2000
-19335.53300327456,-160652.9621068194,-12464.0926675907,-187500.02235174447,-187500.02235174447,-187500.02235174447,-187500.02235174447,-187500.02235174447,1731450667.485849,1731450665.2672524,2000
-19311.706043685204,-160640.84746132465,-12339.77226493028,-187500.02235174447,-187500.02235174447,-187500.02235174447,-187500.02235174447,-187500.02235174447,1731450667.489849,1731450665.2672524,2000
-19237.85588000487,-160753.90258477957,-12305.48468893584,-187500.02235174447,-187500.02235174447,-187500.02235174447,-187500.02235174447,-187500.02235174447,1731450667.4938323,1731450665.2672524,2000
-19267.516644897063,-160736.15529968205,-12365.432067564972,-187500.02235174447,-187500.02235174447,-187500.02235174447,-187500.02235174447,-187500.02235174447,1731450667.4978037,1731450665.2672524,2000
-19280.74887761461,-160697.44207828547,-12450.301641261774,-187500.02235174447,-187500.02235174447,-187500.02235174447,-187500.02235174447,-187500.02235174447,1731450667.500858,1731450665.2672524,2000
-19283.54284567152,-160718.81034598476,-12415.969361778423,-187500.02235174447,-187500.02235174447,-187500.02235174447,-187500.02235174447,-187500.02235174447,1731450667.5048296,1731450665.2672524,2000
-19317.808069921502,-160796.9073411116,-12327.992895602334,-187500.02235174447,-187500.02235174447,-187500.02235174447,-187500.02235174447,-187500.02235174447,1731450667.5099924,1731450665.2672524,2000
-19271.8975868103,-160793.442820721,-12353.272718581286,-187500.02235174447,-187500.02235174447,-187500.02235174447,-187500.02235174447,-187500.02235174447,1731450667.513944,1731450665.2672524,2000
-19316.73518618765,-160739.46335786144,-12386.97914921989,-187500.02235174447,-187500.02235174447,-187500.02235174447,-187500.02235174447,-187500.02235174447,1731450667.5180972,1731450665.2672524,2000
-19344.29488710104,-160812.21828606346,-12395.986902235378,-187500.02235174447,-187500.02235174447,-187500.02235174447,-187500.02235174447,-187500.02235174447,1731450667.5210028,1731450665.2672524,2000
-19297.57974118945,-160903.0781272743,-12382.844076495658,-187500.02235174447,-187500.02235174447,-187500.02235174447,-187500.02235174447,-187500.02235174447,1731450667.5251205,1731450665.2672524,2000
-19247.042446976,-160929.60964794277,-12384.341643374162,-187500.02235174447,-187500.02235174447,-187500.02235174447,-187500.02235174447,-187500.02235174447,1731450667.528981,1731450665.2672524,2000
-19309.78379366205,-160881.06165898583,-12415.634085611591,-187500.02235174447,-187500.02235174447,-187500.02235174447,-187500.02235174447,-187500.02235174447,1731450667.5331993,1731450665.2672524,2000
-19301.692462169227,-160819.81787917827,-12411.07432974271,-187500.02235174447,-187500.02235174447,-187500.02235174447,-187500.02235174447,-187500.02235174447,1731450667.5369072,1731450665.2672524,2000
-19179.137847320777,-160871.24924316994,-12376.049146181243,-187500.02235174447,-187500.02235174447,-187500.02235174447,-187500.02235174447,-187500.02235174447,1731450667.5417924,1731450665.2672524,2000
-19225.1377374098,-160910.476554689,-12359.77707621778,-187500.02235174447,-187500.02235174447,-187500.02235174447,-187500.02235174447,-187500.02235174447,1731450667.5458794,1731450665.2672524,2000
-19342.73026498917,-160881.03930724136,-12382.508800328827,-187500.02235174447,-187500.02235174447,-187500.02235174447,-187500.02235174447,-187500.02235174447,1731450667.548938,1731450665.2672524,2000
-19332.35905556191,-160852.7196470165,-12399.630236581594,-187500.02235174447,-187500.02235174447,-187500.02235174447,-187500.02235174447,-187500.02235174447,1731450667.5527952,1731450665.2672524,2000
-19298.8537906234,-160944.87588940572,-12392.343567889164,-187500.02235174447,-187500.02235174447,-187500.02235174447,-187500.02235174447,-187500.02235174447,1731450667.556836,1731450665.2672524,2000
-19229.451624089677,-160997.51424759798,-12369.187160633464,-187500.02235174447,-187500.02235174447,-187500.02235174447,-187500.02235174447,-187500.02235174447,1731450667.560944,1731450665.2672524,2000
-19275.496217667605,-160959.11395062375,-12378.59724504915,-187500.02235174447,-187500.02235174447,-187500.02235174447,-187500.02235174447,-187500.02235174447,1731450667.5659702,1731450665.2672524,2000
-19363.495035588152,-160895.21031322604,-12421.02085602532,-187500.02235174447,-187500.02235174447,-187500.02235174447,-187500.02235174447,-187500.02235174447,1731450667.569886,1731450665.2672524,2000
-19300.261950524087,-160986.11485792577,-12414.36003617764,-187500.02235174447,-187500.02235174447,-187500.02235174447,-187500.02235174447,-187500.02235174447,1731450667.5740256,1731450665.2672524,2000
-19227.28350487751,-161024.44809966662,-12349.696439468436,-187500.02235174447,-187500.02235174447,-187500.02235174447,-187500.02235174447,-187500.02235174447,1731450667.5770297,1731450665.2672524,2000
-19240.71690329515,-160997.58130283133,-12374.864503725114,-187500.02235174447,-187500.02235174447,-187500.02235174447,-187500.02235174447,-187500.02235174447,1731450667.5810037,1731450665.2672524,2000
-19256.89956628079,-160909.49307793297,-12497.977912184944,-187500.02235174447,-187500.02235174447,-187500.02235174447,-187500.02235174447,-187500.02235174447,1731450667.585124,1731450665.2672524,2000
-19278.71486886917,-160960.07507563534,-12399.227905181397,-187500.02235174447,-187500.02235174447,-187500.02235174447,-187500.02235174447,-187500.02235174447,1731450667.58883,1731450665.2672524,2000
-19224.22131588713,-161024.71632060007,-12284.38464217003,-187500.02235174447,-187500.02235174447,-187500.02235174447,-187500.02235174447,-187500.02235174447,1731450667.5929875,1731450665.2672524,2000
-19268.90245305329,-161028.31495145737,-12283.825848558648,-187500.02235174447,-187500.02235174447,-187500.02235174447,-187500.02235174447,-187500.02235174447,1731450667.5979433,1731450665.2672524,2000
-19312.24248555213,-161001.2022854331,-12359.710020984414,-187500.02235174447,-187500.02235174447,-187500.02235174447,-187500.02235174447,-187500.02235174447,1731450667.6018665,1731450665.2672524,2000
-19308.28622678354,-161019.82128856436,-12387.046204453256,-187500.02235174447,-187500.02235174447,-187500.02235174447,-187500.02235174447,-187500.02235174447,1731450667.6050966,1731450665.2672524,2000
-19269.1483222423,-161064.1224460748,-12366.594358276649,-187500.02235174447,-187500.02235174447,-187500.02235174447,-187500.02235174447,-187500.02235174447,1731450667.609096,1731450665.2672524,2000
-19264.655621606784,-161025.6103903783,-12366.25908210982,-187500.02235174447,-187500.02235174447,-187500.02235174447,-187500.02235174447,-187500.02235174447,1731450667.6129563,1731450665.2672524,2000
-19304.352319759408,-161026.54916364542,-12398.557352847738,-187500.02235174447,-187500.02235174447,-187500.02235174447,-187500.02235174447,-187500.02235174447,1731450667.6170857,1731450665.2672524,2000
-19326.2123258367,-161076.55001599193,-12377.278492126286,-187500.02235174447,-187500.02235174447,-187500.02235174447,-187500.02235174447,-187500.02235174447,1731450667.6210184,1731450665.2672524,2000
-19269.64006062032,-161114.6820920327,-12360.939366929457,-187500.02235174447,-187500.02235174447,-187500.02235174447,-187500.02235174447,-187500.02235174447,1731450667.6261494,1731450665.2672524,2000
-19232.625571802328,-161079.09811485984,-12330.943325870434,-187500.02235174447,-187500.02235174447,-187500.02235174447,-187500.02235174447,-187500.02235174447,1731450667.6301558,1731450665.2672524,2000
-19279.54188341402,-161005.6502825797,-12371.377631590083,-187500.02235174447,-187500.02235174447,-187500.02235174447,-187500.02235174447,-187500.02235174447,1731450667.633108,1731450665.2672524,2000
-19310.18612506224,-161089.5810830094,-12388.856695754135,-187500.02235174447,-187500.02235174447,-187500.02235174447,-187500.02235174447,-187500.02235174447,1731450667.6369853,1731450665.2672524,2000
