Fp1,Fp2,C3,C4,P7,P8,O1,O2,time_board,time_marker,marker
-3852.4125638499936,-187500.02235174447,-535.8383698270762,-187500.02235174447,-187500.02235174447,-187500.02235174447,-187500.02235174447,-187500.02235174447,1730329640.0611968,1730329640.059127,2000
-3856.704098785413,-187500.02235174447,-565.812059141643,-187500.02235174447,-187500.02235174447,-187500.02235174447,-187500.02235174447,-187500.02235174447,1730329640.0653615,1730329640.059127,2000
-3765.240760474296,-187500.02235174447,-581.8382599160982,-187500.02235174447,-187500.02235174447,-187500.02235174447,-187500.02235174447,-187500.02235174447,1730329640.0692165,1730329640.059127,2000
-3747.337013165595,-187500.02235174447,-555.4184979699252,-187500.02235174447,-187500.02235174447,-187500.02235174447,-187500.02235174447,-187500.02235174447,1730329640.0743167,1730329640.059127,2000
-3837.4368950649377,-187500.02235174447,-534.1172855040176,-187500.02235174447,-187500.02235174447,-187500.02235174447,-187500.02235174447,-187500.02235174447,1730329640.0772183,1730329640.059127,2000
-3875.256046683317,-187500.02235174447,-566.102631819562,-187500.02235174447,-187500.02235174447,-187500.02235174447,-187500.02235174447,-187500.02235174447,1730329640.0802472,1730329640.059127,2000
-3791.6158189315584,-187500.02235174447,-589.2143355863495,-187500.02235174447,-187500.02235174447,-187500.02235174447,-187500.02235174447,-187500.02235174447,1730329640.0852015,1730329640.059127,2000
-3739.804475284157,-187500.02235174447,-559.7100329053442,-187500.02235174447,-187500.02235174447,-187500.02235174447,-187500.02235174447,-187500.02235174447,1730329640.0893989,1730329640.059127,2000
-3819.309630311684,-187500.02235174447,-530.8986343024534,-187500.02235174447,-187500.02235174447,-187500.02235174447,-187500.02235174447,-187500.02235174447,1730329640.0933087,1730329640.059127,2000
-3879.301712429728,-187500.02235174447,-556.2902160036822,-187500.02235174447,-187500.02235174447,-187500.02235174447,-187500.02235174447,-187500.02235174447,1730329640.097432,1730329640.059127,2000
-3807.932592383933,-187500.02235174447,-587.8955826634864,-187500.02235174447,-187500.02235174447,-187500.02235174447,-187500.02235174447,-187500.02235174447,1730329640.1014464,1730329640.059127,2000
-3740.922062506922,-187500.02235174447,-568.0919370760843,-187500.02235174447,-187500.02235174447,-187500.02235174447,-187500.02235174447,-187500.02235174447,1730329640.1053848,1730329640.059127,2000
-3807.105577839086,-187500.02235174447,-536.7994948386544,-187500.02235174447,-187500.02235174447,-187500.02235174447,-187500.02235174447,-187500.02235174447,1730329640.1084406,1730329640.059127,2000
-3882.72152933139,-187500.02235174447,-552.9598060798414,-187500.02235174447,-187500.02235174447,-187500.02235174447,-187500.02235174447,-187500.02235174447,1730329640.112456,1730329640.059127,2000
-3826.149264115008,-187500.02235174447,-585.168669839939,-187500.02235174447,-187500.02235174447,-187500.02235174447,-187500.02235174447,-187500.02235174447,1730329640.1174667,1730329640.059127,2000
-3748.029917243709,-187500.02235174447,-577.4796697473133,-187500.02235174447,-187500.02235174447,-187500.02235174447,-187500.02235174447,-187500.02235174447,1730329640.1214535,1730329640.059127,2000
-3790.140603797508,-187500.02235174447,-540.2416634847717,-187500.02235174447,-187500.02235174447,-187500.02235174447,-187500.02235174447,-187500.02235174447,1730329640.125466,1730329640.059127,2000
-3873.266741426795,-187500.02235174447,-544.7567158647437,-187500.02235174447,-187500.02235174447,-187500.02235174447,-187500.02235174447,-187500.02235174447,1730329640.12949,1730329640.059127,2000
-3841.7060782559015,-187500.02235174447,-582.2405913162937,-187500.02235174447,-187500.02235174447,-187500.02235174447,-187500.02235174447,-187500.02235174447,1730329640.1334872,1730329640.059127,2000
-3755.830676058612,-187500.02235174447,-587.1132716075506,-187500.02235174447,-187500.02235174447,-187500.02235174447,-187500.02235174447,-187500.02235174447,1730329640.1363564,1730329640.059127,2000
-3779.948208325888,-187500.02235174447,-553.8315241135984,-187500.02235174447,-187500.02235174447,-187500.02235174447,-187500.02235174447,-187500.02235174447,1730329640.1404903,1730329640.059127,2000
-3868.461116368904,-187500.02235174447,-544.0861635310845,-187500.02235174447,-187500.02235174447,-187500.02235174447,-187500.02235174447,-187500.02235174447,1730329640.1455247,1730329640.059127,2000
-3854.692441784435,-187500.02235174447,-573.746928423277,-187500.02235174447,-187500.02235174447,-187500.02235174447,-187500.02235174447,-187500.02235174447,1730329640.1495087,1730329640.059127,2000
-3757.909388292955,-187500.02235174447,-580.5418587376903,-187500.02235174447,-187500.02235174447,-187500.02235174447,-187500.02235174447,-187500.02235174447,1730329640.153516,1730329640.059127,2000
-3751.561492867648,-187500.02235174447,-545.941358320875,-187500.02235174447,-187500.02235174447,-187500.02235174447,-187500.02235174447,-187500.02235174447,1730329640.1575036,1730329640.059127,2000
-3845.349412602117,-187500.02235174447,-532.10562850304,-187500.02235174447,-187500.02235174447,-187500.02235174447,-187500.02235174447,-187500.02235174447,1730329640.1604066,1730329640.059127,2000
-3861.085040698653,-187500.02235174447,-565.4320794859028,-187500.02235174447,-187500.02235174447,-187500.02235174447,-187500.02235174447,-187500.02235174447,1730329640.1645348,1730329640.059127,2000
-3767.341824453095,-187500.02235174447,-578.4184430144362,-187500.02235174447,-187500.02235174447,-187500.02235174447,-187500.02235174447,-187500.02235174447,1730329640.1683695,1730329640.059127,2000
-3741.3467456515727,-187500.02235174447,-547.9306635773974,-187500.02235174447,-187500.02235174447,-187500.02235174447,-187500.02235174447,-187500.02235174447,1730329640.1735132,1730329640.059127,2000
-3830.396095561516,-187500.02235174447,-527.300003445149,-187500.02235174447,-187500.02235174447,-187500.02235174447,-187500.02235174447,-187500.02235174447,1730329640.177407,1730329640.059127,2000
-3870.137497203052,-187500.02235174447,-553.652710157956,-187500.02235174447,-187500.02235174447,-187500.02235174447,-187500.02235174447,-187500.02235174447,1730329640.1815505,1730329640.059127,2000
-3793.068682321153,-187500.02235174447,-583.8052134281652,-187500.02235174447,-187500.02235174447,-187500.02235174447,-187500.02235174447,-187500.02235174447,1730329640.1845458,1730329640.059127,2000
-3741.4361526293937,-187500.02235174447,-559.3971084829699,-187500.02235174447,-187500.02235174447,-187500.02235174447,-187500.02235174447,-187500.02235174447,1730329640.1885538,1730329640.059127,2000
-3817.856766922089,-187500.02235174447,-533.558491892635,-187500.02235174447,-187500.02235174447,-187500.02235174447,-187500.02235174447,-187500.02235174447,1730329640.192567,1730329640.059127,2000
-3881.2463141973394,-187500.02235174447,-554.7032421473554,-187500.02235174447,-187500.02235174447,-187500.02235174447,-187500.02235174447,-187500.02235174447,1730329640.1965067,1730329640.059127,2000
-3812.1570720859854,-187500.02235174447,-584.9451523953858,-187500.02235174447,-187500.02235174447,-187500.02235174447,-187500.02235174447,-187500.02235174447,1730329640.201518,1730329640.059127,2000
-3741.614966585036,-187500.02235174447,-571.6905679333887,-187500.02235174447,-187500.02235174447,-187500.02235174447,-187500.02235174447,-187500.02235174447,1730329640.2056932,1730329640.059127,2000
-3800.780034158234,-187500.02235174447,-538.3194134616153,-187500.02235174447,-187500.02235174447,-187500.02235174447,-187500.02235174447,-187500.02235174447,1730329640.209694,1730329640.059127,2000
-3882.945046775943,-187500.02235174447,-552.7362886352884,-187500.02235174447,-187500.02235174447,-187500.02235174447,-187500.02235174447,-187500.02235174447,1730329640.2127004,1730329640.059127,2000
-3831.603089762103,-187500.02235174447,-584.6322279730115,-187500.02235174447,-187500.02235174447,-187500.02235174447,-187500.02235174447,-187500.02235174447,1730329640.216694,1730329640.059127,2000
-3746.644109087481,-187500.02235174447,-577.6137802140452,-187500.02235174447,-187500.02235174447,-187500.02235174447,-187500.02235174447,-187500.02235174447,1730329640.220662,1730329640.059127,2000
-3784.686778150413,-187500.02235174447,-542.5662449081236,-187500.02235174447,-187500.02235174447,-187500.02235174447,-187500.02235174447,-187500.02235174447,1730329640.224668,1730329640.059127,2000
-3874.585494349658,-187500.02235174447,-544.6896606313778,-187500.02235174447,-187500.02235174447,-187500.02235174447,-187500.02235174447,-187500.02235174447,1730329640.2285388,1730329640.059127,2000
-3851.362031860594,-187500.02235174447,-582.9111436499529,-187500.02235174447,-187500.02235174447,-187500.02235174447,-187500.02235174447,-187500.02235174447,1730329640.2336836,1730329640.059127,2000
-3756.925911536922,-187500.02235174447,-585.101614606573,-187500.02235174447,-187500.02235174447,-187500.02235174447,-187500.02235174447,-187500.02235174447,1730329640.237691,1730329640.059127,2000
-3766.537161652704,-187500.02235174447,-545.5390269206795,-187500.02235174447,-187500.02235174447,-187500.02235174447,-187500.02235174447,-187500.02235174447,1730329640.240734,1730329640.059127,2000
-3860.481543598359,-187500.02235174447,-535.8607215715315,-187500.02235174447,-187500.02235174447,-187500.02235174447,-187500.02235174447,-187500.02235174447,1730329640.2445652,1730329640.059127,2000
-3851.697308027424,-187500.02235174447,-563.9121608629418,-187500.02235174447,-187500.02235174447,-187500.02235174447,-187500.02235174447,-187500.02235174447,1730329640.2487268,1730329640.059127,2000
-3754.556626624659,-187500.02235174447,-573.9927976122854,-187500.02235174447,-187500.02235174447,-187500.02235174447,-187500.02235174447,-187500.02235174447,1730329640.2525268,1730329640.059127,2000
-3741.8161322851342,-187500.02235174447,-542.9909280527745,-187500.02235174447,-187500.02235174447,-187500.02235174447,-187500.02235174447,-187500.02235174447,1730329640.2567213,1730329640.059127,2000
-3838.107447398597,-187500.02235174447,-531.2115587248277,-187500.02235174447,-187500.02235174447,-187500.02235174447,-187500.02235174447,-187500.02235174447,1730329640.26154,1730329640.059127,2000
-3866.4494593679274,-187500.02235174447,-564.3368440075927,-187500.02235174447,-187500.02235174447,-187500.02235174447,-187500.02235174447,-187500.02235174447,1730329640.265561,1730329640.059127,2000
-3777.6683303914474,-187500.02235174447,-584.520469250735,-187500.02235174447,-187500.02235174447,-187500.02235174447,-187500.02235174447,-187500.02235174447,1730329640.2685716,1730329640.059127,2000
-3743.514864863737,-187500.02235174447,-559.3747567385145,-187500.02235174447,-187500.02235174447,-187500.02235174447,-187500.02235174447,-187500.02235174447,1730329640.2726347,1730329640.059127,2000
-3829.1220461275634,-187500.02235174447,-536.1289425049952,-187500.02235174447,-187500.02235174447,-187500.02235174447,-187500.02235174447,-187500.02235174447,1730329640.2767696,1730329640.059127,2000
-3876.060709483708,-187500.02235174447,-558.1007073045621,-187500.02235174447,-187500.02235174447,-187500.02235174447,-187500.02235174447,-187500.02235174447,1730329640.2806656,1730329640.059127,2000
-3796.264981778262,-187500.02235174447,-584.2075448283607,-187500.02235174447,-187500.02235174447,-187500.02235174447,-187500.02235174447,-187500.02235174447,1730329640.28468,1730329640.059127,2000
-3740.3185654066287,-187500.02235174447,-566.0132248417408,-187500.02235174447,-187500.02235174447,-187500.02235174447,-187500.02235174447,-187500.02235174447,1730329640.2898042,1730329640.059127,2000
-3810.9947813743097,-187500.02235174447,-536.0171837827187,-187500.02235174447,-187500.02235174447,-187500.02235174447,-187500.02235174447,-187500.02235174447,1730329640.2932997,1730329640.059127,2000
-3877.066537984197,-187500.02235174447,-550.6128729120342,-187500.02235174447,-187500.02235174447,-187500.02235174447,-187500.02235174447,-187500.02235174447,1730329640.297068,1730329640.059127,2000
-3819.287278567229,-187500.02235174447,-586.8003471851763,-187500.02235174447,-187500.02235174447,-187500.02235174447,-187500.02235174447,-187500.02235174447,1730329640.3012428,1730329640.059127,2000
-3744.610100342048,-187500.02235174447,-576.0715098466289,-187500.02235174447,-187500.02235174447,-187500.02235174447,-187500.02235174447,-187500.02235174447,1730329640.3049822,1730329640.059127,2000
-3798.8354323906224,-187500.02235174447,-545.9637100653304,-187500.02235174447,-187500.02235174447,-187500.02235174447,-187500.02235174447,-187500.02235174447,1730329640.3089492,1730329640.059127,2000
-3878.742918818345,-187500.02235174447,-551.1493147789615,-187500.02235174447,-187500.02235174447,-187500.02235174447,-187500.02235174447,-187500.02235174447,1730329640.312864,1730329640.059127,2000
-3836.721639242368,-187500.02235174447,-583.648751216978,-187500.02235174447,-187500.02235174447,-187500.02235174447,-187500.02235174447,-187500.02235174447,1730329640.317845,1730329640.059127,2000
-3750.153332966964,-187500.02235174447,-579.7371959372992,-187500.02235174447,-187500.02235174447,-187500.02235174447,-187500.02235174447,-187500.02235174447,1730329640.3208516,1730329640.059127,2000
-3773.667368133946,-187500.02235174447,-536.9783087942968,-187500.02235174447,-187500.02235174447,-187500.02235174447,-187500.02235174447,-187500.02235174447,1730329640.3248844,1730329640.059127,2000
-3860.235674409351,-187500.02235174447,-534.8995965599534,-187500.02235174447,-187500.02235174447,-187500.02235174447,-187500.02235174447,-187500.02235174447,1730329640.3288388,1730329640.059127,2000
-3843.8071422347,-187500.02235174447,-572.6293412005116,-187500.02235174447,-187500.02235174447,-187500.02235174447,-187500.02235174447,-187500.02235174447,1730329640.3328147,1730329640.059127,2000
-3751.270920189729,-187500.02235174447,-578.7760709257211,-187500.02235174447,-187500.02235174447,-187500.02235174447,-187500.02235174447,-187500.02235174447,1730329640.3369677,1730329640.059127,2000
-3752.07558299012,-187500.02235174447,-542.7450588637661,-187500.02235174447,-187500.02235174447,-187500.02235174447,-187500.02235174447,-187500.02235174447,1730329640.341003,1730329640.059127,2000
-3846.5787585471594,-187500.02235174447,-530.4963029022579,-187500.02235174447,-187500.02235174447,-187500.02235174447,-187500.02235174447,-187500.02235174447,1730329640.3458855,1730329640.059127,2000
-3857.24054065234,-187500.02235174447,-564.7615271522435,-187500.02235174447,-187500.02235174447,-187500.02235174447,-187500.02235174447,-187500.02235174447,1730329640.3489542,1730329640.059127,2000
-3764.9054843074655,-187500.02235174447,-583.4699372613355,-187500.02235174447,-187500.02235174447,-187500.02235174447,-187500.02235174447,-187500.02235174447,1730329640.3517785,1730329640.059127,2000
-3745.7723910537234,-187500.02235174447,-554.5244281917129,-187500.02235174447,-187500.02235174447,-187500.02235174447,-187500.02235174447,-187500.02235174447,1730329640.356979,1730329640.059127,2000
-3838.152150887508,-187500.02235174447,-533.2455674702605,-187500.02235174447,-187500.02235174447,-187500.02235174447,-187500.02235174447,-187500.02235174447,1730329640.3607838,1730329640.059127,2000
-3870.808049536711,-187500.02235174447,-559.3300532496039,-187500.02235174447,-187500.02235174447,-187500.02235174447,-187500.02235174447,-187500.02235174447,1730329640.3649826,1730329640.059127,2000
-3783.300969994184,-187500.02235174447,-583.872268661531,-187500.02235174447,-187500.02235174447,-187500.02235174447,-187500.02235174447,-187500.02235174447,1730329640.368776,1730329640.059127,2000
-3738.753943294757,-187500.02235174447,-558.6595009159447,-187500.02235174447,-187500.02235174447,-187500.02235174447,-187500.02235174447,-187500.02235174447,1730329640.373917,1730329640.059127,2000
-3819.846072178611,-187500.02235174447,-532.843236070065,-187500.02235174447,-187500.02235174447,-187500.02235174447,-187500.02235174447,-187500.02235174447,1730329640.3767817,1730329640.059127,2000
-3875.211343194407,-187500.02235174447,-555.1726287809169,-187500.02235174447,-187500.02235174447,-187500.02235174447,-187500.02235174447,-187500.02235174447,1730329640.3799849,1730329640.059127,2000
-3804.803348160189,-187500.02235174447,-589.2813908197154,-187500.02235174447,-187500.02235174447,-187500.02235174447,-187500.02235174447,-187500.02235174447,1730329640.3850002,1730329640.059127,2000
-3741.4361526293937,-187500.02235174447,-574.261018545749,-187500.02235174447,-187500.02235174447,-187500.02235174447,-187500.02235174447,-187500.02235174447,1730329640.3890543,1730329640.059127,2000
-3804.780996415734,-187500.02235174447,-541.940396063375,-187500.02235174447,-187500.02235174447,-187500.02235174447,-187500.02235174447,-187500.02235174447,1730329640.3930418,1730329640.059127,2000
-3879.8828577855656,-187500.02235174447,-556.0666985591291,-187500.02235174447,-187500.02235174447,-187500.02235174447,-187500.02235174447,-187500.02235174447,1730329640.397017,1730329640.059127,2000
-3818.3485053001054,-187500.02235174447,-583.2017163278718,-187500.02235174447,-187500.02235174447,-187500.02235174447,-187500.02235174447,-187500.02235174447,1730329640.4010384,1730329640.059127,2000
-3738.97746073931,-187500.02235174447,-576.3844342690032,-187500.02235174447,-187500.02235174447,-187500.02235174447,-187500.02235174447,-187500.02235174447,1730329640.4048977,1730329640.059127,2000
-3780.663464148458,-187500.02235174447,-540.2863669736823,-187500.02235174447,-187500.02235174447,-187500.02235174447,-187500.02235174447,-187500.02235174447,1730329640.4079647,1730329640.059127,2000
-3861.755593032312,-187500.02235174447,-538.6323378839896,-187500.02235174447,-187500.02235174447,-187500.02235174447,-187500.02235174447,-187500.02235174447,1730329640.412933,1730329640.059127,2000
-3828.563252516181,-187500.02235174447,-576.0491581021736,-187500.02235174447,-187500.02235174447,-187500.02235174447,-187500.02235174447,-187500.02235174447,1730329640.4168308,1730329640.059127,2000
-3739.424495628417,-187500.02235174447,-578.7537191812658,-187500.02235174447,-187500.02235174447,-187500.02235174447,-187500.02235174447,-187500.02235174447,1730329640.4209807,1730329640.059127,2000
-3761.2174464723407,-187500.02235174447,-543.8402943420762,-187500.02235174447,-187500.02235174447,-187500.02235174447,-187500.02235174447,-187500.02235174447,1730329640.4249282,1730329640.059127,2000
-3854.267758639784,-187500.02235174447,-538.6993931173555,-187500.02235174447,-187500.02235174447,-187500.02235174447,-187500.02235174447,-187500.02235174447,1730329640.4277904,1730329640.059127,2000
-3849.730354515357,-187500.02235174447,-578.0384633586959,-187500.02235174447,-187500.02235174447,-187500.02235174447,-187500.02235174447,-187500.02235174447,1730329640.4319584,1730329640.059127,2000
-3755.830676058612,-187500.02235174447,-588.8120041861539,-187500.02235174447,-187500.02235174447,-187500.02235174447,-187500.02235174447,-187500.02235174447,1730329640.435962,1730329640.059127,2000
-3751.449734145372,-187500.02235174447,-554.971463080819,-187500.02235174447,-187500.02235174447,-187500.02235174447,-187500.02235174447,-187500.02235174447,1730329640.4400508,1730329640.059127,2000
-3846.645813780524,-187500.02235174447,-541.9180443189198,-187500.02235174447,-187500.02235174447,-187500.02235174447,-187500.02235174447,-187500.02235174447,1730329640.444856,1730329640.059127,2000
-3858.961624975399,-187500.02235174447,-570.3941667549809,-187500.02235174447,-187500.02235174447,-187500.02235174447,-187500.02235174447,-187500.02235174447,1730329640.448866,1730329640.059127,2000
-3772.572132655637,-187500.02235174447,-595.1375478670059,-187500.02235174447,-187500.02235174447,-187500.02235174447,-187500.02235174447,-187500.02235174447,1730329640.452943,1730329640.059127,2000
-3746.4205916429273,-187500.02235174447,-565.2085620413496,-187500.02235174447,-187500.02235174447,-187500.02235174447,-187500.02235174447,-187500.02235174447,1730329640.4560103,1730329640.059127,2000
-3828.742066471824,-187500.02235174447,-542.0521547856516,-187500.02235174447,-187500.02235174447,-187500.02235174447,-187500.02235174447,-187500.02235174447,1730329640.459931,1730329640.059127,2000
-3868.8187442801886,-187500.02235174447,-568.9860068542965,-187500.02235174447,-187500.02235174447,-187500.02235174447,-187500.02235174447,-187500.02235174447,1730329640.464012,1730329640.059127,2000
-3791.5040602092818,-187500.02235174447,-598.8479374465868,-187500.02235174447,-187500.02235174447,-187500.02235174447,-187500.02235174447,-187500.02235174447,1730329640.4689112,1730329640.059127,2000
-3743.045478230176,-187500.02235174447,-579.4466232593803,-187500.02235174447,-187500.02235174447,-187500.02235174447,-187500.02235174447,-187500.02235174447,1730329640.473074,1730329640.059127,2000
-3819.220223333863,-187500.02235174447,-550.5681694231235,-187500.02235174447,-187500.02235174447,-187500.02235174447,-187500.02235174447,-187500.02235174447,1730329640.47686,1730329640.059127,2000
-3875.0548809832194,-187500.02235174447,-563.5098294627463,-187500.02235174447,-187500.02235174447,-187500.02235174447,-187500.02235174447,-187500.02235174447,1730329640.4810555,1730329640.059127,2000
-3808.267868550762,-187500.02235174447,-595.7186932228439,-187500.02235174447,-187500.02235174447,-187500.02235174447,-187500.02235174447,-187500.02235174447,1730329640.4838996,1730329640.059127,2000
-3741.7043735628577,-187500.02235174447,-586.2639053182489,-187500.02235174447,-187500.02235174447,-187500.02235174447,-187500.02235174447,-187500.02235174447,1730329640.4880807,1730329640.059127,2000
-3800.377702758039,-187500.02235174447,-554.8373526140872,-187500.02235174447,-187500.02235174447,-187500.02235174447,-187500.02235174447,-187500.02235174447,1730329640.4921308,1730329640.059127,2000
-3875.546619361237,-187500.02235174447,-563.3310155071039,-187500.02235174447,-187500.02235174447,-187500.02235174447,-187500.02235174447,-187500.02235174447,1730329640.4961689,1730329640.059127,2000
-3825.746932714813,-187500.02235174447,-595.0481408891847,-187500.02235174447,-187500.02235174447,-187500.02235174447,-187500.02235174447,-187500.02235174447,1730329640.5000205,1730329640.059127,2000
-3742.620795085525,-187500.02235174447,-594.6458094889891,-187500.02235174447,-187500.02235174447,-187500.02235174447,-187500.02235174447,-187500.02235174447,1730329640.505274,1730329640.059127,2000
-3775.500211179282,-187500.02235174447,-559.8217916276207,-187500.02235174447,-187500.02235174447,-187500.02235174447,-187500.02235174447,-187500.02235174447,1730329640.5091784,1730329640.059127,2000
-3858.849866253122,-187500.02235174447,-551.3504804790593,-187500.02235174447,-187500.02235174447,-187500.02235174447,-187500.02235174447,-187500.02235174447,1730329640.5120895,1730329640.059127,2000
-3827.445665293416,-187500.02235174447,-580.0948238485842,-187500.02235174447,-187500.02235174447,-187500.02235174447,-187500.02235174447,-187500.02235174447,1730329640.5161788,1730329640.059127,2000
-3740.810303784645,-187500.02235174447,-590.8460129315869,-187500.02235174447,-187500.02235174447,-187500.02235174447,-187500.02235174447,-187500.02235174447,1730329640.520252,1730329640.059127,2000
-3753.729612079813,-187500.02235174447,-557.6089689265453,-187500.02235174447,-187500.02235174447,-187500.02235174447,-187500.02235174447,-187500.02235174447,1730329640.5241728,1730329640.059127,2000
-3848.679822525957,-187500.02235174447,-548.8694368445202,-187500.02235174447,-187500.02235174447,-187500.02235174447,-187500.02235174447,-187500.02235174447,1730329640.5280411,1730329640.059127,2000
-3850.110334171097,-187500.02235174447,-582.1064808495619,-187500.02235174447,-187500.02235174447,-187500.02235174447,-187500.02235174447,-187500.02235174447,1730329640.5331955,1730329640.059127,2000
-3757.954091781866,-187500.02235174447,-597.2609635902601,-187500.02235174447,-187500.02235174447,-187500.02235174447,-187500.02235174447,-187500.02235174447,1730329640.5360024,1730329640.059127,2000
-3746.666460831936,-187500.02235174447,-567.488439975791,-187500.02235174447,-187500.02235174447,-187500.02235174447,-187500.02235174447,-187500.02235174447,1730329640.540319,1730329640.059127,2000
-3838.5768340321583,-187500.02235174447,-548.7576781222436,-187500.02235174447,-187500.02235174447,-187500.02235174447,-187500.02235174447,-187500.02235174447,1730329640.54399,1730329640.059127,2000
-3862.33673838815,-187500.02235174447,-579.8489546595758,-187500.02235174447,-187500.02235174447,-187500.02235174447,-187500.02235174447,-187500.02235174447,1730329640.5483038,1730329640.059127,2000
-3775.433155945916,-187500.02235174447,-605.4864055498131,-187500.02235174447,-187500.02235174447,-187500.02235174447,-187500.02235174447,-187500.02235174447,1730329640.5520444,1730329640.059127,2000
-3741.4361526293937,-187500.02235174447,-581.5476872381792,-187500.02235174447,-187500.02235174447,-187500.02235174447,-187500.02235174447,-187500.02235174447,1730329640.556311,1730329640.059127,2000
-3830.641964750525,-187500.02235174447,-549.0929542890733,-187500.02235174447,-187500.02235174447,-187500.02235174447,-187500.02235174447,-187500.02235174447,1730329640.5611053,1730329640.059127,2000
-3884.777889821278,-187500.02235174447,-560.5146957057352,-187500.02235174447,-187500.02235174447,-187500.02235174447,-187500.02235174447,-187500.02235174447,1730329640.56416,1730329640.059127,2000
-3802.434063247927,-187500.02235174447,-582.9334953944082,-187500.02235174447,-187500.02235174447,-187500.02235174447,-187500.02235174447,-187500.02235174447,1730329640.5682757,1730329640.059127,2000
-3732.495454847271,-187500.02235174447,-578.5302017367127,-187500.02235174447,-187500.02235174447,-187500.02235174447,-187500.02235174447,-187500.02235174447,1730329640.5723104,1730329640.059127,2000
-3804.6245342045463,-187500.02235174447,-547.2824629881934,-187500.02235174447,-187500.02235174447,-187500.02235174447,-187500.02235174447,-187500.02235174447,1730329640.576252,1730329640.059127,2000
-3889.114128245608,-187500.02235174447,-531.6809453583891,-187500.02235174447,-187500.02235174447,-187500.02235174447,-187500.02235174447,-187500.02235174447,1730329640.5804238,1730329640.059127,2000
-3810.771263929757,-187500.02235174447,-525.1765877218947,-187500.02235174447,-187500.02235174447,-187500.02235174447,-187500.02235174447,-187500.02235174447,1730329640.584319,1730329640.059127,2000
-3720.2690506302174,-187500.02235174447,-511.6984858153446,-187500.02235174447,-187500.02235174447,-187500.02235174447,-187500.02235174447,-187500.02235174447,1730329640.589229,1730329640.059127,2000
-3772.348615211084,-187500.02235174447,-568.9860068542965,-187500.02235174447,-187500.02235174447,-187500.02235174447,-187500.02235174447,-187500.02235174447,1730329640.5923252,1730329640.059127,2000
-3857.62052030808,-187500.02235174447,-590.6224954870338,-187500.02235174447,-187500.02235174447,-187500.02235174447,-187500.02235174447,-187500.02235174447,1730329640.5963717,1730329640.059127,2000
-3815.465130265371,-187500.02235174447,-607.3192485951482,-187500.02235174447,-187500.02235174447,-187500.02235174447,-187500.02235174447,-187500.02235174447,1730329640.600248,1730329640.059127,2000
-3717.586841295581,-187500.02235174447,-589.5496117531791,-187500.02235174447,-187500.02235174447,-187500.02235174447,-187500.02235174447,-187500.02235174447,1730329640.604318,1730329640.059127,2000
-3741.592614840581,-187500.02235174447,-544.8014193536543,-187500.02235174447,-187500.02235174447,-187500.02235174447,-187500.02235174447,-187500.02235174447,1730329640.6083057,1730329640.059127,2000
-3837.9062816984992,-187500.02235174447,-536.5983291385567,-187500.02235174447,-187500.02235174447,-187500.02235174447,-187500.02235174447,-187500.02235174447,1730329640.6123388,1730329640.059127,2000
-3825.9928019038207,-187500.02235174447,-583.0899576055954,-187500.02235174447,-187500.02235174447,-187500.02235174447,-187500.02235174447,-187500.02235174447,1730329640.61727,1730329640.059127,2000
-3732.718972291824,-187500.02235174447,-607.2521933617822,-187500.02235174447,-187500.02235174447,-187500.02235174447,-187500.02235174447,-187500.02235174447,1730329640.6202493,1730329640.059127,2000
-3738.150446194464,-187500.02235174447,-573.0316726007071,-187500.02235174447,-187500.02235174447,-187500.02235174447,-187500.02235174447,-187500.02235174447,1730329640.6242723,1730329640.059127,2000
-3830.485502539337,-187500.02235174447,-552.6021781685565,-187500.02235174447,-187500.02235174447,-187500.02235174447,-187500.02235174447,-187500.02235174447,1730329640.6282697,1730329640.059127,2000
-3840.8567119666,-187500.02235174447,-585.6604082179557,-187500.02235174447,-187500.02235174447,-187500.02235174447,-187500.02235174447,-187500.02235174447,1730329640.6323593,1730329640.059127,2000
-3752.299100434673,-187500.02235174447,-604.9276119384303,-187500.02235174447,-187500.02235174447,-187500.02235174447,-187500.02235174447,-187500.02235174447,1730329640.636202,1730329640.059127,2000
-3728.74036177878,-187500.02235174447,-572.9199138784306,-187500.02235174447,-187500.02235174447,-187500.02235174447,-187500.02235174447,-187500.02235174447,1730329640.6402197,1730329640.059127,2000
-3815.509833754281,-187500.02235174447,-547.6177391550231,-187500.02235174447,-187500.02235174447,-187500.02235174447,-187500.02235174447,-187500.02235174447,1730329640.6453753,1730329640.059127,2000
-3854.200703406418,-187500.02235174447,-579.2007540703719,-187500.02235174447,-187500.02235174447,-187500.02235174447,-187500.02235174447,-187500.02235174447,1730329640.6483753,1730329640.059127,2000
-3767.3194727086393,-187500.02235174447,-601.6419055035002,-187500.02235174447,-187500.02235174447,-187500.02235174447,-187500.02235174447,-187500.02235174447,1730329640.651378,1730329640.059127,2000
-3722.392466353472,-187500.02235174447,-574.6857016903999,-187500.02235174447,-187500.02235174447,-187500.02235174447,-187500.02235174447,-187500.02235174447,1730329640.6564057,1730329640.059127,2000
-3802.3223045256505,-187500.02235174447,-547.3718699660146,-187500.02235174447,-187500.02235174447,-187500.02235174447,-187500.02235174447,-187500.02235174447,1730329640.6601996,1730329640.059127,2000
-3858.492238341837,-187500.02235174447,-566.2590940307491,-187500.02235174447,-187500.02235174447,-187500.02235174447,-187500.02235174447,-187500.02235174447,1730329640.6644511,1730329640.059127,2000
-3788.441871218905,-187500.02235174447,-597.2609635902601,-187500.02235174447,-187500.02235174447,-187500.02235174447,-187500.02235174447,-187500.02235174447,1730329640.668399,1730329640.059127,2000
-3724.73939952128,-187500.02235174447,-586.1521465959725,-187500.02235174447,-187500.02235174447,-187500.02235174447,-187500.02235174447,-187500.02235174447,1730329640.672442,1730329640.059127,2000
-3786.430214217927,-187500.02235174447,-546.8577798435426,-187500.02235174447,-187500.02235174447,-187500.02235174447,-187500.02235174447,-187500.02235174447,1730329640.6754296,1730329640.059127,2000
-3859.788639520245,-187500.02235174447,-557.0501753151626,-187500.02235174447,-187500.02235174447,-187500.02235174447,-187500.02235174447,-187500.02235174447,1730329640.6794252,1730329640.059127,2000
-3801.763510914268,-187500.02235174447,-588.9908181417964,-187500.02235174447,-187500.02235174447,-187500.02235174447,-187500.02235174447,-187500.02235174447,1730329640.684442,1730329640.059127,2000
-3721.252527386252,-187500.02235174447,-580.2736378042266,-187500.02235174447,-187500.02235174447,-187500.02235174447,-187500.02235174447,-187500.02235174447,1730329640.6884484,1730329640.059127,2000
-3763.74319359579,-187500.02235174447,-544.0638117866292,-187500.02235174447,-187500.02235174447,-187500.02235174447,-187500.02235174447,-187500.02235174447,1730329640.6924453,1730329640.059127,2000
-3848.232787636851,-187500.02235174447,-545.5837304095901,-187500.02235174447,-187500.02235174447,-187500.02235174447,-187500.02235174447,-187500.02235174447,1730329640.6965048,1730329640.059127,2000
-3816.985048888332,-187500.02235174447,-582.2852948052043,-187500.02235174447,-187500.02235174447,-187500.02235174447,-187500.02235174447,-187500.02235174447,1730329640.7004857,1730329640.059127,2000
-3726.8404635000784,-187500.02235174447,-579.647788959478,-187500.02235174447,-187500.02235174447,-187500.02235174447,-187500.02235174447,-187500.02235174447,1730329640.703483,1730329640.059127,2000
-3755.875379547522,-187500.02235174447,-529.4234191684031,-187500.02235174447,-187500.02235174447,-187500.02235174447,-187500.02235174447,-187500.02235174447,1730329640.7074702,1730329640.059127,2000
-3857.173485418974,-187500.02235174447,-490.8666599829984,-187500.02235174447,-187500.02235174447,-187500.02235174447,-187500.02235174447,-187500.02235174447,1730329640.7125597,1730329640.059127,2000
-3836.1628456309854,-187500.02235174447,-518.5381196186686,-187500.02235174447,-187500.02235174447,-187500.02235174447,-187500.02235174447,-187500.02235174447,1730329640.7165084,1730329640.059127,2000
-3733.903614747956,-187500.02235174447,-606.0451991611957,-187500.02235174447,-187500.02235174447,-187500.02235174447,-187500.02235174447,-187500.02235174447,1730329640.7203093,1730329640.059127,2000
-3729.768542023724,-187500.02235174447,-590.0637018756512,-187500.02235174447,-187500.02235174447,-187500.02235174447,-187500.02235174447,-187500.02235174447,1730329640.724424,1730329640.059127,2000
-3827.847996693611,-187500.02235174447,-559.262998016238,-187500.02235174447,-187500.02235174447,-187500.02235174447,-187500.02235174447,-187500.02235174447,1730329640.728528,1730329640.059127,2000
-3845.975261446865,-187500.02235174447,-587.2026785853718,-187500.02235174447,-187500.02235174447,-187500.02235174447,-187500.02235174447,-187500.02235174447,1730329640.7315693,1730329640.059127,2000
-3753.5507981241694,-187500.02235174447,-603.1841758709164,-187500.02235174447,-187500.02235174447,-187500.02235174447,-187500.02235174447,-187500.02235174447,1730329640.7352986,1730329640.059127,2000
-3726.1922629108735,-187500.02235174447,-575.1774400684167,-187500.02235174447,-187500.02235174447,-187500.02235174447,-187500.02235174447,-187500.02235174447,1730329640.740301,1730329640.059127,2000
-3815.0180953762647,-187500.02235174447,-551.6857566458889,-187500.02235174447,-187500.02235174447,-187500.02235174447,-187500.02235174447,-187500.02235174447,1730329640.7443333,1730329640.059127,2000
-3854.8265522511674,-187500.02235174447,-576.0491581021736,-187500.02235174447,-187500.02235174447,-187500.02235174447,-187500.02235174447,-187500.02235174447,1730329640.748577,1730329640.059127,2000
-3772.706243122369,-187500.02235174447,-603.0947688930952,-187500.02235174447,-187500.02235174447,-187500.02235174447,-187500.02235174447,-187500.02235174447,1730329640.7524192,1730329640.059127,2000
-3722.9289082204,-187500.02235174447,-582.6205709720339,-187500.02235174447,-187500.02235174447,-187500.02235174447,-187500.02235174447,-187500.02235174447,1730329640.755607,1730329640.059127,2000
-3806.1891563164186,-187500.02235174447,-559.2853497606933,-187500.02235174447,-187500.02235174447,-187500.02235174447,-187500.02235174447,-187500.02235174447,1730329640.759598,1730329640.059127,2000
-3864.3483953891273,-187500.02235174447,-573.2104865563497,-187500.02235174447,-187500.02235174447,-187500.02235174447,-187500.02235174447,-187500.02235174447,1730329640.763589,1730329640.059127,2000
-3793.8062898881785,-187500.02235174447,-602.5806787706231,-187500.02235174447,-187500.02235174447,-187500.02235174447,-187500.02235174447,-187500.02235174447,1730329640.767624,1730329640.059127,2000
-3724.717047776824,-187500.02235174447,-591.360103054059,-187500.02235174447,-187500.02235174447,-187500.02235174447,-187500.02235174447,-187500.02235174447,1730329640.772545,1730329640.059127,2000
-3780.9316850819214,-187500.02235174447,-557.7207276488218,-187500.02235174447,-187500.02235174447,-187500.02235174447,-187500.02235174447,-187500.02235174447,1730329640.776632,1730329640.059127,2000
-3860.436840109449,-187500.02235174447,-568.6954341763776,-187500.02235174447,-187500.02235174447,-187500.02235174447,-187500.02235174447,-187500.02235174447,1730329640.7795775,1730329640.059127,2000
-3811.598278474603,-187500.02235174447,-599.004399657774,-187500.02235174447,-187500.02235174447,-187500.02235174447,-187500.02235174447,-187500.02235174447,1730329640.7835891,1730329640.059127,2000
-3726.572242566615,-187500.02235174447,-594.198774599883,-187500.02235174447,-187500.02235174447,-187500.02235174447,-187500.02235174447,-187500.02235174447,1730329640.787428,1730329640.059127,2000
-3758.691699348891,-187500.02235174447,-553.4068409689476,-187500.02235174447,-187500.02235174447,-187500.02235174447,-187500.02235174447,-187500.02235174447,1730329640.7916129,1730329640.059127,2000
-3845.1258951575633,-187500.02235174447,-551.2163700123275,-187500.02235174447,-187500.02235174447,-187500.02235174447,-187500.02235174447,-187500.02235174447,1730329640.7955396,1730329640.059127,2000
-3820.47192102336,-187500.02235174447,-586.1074431070618,-187500.02235174447,-187500.02235174447,-187500.02235174447,-187500.02235174447,-187500.02235174447,1730329640.8005743,1730329640.059127,2000
-3724.8288064991007,-187500.02235174447,-587.3144373076484,-187500.02235174447,-187500.02235174447,-187500.02235174447,-187500.02235174447,-187500.02235174447,1730329640.8044157,1730329640.059127,2000
-3737.368135138528,-187500.02235174447,-553.2280270133051,-187500.02235174447,-187500.02235174447,-187500.02235174447,-187500.02235174447,-187500.02235174447,1730329640.8074467,1730329640.059127,2000
-3834.933499685944,-187500.02235174447,-547.2154077548275,-187500.02235174447,-187500.02235174447,-187500.02235174447,-187500.02235174447,-187500.02235174447,1730329640.8114443,1730329640.059127,2000
-3836.9228049424655,-187500.02235174447,-582.5311639942126,-187500.02235174447,-187500.02235174447,-187500.02235174447,-187500.02235174447,-187500.02235174447,1730329640.8156402,1730329640.059127,2000
-3744.7442108087794,-187500.02235174447,-597.2833153347153,-187500.02235174447,-187500.02235174447,-187500.02235174447,-187500.02235174447,-187500.02235174447,1730329640.8194618,1730329640.059127,2000
-3731.131998435497,-187500.02235174447,-564.9850445967966,-187500.02235174447,-187500.02235174447,-187500.02235174447,-187500.02235174447,-187500.02235174447,1730329640.8236592,1730329640.059127,2000
-3826.126912370552,-187500.02235174447,-549.6070444115454,-187500.02235174447,-187500.02235174447,-187500.02235174447,-187500.02235174447,-187500.02235174447,1730329640.8291829,1730329640.059127,2000
-3849.328023115161,-187500.02235174447,-576.6750069469222,-187500.02235174447,-187500.02235174447,-187500.02235174447,-187500.02235174447,-187500.02235174447,1730329640.8329978,1730329640.059127,2000
-3762.692661606391,-187500.02235174447,-600.8595944475644,-187500.02235174447,-187500.02235174447,-187500.02235174447,-187500.02235174447,-187500.02235174447,1730329640.8355167,1730329640.059127,2000
-3727.2204431558175,-187500.02235174447,-579.714844192844,-187500.02235174447,-187500.02235174447,-187500.02235174447,-187500.02235174447,-187500.02235174447,1730329640.839696,1730329640.059127,2000
-3810.123063340553,-187500.02235174447,-551.9539775793526,-187500.02235174447,-187500.02235174447,-187500.02235174447,-187500.02235174447,-187500.02235174447,1730329640.8434925,1730329640.059127,2000
-3860.056860453709,-187500.02235174447,-575.8032889131653,-187500.02235174447,-187500.02235174447,-187500.02235174447,-187500.02235174447,-187500.02235174447,1730329640.8477485,1730329640.059127,2000
-3786.497269451293,-187500.02235174447,-609.2414986183046,-187500.02235174447,-187500.02235174447,-187500.02235174447,-187500.02235174447,-187500.02235174447,1730329640.8516588,1730329640.059127,2000
-3729.142693178975,-187500.02235174447,-591.6730274764333,-187500.02235174447,-187500.02235174447,-187500.02235174447,-187500.02235174447,-187500.02235174447,1730329640.856557,1730329640.059127,2000
-3800.623571947047,-187500.02235174447,-562.3475387510704,-187500.02235174447,-187500.02235174447,-187500.02235174447,-187500.02235174447,-187500.02235174447,1730329640.8605168,1730329640.059127,2000
-3865.264816911795,-187500.02235174447,-575.5350679797016,-187500.02235174447,-187500.02235174447,-187500.02235174447,-187500.02235174447,-187500.02235174447,1730329640.8637033,1730329640.059127,2000
-3807.932592383933,-187500.02235174447,-613.0859986646175,-187500.02235174447,-187500.02235174447,-187500.02235174447,-187500.02235174447,-187500.02235174447,1730329640.8675897,1730329640.059127,2000
-3734.104780448053,-187500.02235174447,-606.7381032393102,-187500.02235174447,-187500.02235174447,-187500.02235174447,-187500.02235174447,-187500.02235174447,1730329640.8717663,1730329640.059127,2000
-3783.9938740722982,-187500.02235174447,-569.3436347655816,-187500.02235174447,-187500.02235174447,-187500.02235174447,-187500.02235174447,-187500.02235174447,1730329640.8757925,1730329640.059127,2000
-3862.917883743988,-187500.02235174447,-567.77901265371,-187500.02235174447,-187500.02235174447,-187500.02235174447,-187500.02235174447,-187500.02235174447,1730329640.879752,1730329640.059127,2000
-3820.8966041680105,-187500.02235174447,-606.7828067282209,-187500.02235174447,-187500.02235174447,-187500.02235174447,-187500.02235174447,-187500.02235174447,1730329640.8838189,1730329640.059127,2000
-3734.440056614883,-187500.02235174447,-605.4193503164471,-187500.02235174447,-187500.02235174447,-187500.02235174447,-187500.02235174447,-187500.02235174447,1730329640.8885305,1730329640.059127,2000
-3761.329205194617,-187500.02235174447,-564.0909748185843,-187500.02235174447,-187500.02235174447,-187500.02235174447,-187500.02235174447,-187500.02235174447,1730329640.8916104,1730329640.059127,2000
-3852.9937092058312,-187500.02235174447,-558.8159631271319,-187500.02235174447,-187500.02235174447,-187500.02235174447,-187500.02235174447,-187500.02235174447,1730329640.8956163,1730329640.059127,2000
-3829.591432761125,-187500.02235174447,-585.034559373207,-187500.02235174447,-187500.02235174447,-187500.02235174447,-187500.02235174447,-187500.02235174447,1730329640.899662,1730329640.059127,2000
-3730.528501335204,-187500.02235174447,-576.9655796248412,-187500.02235174447,-187500.02235174447,-187500.02235174447,-187500.02235174447,-187500.02235174447,1730329640.9036417,1730329640.059127,2000
-3744.118361964031,-187500.02235174447,-527.3447069340596,-187500.02235174447,-187500.02235174447,-187500.02235174447,-187500.02235174447,-187500.02235174447,1730329640.9076147,1730329640.059127,2000
-3841.035525922242,-187500.02235174447,-515.9676690063083,-187500.02235174447,-187500.02235174447,-187500.02235174447,-187500.02235174447,-187500.02235174447,1730329640.9118123,1730329640.059127,2000
-3837.2580811092953,-187500.02235174447,-576.8314691581094,-187500.02235174447,-187500.02235174447,-187500.02235174447,-187500.02235174447,-187500.02235174447,1730329640.915762,1730329640.059127,2000
-3750.9356440228994,-187500.02235174447,-618.0704376781509,-187500.02235174447,-187500.02235174447,-187500.02235174447,-187500.02235174447,-187500.02235174447,1730329640.9186523,1730329640.059127,2000
-3735.8929200044777,-187500.02235174447,-552.780992124199,-187500.02235174447,-187500.02235174447,-187500.02235174447,-187500.02235174447,-187500.02235174447,1730329640.92307,1730329640.059127,2000
-3837.5710055316695,-187500.02235174447,-508.7257038027888,-187500.02235174447,-187500.02235174447,-187500.02235174447,-187500.02235174447,-187500.02235174447,1730329640.9276187,1730329640.059127,2000
-3874.7643083053,-187500.02235174447,-544.8461228425649,-187500.02235174447,-187500.02235174447,-187500.02235174447,-187500.02235174447,-187500.02235174447,1730329640.9318607,1730329640.059127,2000
-3772.169801255441,-187500.02235174447,-561.006434083752,-187500.02235174447,-187500.02235174447,-187500.02235174447,-187500.02235174447,-187500.02235174447,1730329640.935824,1730329640.059127,2000
-3722.079541931098,-187500.02235174447,-574.037501101196,-187500.02235174447,-187500.02235174447,-187500.02235174447,-187500.02235174447,-187500.02235174447,1730329640.9402833,1730329640.059127,2000
-3800.243592291307,-187500.02235174447,-589.5496117531791,-187500.02235174447,-187500.02235174447,-187500.02235174447,-187500.02235174447,-187500.02235174447,1730329640.9436665,1730329640.059127,2000
-3856.994671463332,-187500.02235174447,-589.9966466422852,-187500.02235174447,-187500.02235174447,-187500.02235174447,-187500.02235174447,-187500.02235174447,1730329640.946908,1730329640.059127,2000
-3805.250383049296,-187500.02235174447,-540.2863669736823,-187500.02235174447,-187500.02235174447,-187500.02235174447,-187500.02235174447,-187500.02235174447,1730329640.9518113,1730329640.059127,2000
-3734.887091503989,-187500.02235174447,-417.84351084751023,-187500.02235174447,-187500.02235174447,-187500.02235174447,-187500.02235174447,-187500.02235174447,1730329640.956306,1730329640.059127,2000
-3766.8500860750783,-187500.02235174447,-452.4887147532362,-187500.02235174447,-187500.02235174447,-187500.02235174447,-187500.02235174447,-187500.02235174447,1730329640.9600873,1730329640.059127,2000
-3841.4155055779834,-187500.02235174447,-625.5359203262235,-187500.02235174447,-187500.02235174447,-187500.02235174447,-187500.02235174447,-187500.02235174447,1730329640.9637752,1730329640.059127,2000
-3787.436042718416,-187500.02235174447,-642.0538594786954,-187500.02235174447,-187500.02235174447,-187500.02235174447,-187500.02235174447,-187500.02235174447,1730329640.9683104,1730329640.059127,2000
-3702.9240969329,-187500.02235174447,-622.2725656357486,-187500.02235174447,-187500.02235174447,-187500.02235174447,-187500.02235174447,-187500.02235174447,1730329640.9715798,1730329640.059127,2000
-3740.296213662173,-187500.02235174447,-549.942320578375,-187500.02235174447,-187500.02235174447,-187500.02235174447,-187500.02235174447,-187500.02235174447,1730329640.9752223,1730329640.059127,2000
-3824.4058280474937,-187500.02235174447,-514.4030468944368,-187500.02235174447,-187500.02235174447,-187500.02235174447,-187500.02235174447,-187500.02235174447,1730329640.9790113,1730329640.059127,2000
-3809.296048795706,-187500.02235174447,-576.3620825245479,-187500.02235174447,-187500.02235174447,-187500.02235174447,-187500.02235174447,-187500.02235174447,1730329640.9843304,1730329640.059127,2000
-3724.225309398808,-187500.02235174447,-630.6321180620334,-187500.02235174447,-187500.02235174447,-187500.02235174447,-187500.02235174447,-187500.02235174447,1730329640.9885528,1730329640.059127,2000
-3738.530425850204,-187500.02235174447,-569.9471318658748,-187500.02235174447,-187500.02235174447,-187500.02235174447,-187500.02235174447,-187500.02235174447,1730329640.992463,1730329640.059127,2000
-3838.398020076516,-187500.02235174447,-550.0540793006516,-187500.02235174447,-187500.02235174447,-187500.02235174447,-187500.02235174447,-187500.02235174447,1730329640.9959936,1730329640.059127,2000
-3860.079212198164,-187500.02235174447,-538.0511925281517,-187500.02235174447,-187500.02235174447,-187500.02235174447,-187500.02235174447,-187500.02235174447,1730329641.0003445,1730329640.059127,2000
-3745.615928842537,-187500.02235174447,-476.1368603869511,-187500.02235174447,-187500.02235174447,-187500.02235174447,-187500.02235174447,-187500.02235174447,1730329641.0028052,1730329640.059127,2000
-3689.0660153706094,-187500.02235174447,-509.4409596253586,-187500.02235174447,-187500.02235174447,-187500.02235174447,-187500.02235174447,-187500.02235174447,1730329641.0068097,1730329640.059127,2000
-3792.398129987494,-187500.02235174447,-579.7818994262099,-187500.02235174447,-187500.02235174447,-187500.02235174447,-187500.02235174447,-187500.02235174447,1730329641.0119393,1730329640.059127,2000
-3823.802330947201,-187500.02235174447,-548.0200705552186,-187500.02235174447,-187500.02235174447,-187500.02235174447,-187500.02235174447,-187500.02235174447,1730329641.016143,1730329640.059127,2000
-3689.356588048529,-187500.02235174447,-572.8305069006094,-187500.02235174447,-187500.02235174447,-187500.02235174447,-187500.02235174447,-187500.02235174447,1730329641.019974,1730329640.059127,2000
-3665.44022148135,-187500.02235174447,-600.7254839808326,-187500.02235174447,-187500.02235174447,-187500.02235174447,-187500.02235174447,-187500.02235174447,1730329641.0232964,1730329640.059127,2000
-3809.676028451446,-187500.02235174447,-566.2143905418385,-187500.02235174447,-187500.02235174447,-187500.02235174447,-187500.02235174447,-187500.02235174447,1730329641.0268264,1730329640.059127,2000
-3816.962697143877,-187500.02235174447,-592.5894489991008,-187500.02235174447,-187500.02235174447,-187500.02235174447,-187500.02235174447,-187500.02235174447,1730329641.031453,1730329640.059127,2000
-3744.721859064324,-187500.02235174447,-634.0295832192402,-187500.02235174447,-187500.02235174447,-187500.02235174447,-187500.02235174447,-187500.02235174447,1730329641.0350063,1730329640.059127,2000
-3726.4381320998823,-187500.02235174447,-581.8606116605534,-187500.02235174447,-187500.02235174447,-187500.02235174447,-187500.02235174447,-187500.02235174447,1730329641.0404377,1730329640.059127,2000
-3765.240760474296,-187500.02235174447,-545.360212965037,-187500.02235174447,-187500.02235174447,-187500.02235174447,-187500.02235174447,-187500.02235174447,1730329641.0438435,1730329640.059127,2000
-3829.613784505581,-187500.02235174447,-569.5000969767686,-187500.02235174447,-187500.02235174447,-187500.02235174447,-187500.02235174447,-187500.02235174447,1730329641.0481734,1730329640.059127,2000
-3829.5690810166698,-187500.02235174447,-541.2027884963499,-187500.02235174447,-187500.02235174447,-187500.02235174447,-187500.02235174447,-187500.02235174447,1730329641.0508728,1730329640.059127,2000
-3750.2203882003296,-187500.02235174447,-472.8064504631103,-187500.02235174447,-187500.02235174447,-187500.02235174447,-187500.02235174447,-187500.02235174447,1730329641.0554714,1730329640.059127,2000
-3771.588655899603,-187500.02235174447,-499.29326764264914,-187500.02235174447,-187500.02235174447,-187500.02235174447,-187500.02235174447,-187500.02235174447,1730329641.0590744,1730329640.059127,2000
-3870.6068838366136,-187500.02235174447,-591.3153995651484,-187500.02235174447,-187500.02235174447,-187500.02235174447,-187500.02235174447,-187500.02235174447,1730329641.0631,1730329640.059127,2000
-3832.072476395664,-187500.02235174447,-583.3134750501484,-187500.02235174447,-187500.02235174447,-187500.02235174447,-187500.02235174447,-187500.02235174447,1730329641.0682678,1730329640.059127,2000
-3739.715068306335,-187500.02235174447,-519.9686312638082,-187500.02235174447,-187500.02235174447,-187500.02235174447,-187500.02235174447,-187500.02235174447,1730329641.072088,1730329640.059127,2000
-3765.821905830134,-187500.02235174447,-497.9074594864201,-187500.02235174447,-187500.02235174447,-187500.02235174447,-187500.02235174447,-187500.02235174447,1730329641.076265,1730329640.059127,2000
-3868.90815125801,-187500.02235174447,-568.8295446431094,-187500.02235174447,-187500.02235174447,-187500.02235174447,-187500.02235174447,-187500.02235174447,1730329641.0792463,1730329640.059127,2000
-3841.214339877885,-187500.02235174447,-593.6623327329556,-187500.02235174447,-187500.02235174447,-187500.02235174447,-187500.02235174447,-187500.02235174447,1730329641.0833366,1730329640.059127,2000
-3755.562455125148,-187500.02235174447,-571.6458644444781,-187500.02235174447,-187500.02235174447,-187500.02235174447,-187500.02235174447,-187500.02235174447,1730329641.0869665,1730329640.059127,2000
-3778.9423798253993,-187500.02235174447,-519.1192649745066,-187500.02235174447,-187500.02235174447,-187500.02235174447,-187500.02235174447,-187500.02235174447,1730329641.0915403,1730329640.059127,2000
-3861.912055243499,-187500.02235174447,-510.200918936839,-187500.02235174447,-187500.02235174447,-187500.02235174447,-187500.02235174447,-187500.02235174447,1730329641.096168,1730329640.059127,2000
-3879.391119407549,-187500.02235174447,-542.4768379303024,-187500.02235174447,-187500.02235174447,-187500.02235174447,-187500.02235174447,-187500.02235174447,1730329641.100499,1730329640.059127,2000
-3809.273697051251,-187500.02235174447,-472.8288022075656,-187500.02235174447,-187500.02235174447,-187500.02235174447,-187500.02235174447,-187500.02235174447,1730329641.1042511,1730329640.059127,2000
-3795.527374211237,-187500.02235174447,-458.6130927339903,-187500.02235174447,-187500.02235174447,-187500.02235174447,-187500.02235174447,-187500.02235174447,1730329641.1071212,1730329640.059127,2000
-3818.929650655944,-187500.02235174447,-579.2454575592825,-187500.02235174447,-187500.02235174447,-187500.02235174447,-187500.02235174447,-187500.02235174447,1730329641.1109953,1730329640.059127,2000
-3848.724526014868,-187500.02235174447,-597.4844810348131,-187500.02235174447,-187500.02235174447,-187500.02235174447,-187500.02235174447,-187500.02235174447,1730329641.115625,1730329640.059127,2000
-3768.928798309421,-187500.02235174447,-623.5019115807905,-187500.02235174447,-187500.02235174447,-187500.02235174447,-187500.02235174447,-187500.02235174447,1730329641.1190035,1730329640.059127,2000
-3739.938585750888,-187500.02235174447,-590.9354199094081,-187500.02235174447,-187500.02235174447,-187500.02235174447,-187500.02235174447,-187500.02235174447,1730329641.123427,1730329640.059127,2000
-3848.791581248234,-187500.02235174447,-552.2445502572716,-187500.02235174447,-187500.02235174447,-187500.02235174447,-187500.02235174447,-187500.02235174447,1730329641.1279793,1730329640.059127,2000
-3872.797354793234,-187500.02235174447,-555.619663670023,-187500.02235174447,-187500.02235174447,-187500.02235174447,-187500.02235174447,-187500.02235174447,1730329641.1312191,1730329640.059127,2000
-3805.630362705036,-187500.02235174447,-573.2328383008049,-187500.02235174447,-187500.02235174447,-187500.02235174447,-187500.02235174447,-187500.02235174447,1730329641.1349895,1730329640.059127,2000
-3747.962862010344,-187500.02235174447,-535.5701488936126,-187500.02235174447,-187500.02235174447,-187500.02235174447,-187500.02235174447,-187500.02235174447,1730329641.1392748,1730329640.059127,2000
-3819.577851245148,-187500.02235174447,-512.3690381490038,-187500.02235174447,-187500.02235174447,-187500.02235174447,-187500.02235174447,-187500.02235174447,1730329641.1433868,1730329640.059127,2000
-3878.564104862703,-187500.02235174447,-577.2561523027603,-187500.02235174447,-187500.02235174447,-187500.02235174447,-187500.02235174447,-187500.02235174447,1730329641.1471412,1730329640.059127,2000
-3824.942269914421,-187500.02235174447,-570.3718150105257,-187500.02235174447,-187500.02235174447,-187500.02235174447,-187500.02235174447,-187500.02235174447,1730329641.1512413,1730329640.059127,2000
-3750.2427399447847,-187500.02235174447,-567.3319777646038,-187500.02235174447,-187500.02235174447,-187500.02235174447,-187500.02235174447,-187500.02235174447,1730329641.1561337,1730329640.059127,2000
-3814.7051709538905,-187500.02235174447,-540.4204774404142,-187500.02235174447,-187500.02235174447,-187500.02235174447,-187500.02235174447,-187500.02235174447,1730329641.159412,1730329640.059127,2000
-3925.167492052018,-187500.02235174447,-510.2903259146602,-187500.02235174447,-187500.02235174447,-187500.02235174447,-187500.02235174447,-187500.02235174447,1730329641.1635787,1730329640.059127,2000
-3890.298770701739,-187500.02235174447,-488.7655960041996,-187500.02235174447,-187500.02235174447,-187500.02235174447,-187500.02235174447,-187500.02235174447,1730329641.167179,1730329640.059127,2000
-3752.030879501209,-187500.02235174447,-573.9033906344641,-187500.02235174447,-187500.02235174447,-187500.02235174447,-187500.02235174447,-187500.02235174447,1730329641.1715877,1730329640.059127,2000
-3772.885057078011,-187500.02235174447,-588.4990797637796,-187500.02235174447,-187500.02235174447,-187500.02235174447,-187500.02235174447,-187500.02235174447,1730329641.1755404,1730329640.059127,2000
-3880.57576186368,-187500.02235174447,-566.8849428754977,-187500.02235174447,-187500.02235174447,-187500.02235174447,-187500.02235174447,-187500.02235174447,1730329641.179315,1730329640.059127,2000
-3866.874142512577,-187500.02235174447,-592.2318210878159,-187500.02235174447,-187500.02235174447,-187500.02235174447,-187500.02235174447,-187500.02235174447,1730329641.1847527,1730329640.059127,2000
-3776.818964102145,-187500.02235174447,-593.1482426104835,-187500.02235174447,-187500.02235174447,-187500.02235174447,-187500.02235174447,-187500.02235174447,1730329641.1870644,1730329640.059127,2000
-3773.55560941167,-187500.02235174447,-565.0073963412519,-187500.02235174447,-187500.02235174447,-187500.02235174447,-187500.02235174447,-187500.02235174447,1730329641.191348,1730329640.059127,2000
-3876.887724028554,-187500.02235174447,-560.5370474501905,-187500.02235174447,-187500.02235174447,-187500.02235174447,-187500.02235174447,-187500.02235174447,1730329641.1952302,1730329640.059127,2000
-3915.3997797250486,-187500.02235174447,-566.7955358976765,-187500.02235174447,-187500.02235174447,-187500.02235174447,-187500.02235174447,-187500.02235174447,1730329641.1994703,1730329640.059127,2000
-3827.155092615496,-187500.02235174447,-538.364116950526,-187500.02235174447,-187500.02235174447,-187500.02235174447,-187500.02235174447,-187500.02235174447,1730329641.2030852,1730329640.059127,2000
-3802.3446562701056,-187500.02235174447,-477.70148249882254,-187500.02235174447,-187500.02235174447,-187500.02235174447,-187500.02235174447,-187500.02235174447,1730329641.20728,1730329640.059127,2000
-3910.817672111711,-187500.02235174447,-479.5343255441577,-187500.02235174447,-187500.02235174447,-187500.02235174447,-187500.02235174447,-187500.02235174447,1730329641.2123656,1730329640.059127,2000
-3912.7622738793225,-187500.02235174447,-554.8597043585426,-187500.02235174447,-187500.02235174447,-187500.02235174447,-187500.02235174447,-187500.02235174447,1730329641.2154496,1730329640.059127,2000
-3779.836449603612,-187500.02235174447,-551.7751636237101,-187500.02235174447,-187500.02235174447,-187500.02235174447,-187500.02235174447,-187500.02235174447,1730329641.2191217,1730329640.059127,2000
-3752.2320452013073,-187500.02235174447,-565.8344108860983,-187500.02235174447,-187500.02235174447,-187500.02235174447,-187500.02235174447,-187500.02235174447,1730329641.2234228,1730329640.059127,2000
-3847.517531814281,-187500.02235174447,-587.8955826634864,-187500.02235174447,-187500.02235174447,-187500.02235174447,-187500.02235174447,-187500.02235174447,1730329641.227121,1730329640.059127,2000
-3907.554317421236,-187500.02235174447,-560.4029369834586,-187500.02235174447,-187500.02235174447,-187500.02235174447,-187500.02235174447,-187500.02235174447,1730329641.2314746,1730329640.059127,2000
-3807.172633072452,-187500.02235174447,-527.5458726341573,-187500.02235174447,-187500.02235174447,-187500.02235174447,-187500.02235174447,-187500.02235174447,1730329641.2353475,1730329640.059127,2000
-3754.444867902383,-187500.02235174447,-551.9986810682632,-187500.02235174447,-187500.02235174447,-187500.02235174447,-187500.02235174447,-187500.02235174447,1730329641.2406936,1730329640.059127,2000
-3830.66431649498,-187500.02235174447,-563.0627945736402,-187500.02235174447,-187500.02235174447,-187500.02235174447,-187500.02235174447,-187500.02235174447,1730329641.2431002,1730329640.059127,2000
-3903.5086516748256,-187500.02235174447,-568.6060271985564,-187500.02235174447,-187500.02235174447,-187500.02235174447,-187500.02235174447,-187500.02235174447,1730329641.2463343,1730329640.059127,2000
-3863.521380844281,-187500.02235174447,-559.1065358050508,-187500.02235174447,-187500.02235174447,-187500.02235174447,-187500.02235174447,-187500.02235174447,1730329641.2513666,1730329640.059127,2000
-3781.691644393402,-187500.02235174447,-566.5273149642128,-187500.02235174447,-187500.02235174447,-187500.02235174447,-187500.02235174447,-187500.02235174447,1730329641.2552123,1730329640.059127,2000
-3821.097769868108,-187500.02235174447,-499.3603228760151,-187500.02235174447,-187500.02235174447,-187500.02235174447,-187500.02235174447,-187500.02235174447,1730329641.2592466,1730329640.059127,2000
-3906.168509265007,-187500.02235174447,-426.51598769616936,-187500.02235174447,-187500.02235174447,-187500.02235174447,-187500.02235174447,-187500.02235174447,1730329641.26382,1730329640.059127,2000
-3871.903285015021,-187500.02235174447,-507.0493229686407,-187500.02235174447,-187500.02235174447,-187500.02235174447,-187500.02235174447,-187500.02235174447,1730329641.2663374,1730329640.059127,2000
-3764.2349319738073,-187500.02235174447,-596.8586321900644,-187500.02235174447,-187500.02235174447,-187500.02235174447,-187500.02235174447,-187500.02235174447,1730329641.27025,1730329640.059127,2000
-3754.713088835847,-187500.02235174447,-586.4203675294361,-187500.02235174447,-187500.02235174447,-187500.02235174447,-187500.02235174447,-187500.02235174447,1730329641.2747009,1730329640.059127,2000
-3857.24054065234,-187500.02235174447,-542.2756722302047,-187500.02235174447,-187500.02235174447,-187500.02235174447,-187500.02235174447,-187500.02235174447,1730329641.2799163,1730329640.059127,2000
-3895.618485882102,-187500.02235174447,-541.940396063375,-187500.02235174447,-187500.02235174447,-187500.02235174447,-187500.02235174447,-187500.02235174447,1730329641.2838168,1730329640.059127,2000
-3793.135737554519,-187500.02235174447,-513.3748666494926,-187500.02235174447,-187500.02235174447,-187500.02235174447,-187500.02235174447,-187500.02235174447,1730329641.2874572,1730329640.059127,2000
-3740.1621031954414,-187500.02235174447,-579.3125127926485,-187500.02235174447,-187500.02235174447,-187500.02235174447,-187500.02235174447,-187500.02235174447,1730329641.2911773,1730329640.059127,2000
-3850.803238249212,-187500.02235174447,-553.8538758580537,-187500.02235174447,-187500.02235174447,-187500.02235174447,-187500.02235174447,-187500.02235174447,1730329641.294234,1730329640.059127,2000
-3924.20636704044,-187500.02235174447,-529.19990172385,-187500.02235174447,-187500.02235174447,-187500.02235174447,-187500.02235174447,-187500.02235174447,1730329641.2984188,1730329640.059127,2000
-3815.599240732103,-187500.02235174447,-570.3941667549809,-187500.02235174447,-187500.02235174447,-187500.02235174447,-187500.02235174447,-187500.02235174447,1730329641.3022344,1730329640.059127,2000
-3780.507001937271,-187500.02235174447,-556.0219950702185,-187500.02235174447,-187500.02235174447,-187500.02235174447,-187500.02235174447,-187500.02235174447,1730329641.3071983,1730329640.059127,2000
-3856.592340063136,-187500.02235174447,-466.1903341043394,-187500.02235174447,-187500.02235174447,-187500.02235174447,-187500.02235174447,-187500.02235174447,1730329641.311283,1730329640.059127,2000
-3854.8265522511674,-187500.02235174447,-462.6587584804009,-187500.02235174447,-187500.02235174447,-187500.02235174447,-187500.02235174447,-187500.02235174447,1730329641.3153768,1730329640.059127,2000
-3805.786824916223,-187500.02235174447,-574.6857016903999,-187500.02235174447,-187500.02235174447,-187500.02235174447,-187500.02235174447,-187500.02235174447,1730329641.3192272,1730329640.059127,2000
-3790.3194177531504,-187500.02235174447,-595.4951757782908,-187500.02235174447,-187500.02235174447,-187500.02235174447,-187500.02235174447,-187500.02235174447,1730329641.322534,1730329640.059127,2000
-3878.742918818345,-187500.02235174447,-495.1581949184173,-187500.02235174447,-187500.02235174447,-187500.02235174447,-187500.02235174447,-187500.02235174447,1730329641.32649,1730329640.059127,2000
-3868.7963925357335,-187500.02235174447,-509.0386282251631,-187500.02235174447,-187500.02235174447,-187500.02235174447,-187500.02235174447,-187500.02235174447,1730329641.3304465,1730329640.059127,2000
-3792.174612542941,-187500.02235174447,-602.6477340039891,-187500.02235174447,-187500.02235174447,-187500.02235174447,-187500.02235174447,-187500.02235174447,1730329641.3344202,1730329640.059127,2000
-3742.062001474143,-187500.02235174447,-600.8372427031092,-187500.02235174447,-187500.02235174447,-187500.02235174447,-187500.02235174447,-187500.02235174447,1730329641.3393848,1730329640.059127,2000
-3834.5982235191136,-187500.02235174447,-512.5702038491015,-187500.02235174447,-187500.02235174447,-187500.02235174447,-187500.02235174447,-187500.02235174447,1730329641.3432372,1730329640.059127,2000
-3924.58634669618,-187500.02235174447,-538.1182477615175,-187500.02235174447,-187500.02235174447,-187500.02235174447,-187500.02235174447,-187500.02235174447,1730329641.3473806,1730329640.059127,2000
-3866.8294390236665,-187500.02235174447,-580.1618790819501,-187500.02235174447,-187500.02235174447,-187500.02235174447,-187500.02235174447,-187500.02235174447,1730329641.3504455,1730329640.059127,2000
-3776.595446657592,-187500.02235174447,-561.3193585061263,-187500.02235174447,-187500.02235174447,-187500.02235174447,-187500.02235174447,-187500.02235174447,1730329641.3543608,1730329640.059127,2000
-3807.016170861265,-187500.02235174447,-558.5924456825788,-187500.02235174447,-187500.02235174447,-187500.02235174447,-187500.02235174447,-187500.02235174447,1730329641.3584285,1730329640.059127,2000
-3871.255084425817,-187500.02235174447,-545.8743030875091,-187500.02235174447,-187500.02235174447,-187500.02235174447,-187500.02235174447,-187500.02235174447,1730329641.362336,1730329640.059127,2000
-3825.9928019038207,-187500.02235174447,-564.359195752048,-187500.02235174447,-187500.02235174447,-187500.02235174447,-187500.02235174447,-187500.02235174447,1730329641.3674705,1730329640.059127,2000
-3717.184509895386,-187500.02235174447,-606.2463648612935,-187500.02235174447,-187500.02235174447,-187500.02235174447,-187500.02235174447,-187500.02235174447,1730329641.3714972,1730329640.059127,2000
-3781.602237415581,-187500.02235174447,-561.4981724617687,-187500.02235174447,-187500.02235174447,-187500.02235174447,-187500.02235174447,-187500.02235174447,1730329641.3744938,1730329640.059127,2000
-3864.214284922396,-187500.02235174447,-531.3680209360148,-187500.02235174447,-187500.02235174447,-187500.02235174447,-187500.02235174447,-187500.02235174447,1730329641.3783696,1730329640.059127,2000
-3898.300695216739,-187500.02235174447,-488.5420785596465,-187500.02235174447,-187500.02235174447,-187500.02235174447,-187500.02235174447,-187500.02235174447,1730329641.3825204,1730329640.059127,2000
-3789.492403208304,-187500.02235174447,-525.2883464441712,-187500.02235174447,-187500.02235174447,-187500.02235174447,-187500.02235174447,-187500.02235174447,1730329641.386377,1730329640.059127,2000
-3760.613949372048,-187500.02235174447,-604.391170071503,-187500.02235174447,-187500.02235174447,-187500.02235174447,-187500.02235174447,-187500.02235174447,1730329641.3905776,1730329640.059127,2000
-3863.6107878221023,-187500.02235174447,-576.5855999691009,-187500.02235174447,-187500.02235174447,-187500.02235174447,-187500.02235174447,-187500.02235174447,1730329641.3955083,1730329640.059127,2000
-3894.880878315077,-187500.02235174447,-567.1084603200508,-187500.02235174447,-187500.02235174447,-187500.02235174447,-187500.02235174447,-187500.02235174447,1730329641.3995695,1730329640.059127,2000
-3817.141511099519,-187500.02235174447,-562.1240213065173,-187500.02235174447,-187500.02235174447,-187500.02235174447,-187500.02235174447,-187500.02235174447,1730329641.4023547,1730329640.059127,2000
-3789.917086352955,-187500.02235174447,-575.1550883239613,-187500.02235174447,-187500.02235174447,-187500.02235174447,-187500.02235174447,-187500.02235174447,1730329641.406402,1730329640.059127,2000
-3839.269738110273,-187500.02235174447,-568.5613237096458,-187500.02235174447,-187500.02235174447,-187500.02235174447,-187500.02235174447,-187500.02235174447,1730329641.4103303,1730329640.059127,2000
-3886.744843333345,-187500.02235174447,-605.4417020609025,-187500.02235174447,-187500.02235174447,-187500.02235174447,-187500.02235174447,-187500.02235174447,1730329641.4148333,1730329640.059127,2000
-3826.305726326195,-187500.02235174447,-627.614632560567,-187500.02235174447,-187500.02235174447,-187500.02235174447,-187500.02235174447,-187500.02235174447,1730329641.4184184,1730329640.059127,2000
-3767.3865279420056,-187500.02235174447,-590.3319228091149,-187500.02235174447,-187500.02235174447,-187500.02235174447,-187500.02235174447,-187500.02235174447,1730329641.42291,1730329640.059127,2000
-3820.203700089896,-187500.02235174447,-562.2357800287939,-187500.02235174447,-187500.02235174447,-187500.02235174447,-187500.02235174447,-187500.02235174447,1730329641.4274735,1730329640.059127,2000
-3895.640837626557,-187500.02235174447,-547.1707042659169,-187500.02235174447,-187500.02235174447,-187500.02235174447,-187500.02235174447,-187500.02235174447,1730329641.4308467,1730329640.059127,2000
-3869.042261724742,-187500.02235174447,-555.7984776256654,-187500.02235174447,-187500.02235174447,-187500.02235174447,-187500.02235174447,-187500.02235174447,1730329641.4347134,1730329640.059127,2000
-3742.26316717424,-187500.02235174447,-596.4786525343243,-187500.02235174447,-187500.02235174447,-187500.02235174447,-187500.02235174447,-187500.02235174447,1730329641.4386072,1730329640.059127,2000
-3752.120286479031,-187500.02235174447,-586.4203675294361,-187500.02235174447,-187500.02235174447,-187500.02235174447,-187500.02235174447,-187500.02235174447,1730329641.4429712,1730329640.059127,2000
-3852.47961908336,-187500.02235174447,-563.3086637626486,-187500.02235174447,-187500.02235174447,-187500.02235174447,-187500.02235174447,-187500.02235174447,1730329641.4466252,1730329640.059127,2000
-3836.654584009002,-187500.02235174447,-622.5407865692123,-187500.02235174447,-187500.02235174447,-187500.02235174447,-187500.02235174447,-187500.02235174447,1730329641.4509406,1730329640.059127,2000
-3789.55945844167,-187500.02235174447,-590.6671989759444,-187500.02235174447,-187500.02235174447,-187500.02235174447,-187500.02235174447,-187500.02235174447,1730329641.4558637,1730329640.059127,2000
-3776.729557124324,-187500.02235174447,-498.1309769309732,-187500.02235174447,-187500.02235174447,-187500.02235174447,-187500.02235174447,-187500.02235174447,1730329641.4586208,1730329640.059127,2000
-3849.730354515357,-187500.02235174447,-564.7168236633329,-187500.02235174447,-187500.02235174447,-187500.02235174447,-187500.02235174447,-187500.02235174447,1730329641.4626129,1730329640.059127,2000
-3879.8828577855656,-187500.02235174447,-606.8498619615867,-187500.02235174447,-187500.02235174447,-187500.02235174447,-187500.02235174447,-187500.02235174447,1730329641.46662,1730329640.059127,2000
-3785.5137926952593,-187500.02235174447,-582.2852948052043,-187500.02235174447,-187500.02235174447,-187500.02235174447,-187500.02235174447,-187500.02235174447,1730329641.4711888,1730329640.059127,2000
-3754.914254535944,-187500.02235174447,-562.7498701512659,-187500.02235174447,-187500.02235174447,-187500.02235174447,-187500.02235174447,-187500.02235174447,1730329641.474914,1730329640.059127,2000
-3837.481598553849,-187500.02235174447,-581.6370942160004,-187500.02235174447,-187500.02235174447,-187500.02235174447,-187500.02235174447,-187500.02235174447,1730329641.4788096,1730329640.059127,2000
-3872.0150437372977,-187500.02235174447,-592.3882832990031,-187500.02235174447,-187500.02235174447,-187500.02235174447,-187500.02235174447,-187500.02235174447,1730329641.4841547,1730329640.059127,2000
-3786.206696773374,-187500.02235174447,-601.4183880589471,-187500.02235174447,-187500.02235174447,-187500.02235174447,-187500.02235174447,-187500.02235174447,1730329641.48663,1730329640.059127,2000
-3770.158144254464,-187500.02235174447,-560.6711579169223,-187500.02235174447,-187500.02235174447,-187500.02235174447,-187500.02235174447,-187500.02235174447,1730329641.4910035,1730329640.059127,2000
-3873.5349623602583,-187500.02235174447,-547.1707042659169,-187500.02235174447,-187500.02235174447,-187500.02235174447,-187500.02235174447,-187500.02235174447,1730329641.4945345,1730329640.059127,2000
-3897.6748463719914,-187500.02235174447,-601.26192584776,-187500.02235174447,-187500.02235174447,-187500.02235174447,-187500.02235174447,-187500.02235174447,1730329641.4987588,1730329640.059127,2000
-3821.723618712857,-187500.02235174447,-613.5777370426342,-187500.02235174447,-187500.02235174447,-187500.02235174447,-187500.02235174447,-187500.02235174447,1730329641.5025828,1730329640.059127,2000
-3698.721968975302,-187500.02235174447,-538.5429309061684,-187500.02235174447,-187500.02235174447,-187500.02235174447,-187500.02235174447,-187500.02235174447,1730329641.506715,1730329640.059127,2000
-3806.345618527605,-187500.02235174447,-605.4193503164471,-187500.02235174447,-187500.02235174447,-187500.02235174447,-187500.02235174447,-187500.02235174447,1730329641.5105484,1730329640.059127,2000
-3918.976058837898,-187500.02235174447,-613.2201091313493,-187500.02235174447,-187500.02235174447,-187500.02235174447,-187500.02235174447,-187500.02235174447,1730329641.5138085,1730329640.059127,2000
-3812.693513952913,-187500.02235174447,-609.3532573405812,-187500.02235174447,-187500.02235174447,-187500.02235174447,-187500.02235174447,-187500.02235174447,1730329641.518597,1730329640.059127,2000
-3730.103818190553,-187500.02235174447,-621.3784958575363,-187500.02235174447,-187500.02235174447,-187500.02235174447,-187500.02235174447,-187500.02235174447,1730329641.52382,1730329640.059127,2000
-3820.047237878709,-187500.02235174447,-564.9626928523413,-187500.02235174447,-187500.02235174447,-187500.02235174447,-187500.02235174447,-187500.02235174447,1730329641.5276098,1730329640.059127,2000
-3888.2871137007614,-187500.02235174447,-564.068623074129,-187500.02235174447,-187500.02235174447,-187500.02235174447,-187500.02235174447,-187500.02235174447,1730329641.531093,1730329640.059127,2000
-3838.33096484315,-187500.02235174447,-630.9897459733183,-187500.02235174447,-187500.02235174447,-187500.02235174447,-187500.02235174447,-187500.02235174447,1730329641.535598,1730329640.059127,2000
-3756.300062692173,-187500.02235174447,-612.1025219085839,-187500.02235174447,-187500.02235174447,-187500.02235174447,-187500.02235174447,-187500.02235174447,1730329641.538822,1730329640.059127,2000
-3776.103708279575,-187500.02235174447,-571.3329400221038,-187500.02235174447,-187500.02235174447,-187500.02235174447,-187500.02235174447,-187500.02235174447,1730329641.54192,1730329640.059127,2000
-3863.543732588737,-187500.02235174447,-576.3173790356373,-187500.02235174447,-187500.02235174447,-187500.02235174447,-187500.02235174447,-187500.02235174447,1730329641.5467443,1730329640.059127,2000
-3830.396095561516,-187500.02235174447,-626.3629348710698,-187500.02235174447,-187500.02235174447,-187500.02235174447,-187500.02235174447,-187500.02235174447,1730329641.5510116,1730329640.059127,2000
-3781.959865326866,-187500.02235174447,-607.7215799953437,-187500.02235174447,-187500.02235174447,-187500.02235174447,-187500.02235174447,-187500.02235174447,1730329641.555046,1730329640.059127,2000
-3777.9141995804553,-187500.02235174447,-566.616721942034,-187500.02235174447,-187500.02235174447,-187500.02235174447,-187500.02235174447,-187500.02235174447,1730329641.558879,1730329640.059127,2000
-3870.517476858792,-187500.02235174447,-538.9899657952745,-187500.02235174447,-187500.02235174447,-187500.02235174447,-187500.02235174447,-187500.02235174447,1730329641.563145,1730329640.059127,2000
-3860.794468020734,-187500.02235174447,-599.3396758246035,-187500.02235174447,-187500.02235174447,-187500.02235174447,-187500.02235174447,-187500.02235174447,1730329641.5667925,1730329640.059127,2000
-3763.474972662327,-187500.02235174447,-623.2113389028715,-187500.02235174447,-187500.02235174447,-187500.02235174447,-187500.02235174447,-187500.02235174447,1730329641.569678,1730329640.059127,2000
-3740.1621031954414,-187500.02235174447,-603.4076933154695,-187500.02235174447,-187500.02235174447,-187500.02235174447,-187500.02235174447,-187500.02235174447,1730329641.5747616,1730329640.059127,2000
-3852.010232449798,-187500.02235174447,-584.229896572816,-187500.02235174447,-187500.02235174447,-187500.02235174447,-187500.02235174447,-187500.02235174447,1730329641.5789042,1730329640.059127,2000
-3891.036378268764,-187500.02235174447,-598.6244200020337,-187500.02235174447,-187500.02235174447,-187500.02235174447,-187500.02235174447,-187500.02235174447,1730329641.5829785,1730329640.059127,2000
-3802.724635925846,-187500.02235174447,-580.519506993235,-187500.02235174447,-187500.02235174447,-187500.02235174447,-187500.02235174447,-187500.02235174447,1730329641.5868015,1730329640.059127,2000
-3746.621757343026,-187500.02235174447,-599.0938066355952,-187500.02235174447,-187500.02235174447,-187500.02235174447,-187500.02235174447,-187500.02235174447,1730329641.5906224,1730329640.059127,2000
-3828.205624604896,-187500.02235174447,-557.3630997375369,-187500.02235174447,-187500.02235174447,-187500.02235174447,-187500.02235174447,-187500.02235174447,1730329641.5947683,1730329640.059127,2000
-3862.873180255077,-187500.02235174447,-593.9976088997852,-187500.02235174447,-187500.02235174447,-187500.02235174447,-187500.02235174447,-187500.02235174447,1730329641.5979953,1730329640.059127,2000
-3816.269793065762,-187500.02235174447,-636.4882751093239,-187500.02235174447,-187500.02235174447,-187500.02235174447,-187500.02235174447,-187500.02235174447,1730329641.6016436,1730329640.059127,2000
-3763.497324406782,-187500.02235174447,-595.4728240338354,-187500.02235174447,-187500.02235174447,-187500.02235174447,-187500.02235174447,-187500.02235174447,1730329641.6068523,1730329640.059127,2000
-3813.2523075642953,-187500.02235174447,-610.7614172412655,-187500.02235174447,-187500.02235174447,-187500.02235174447,-187500.02235174447,-187500.02235174447,1730329641.6107285,1730329640.059127,2000
-3873.713776315901,-187500.02235174447,-618.8974522229972,-187500.02235174447,-187500.02235174447,-187500.02235174447,-187500.02235174447,-187500.02235174447,1730329641.6152012,1730329640.059127,2000
-3841.23669162234,-187500.02235174447,-621.8031790021872,-187500.02235174447,-187500.02235174447,-187500.02235174447,-187500.02235174447,-187500.02235174447,1730329641.6176963,1730329640.059127,2000
-3776.975426313332,-187500.02235174447,-618.6292312895335,-187500.02235174447,-187500.02235174447,-187500.02235174447,-187500.02235174447,-187500.02235174447,1730329641.6218271,1730329640.059127,2000
-3779.03178680322,-187500.02235174447,-614.4047515874805,-187500.02235174447,-187500.02235174447,-187500.02235174447,-187500.02235174447,-187500.02235174447,1730329641.6261673,1730329640.059127,2000
-3866.896494257032,-187500.02235174447,-604.6817427494219,-187500.02235174447,-187500.02235174447,-187500.02235174447,-187500.02235174447,-187500.02235174447,1730329641.630222,1730329640.059127,2000
-3839.1132758990857,-187500.02235174447,-627.7040395383882,-187500.02235174447,-187500.02235174447,-187500.02235174447,-187500.02235174447,-187500.02235174447,1730329641.6348276,1730329640.059127,2000
-3751.114457978542,-187500.02235174447,-611.2531556192822,-187500.02235174447,-187500.02235174447,-187500.02235174447,-187500.02235174447,-187500.02235174447,1730329641.6389685,1730329640.059127,2000
-3771.298083221684,-187500.02235174447,-586.5991814850786,-187500.02235174447,-187500.02235174447,-187500.02235174447,-187500.02235174447,-187500.02235174447,1730329641.6429636,1730329640.059127,2000
-3838.956813687899,-187500.02235174447,-594.8246234446316,-187500.02235174447,-187500.02235174447,-187500.02235174447,-187500.02235174447,-187500.02235174447,1730329641.6459792,1730329640.059127,2000
-3828.7644182162794,-187500.02235174447,-624.6418505480111,-187500.02235174447,-187500.02235174447,-187500.02235174447,-187500.02235174447,-187500.02235174447,1730329641.6497967,1730329640.059127,2000
-3759.809286571656,-187500.02235174447,-636.2200541758602,-187500.02235174447,-187500.02235174447,-187500.02235174447,-187500.02235174447,-187500.02235174447,1730329641.6537557,1730329640.059127,2000
-3775.74608036829,-187500.02235174447,-589.2143355863495,-187500.02235174447,-187500.02235174447,-187500.02235174447,-187500.02235174447,-187500.02235174447,1730329641.6584506,1730329640.059127,2000
-3837.526302042759,-187500.02235174447,-603.9888386713075,-187500.02235174447,-187500.02235174447,-187500.02235174447,-187500.02235174447,-187500.02235174447,1730329641.6619897,1730329640.059127,2000
-3859.408659864504,-187500.02235174447,-636.2871094092261,-187500.02235174447,-187500.02235174447,-187500.02235174447,-187500.02235174447,-187500.02235174447,1730329641.666803,1730329640.059127,2000
-3770.4263651879273,-187500.02235174447,-647.8429612926199,-187500.02235174447,-187500.02235174447,-187500.02235174447,-187500.02235174447,-187500.02235174447,1730329641.671492,1730329640.059127,2000
-3764.9278360519215,-187500.02235174447,-622.3619726135698,-187500.02235174447,-187500.02235174447,-187500.02235174447,-187500.02235174447,-187500.02235174447,1730329641.6742513,1730329640.059127,2000
-3874.786660049756,-187500.02235174447,-574.2163150568384,-187500.02235174447,-187500.02235174447,-187500.02235174447,-187500.02235174447,-187500.02235174447,1730329641.6778111,1730329640.059127,2000
-3895.327913204183,-187500.02235174447,-593.3047048216707,-187500.02235174447,-187500.02235174447,-187500.02235174447,-187500.02235174447,-187500.02235174447,1730329641.6820471,1730329640.059127,2000
-3785.871420606544,-187500.02235174447,-615.2094143878716,-187500.02235174447,-187500.02235174447,-187500.02235174447,-187500.02235174447,-187500.02235174447,1730329641.6858563,1730329640.059127,2000
-3719.956126207844,-187500.02235174447,-642.5232461122569,-187500.02235174447,-187500.02235174447,-187500.02235174447,-187500.02235174447,-187500.02235174447,1730329641.6901922,1730329640.059127,2000
-3817.2756215662503,-187500.02235174447,-611.5213765527459,-187500.02235174447,-187500.02235174447,-187500.02235174447,-187500.02235174447,-187500.02235174447,1730329641.694983,1730329640.059127,2000
-3884.9567037769207,-187500.02235174447,-619.7468185122989,-187500.02235174447,-187500.02235174447,-187500.02235174447,-187500.02235174447,-187500.02235174447,1730329641.699392,1730329640.059127,2000
-3815.979220387843,-187500.02235174447,-659.0635370091841,-187500.02235174447,-187500.02235174447,-187500.02235174447,-187500.02235174447,-187500.02235174447,1730329641.7018592,1730329640.059127,2000
-3772.169801255441,-187500.02235174447,-631.1462081845056,-187500.02235174447,-187500.02235174447,-187500.02235174447,-187500.02235174447,-187500.02235174447,1730329641.7061708,1730329640.059127,2000
-3826.417485048472,-187500.02235174447,-565.521486463724,-187500.02235174447,-187500.02235174447,-187500.02235174447,-187500.02235174447,-187500.02235174447,1730329641.70982,1730329640.059127,2000
-3900.58057315118,-187500.02235174447,-602.2454026037935,-187500.02235174447,-187500.02235174447,-187500.02235174447,-187500.02235174447,-187500.02235174447,1730329641.7144744,1730329640.059127,2000
-3827.3562583155945,-187500.02235174447,-649.742859571321,-187500.02235174447,-187500.02235174447,-187500.02235174447,-187500.02235174447,-187500.02235174447,1730329641.7181144,1730329640.059127,2000
-3726.952222222355,-187500.02235174447,-661.455173665902,-187500.02235174447,-187500.02235174447,-187500.02235174447,-187500.02235174447,-187500.02235174447,1730329641.72333,1730329640.059127,2000
-3777.489516435804,-187500.02235174447,-652.872103795064,-187500.02235174447,-187500.02235174447,-187500.02235174447,-187500.02235174447,-187500.02235174447,1730329641.7269444,1730329640.059127,2000
-3865.018947722787,-187500.02235174447,-617.7351615113213,-187500.02235174447,-187500.02235174447,-187500.02235174447,-187500.02235174447,-187500.02235174447,1730329641.7304008,1730329640.059127,2000
-3850.825589993666,-187500.02235174447,-629.9168622394636,-187500.02235174447,-187500.02235174447,-187500.02235174447,-187500.02235174447,-187500.02235174447,1730329641.734512,1730329640.059127,2000
-3755.607158614059,-187500.02235174447,-639.0810774661395,-187500.02235174447,-187500.02235174447,-187500.02235174447,-187500.02235174447,-187500.02235174447,1730329641.7384765,1730329640.059127,2000
-3773.9355890674105,-187500.02235174447,-606.4698823058466,-187500.02235174447,-187500.02235174447,-187500.02235174447,-187500.02235174447,-187500.02235174447,1730329641.7421174,1730329640.059127,2000
-3858.738107530845,-187500.02235174447,-595.3834170560142,-187500.02235174447,-187500.02235174447,-187500.02235174447,-187500.02235174447,-187500.02235174447,1730329641.7461083,1730329640.059127,2000
-3836.811046220189,-187500.02235174447,-648.580568859645,-187500.02235174447,-187500.02235174447,-187500.02235174447,-187500.02235174447,-187500.02235174447,1730329641.7511492,1730329640.059127,2000
-3756.992966770288,-187500.02235174447,-650.1228392270613,-187500.02235174447,-187500.02235174447,-187500.02235174447,-187500.02235174447,-187500.02235174447,1730329641.7546244,1730329640.059127,2000
-3763.676138362424,-187500.02235174447,-614.0247719317404,-187500.02235174447,-187500.02235174447,-187500.02235174447,-187500.02235174447,-187500.02235174447,1730329641.757066,1730329640.059127,2000
-3844.343584101628,-187500.02235174447,-605.9781439278298,-187500.02235174447,-187500.02235174447,-187500.02235174447,-187500.02235174447,-187500.02235174447,1730329641.7621596,1730329640.059127,2000
-3870.293959414239,-187500.02235174447,-619.1209696675503,-187500.02235174447,-187500.02235174447,-187500.02235174447,-187500.02235174447,-187500.02235174447,1730329641.7665565,1730329640.059127,2000
-3776.751908868779,-187500.02235174447,-637.1141239540725,-187500.02235174447,-187500.02235174447,-187500.02235174447,-187500.02235174447,-187500.02235174447,1730329641.7700272,1730329640.059127,2000
-3750.823885300623,-187500.02235174447,-612.5272050532348,-187500.02235174447,-187500.02235174447,-187500.02235174447,-187500.02235174447,-187500.02235174447,1730329641.7744024,1730329640.059127,2000
-3845.014136435287,-187500.02235174447,-591.2259925873271,-187500.02235174447,-187500.02235174447,-187500.02235174447,-187500.02235174447,-187500.02235174447,1730329641.7792635,1730329640.059127,2000
-3886.096642744141,-187500.02235174447,-597.3950740569919,-187500.02235174447,-187500.02235174447,-187500.02235174447,-187500.02235174447,-187500.02235174447,1730329641.7823305,1730329640.059127,2000
-3789.380644486027,-187500.02235174447,-643.1043914680948,-187500.02235174447,-187500.02235174447,-187500.02235174447,-187500.02235174447,-187500.02235174447,1730329641.7859304,1730329640.059127,2000
-3718.570318051615,-187500.02235174447,-640.3104234111814,-187500.02235174447,-187500.02235174447,-187500.02235174447,-187500.02235174447,-187500.02235174447,1730329641.790215,1730329640.059127,2000
-3804.557478971181,-187500.02235174447,-643.2385019348267,-187500.02235174447,-187500.02235174447,-187500.02235174447,-187500.02235174447,-187500.02235174447,1730329641.7939377,1730329640.059127,2000
-3915.15391053604,-187500.02235174447,-624.3065743811816,-187500.02235174447,-187500.02235174447,-187500.02235174447,-187500.02235174447,-187500.02235174447,1730329641.7982247,1730329640.059127,2000
-3822.8412059356224,-187500.02235174447,-641.6515280784998,-187500.02235174447,-187500.02235174447,-187500.02235174447,-187500.02235174447,-187500.02235174447,1730329641.8019514,1730329640.059127,2000
-3747.69464107688,-187500.02235174447,-651.8662752945752,-187500.02235174447,-187500.02235174447,-187500.02235174447,-187500.02235174447,-187500.02235174447,1730329641.8071444,1730329640.059127,2000
-3806.2115080608737,-187500.02235174447,-612.9965916867961,-187500.02235174447,-187500.02235174447,-187500.02235174447,-187500.02235174447,-187500.02235174447,1730329641.8099742,1730329640.059127,2000
-3873.3114449157056,-187500.02235174447,-629.0004407167961,-187500.02235174447,-187500.02235174447,-187500.02235174447,-187500.02235174447,-187500.02235174447,1730329641.8135128,1730329640.059127,2000
-3830.843130450622,-187500.02235174447,-625.0888854371174,-187500.02235174447,-187500.02235174447,-187500.02235174447,-187500.02235174447,-187500.02235174447,1730329641.8180697,1730329640.059127,2000
-3728.427437356405,-187500.02235174447,-644.4454961354132,-187500.02235174447,-187500.02235174447,-187500.02235174447,-187500.02235174447,-187500.02235174447,1730329641.8222115,1730329640.059127,2000
-3792.6663509209575,-187500.02235174447,-617.2881266222151,-187500.02235174447,-187500.02235174447,-187500.02235174447,-187500.02235174447,-187500.02235174447,1730329641.8263197,1730329640.059127,2000
-3875.6360263390575,-187500.02235174447,-605.0170189162516,-187500.02235174447,-187500.02235174447,-187500.02235174447,-187500.02235174447,-187500.02235174447,1730329641.8305235,1730329640.059127,2000
-3846.2434823803287,-187500.02235174447,-624.0383534477179,-187500.02235174447,-187500.02235174447,-187500.02235174447,-187500.02235174447,-187500.02235174447,1730329641.83503,1730329640.059127,2000
-3767.922969808933,-187500.02235174447,-605.9334404389192,-187500.02235174447,-187500.02235174447,-187500.02235174447,-187500.02235174447,-187500.02235174447,1730329641.8384778,1730329640.059127,2000
-3779.255304247773,-187500.02235174447,-564.4486027298692,-187500.02235174447,-187500.02235174447,-187500.02235174447,-187500.02235174447,-187500.02235174447,1730329641.84144,1730329640.059127,2000
-3851.8984737275214,-187500.02235174447,-653.0956212396171,-187500.02235174447,-187500.02235174447,-187500.02235174447,-187500.02235174447,-187500.02235174447,1730329641.8461466,1730329640.059127,2000
-3833.4806362963486,-187500.02235174447,-681.258819253304,-187500.02235174447,-187500.02235174447,-187500.02235174447,-187500.02235174447,-187500.02235174447,1730329641.850397,1730329640.059127,2000
-3757.0823737481087,-187500.02235174447,-670.8205545926755,-187500.02235174447,-187500.02235174447,-187500.02235174447,-187500.02235174447,-187500.02235174447,1730329641.854615,1730329640.059127,2000
-3753.103763235064,-187500.02235174447,-607.4757108063353,-187500.02235174447,-187500.02235174447,-187500.02235174447,-187500.02235174447,-187500.02235174447,1730329641.858618,1730329640.059127,2000
-3855.653566796013,-187500.02235174447,-572.3834720115033,-187500.02235174447,-187500.02235174447,-187500.02235174447,-187500.02235174447,-187500.02235174447,1730329641.861072,1730329640.059127,2000
-3886.208401466418,-187500.02235174447,-618.9645074563632,-187500.02235174447,-187500.02235174447,-187500.02235174447,-187500.02235174447,-187500.02235174447,1730329641.8658395,1730329640.059127,2000
-3749.326318422117,-187500.02235174447,-670.1723540034717,-187500.02235174447,-187500.02235174447,-187500.02235174447,-187500.02235174447,-187500.02235174447,1730329641.8691611,1730329640.059127,2000
-3732.6519170584575,-187500.02235174447,-634.4319146194357,-187500.02235174447,-187500.02235174447,-187500.02235174447,-187500.02235174447,-187500.02235174447,1730329641.874738,1730329640.059127,2000
-3845.3047091132057,-187500.02235174447,-580.228934315316,-187500.02235174447,-187500.02235174447,-187500.02235174447,-187500.02235174447,-187500.02235174447,1730329641.8781807,1730329640.059127,2000
-3918.5066722043366,-187500.02235174447,-615.164710898961,-187500.02235174447,-187500.02235174447,-187500.02235174447,-187500.02235174447,-187500.02235174447,1730329641.882709,1730329640.059127,2000
-3824.048200136209,-187500.02235174447,-651.7992200612092,-187500.02235174447,-187500.02235174447,-187500.02235174447,-187500.02235174447,-187500.02235174447,1730329641.886098,1730329640.059127,2000
-3722.4818733312936,-187500.02235174447,-655.0625747516841,-187500.02235174447,-187500.02235174447,-187500.02235174447,-187500.02235174447,-187500.02235174447,1730329641.8896184,1730329640.059127,2000
-3806.367970272061,-187500.02235174447,-630.2521384062933,-187500.02235174447,-187500.02235174447,-187500.02235174447,-187500.02235174447,-187500.02235174447,1730329641.8930645,1730329640.059127,2000
-3881.402776408527,-187500.02235174447,-635.1695221864608,-187500.02235174447,-187500.02235174447,-187500.02235174447,-187500.02235174447,-187500.02235174447,1730329641.8973868,1730329640.059127,2000
-3811.307705796684,-187500.02235174447,-654.5261328847567,-187500.02235174447,-187500.02235174447,-187500.02235174447,-187500.02235174447,-187500.02235174447,1730329641.902139,1730329640.059127,2000
-3748.700469577369,-187500.02235174447,-646.2783391807484,-187500.02235174447,-187500.02235174447,-187500.02235174447,-187500.02235174447,-187500.02235174447,1730329641.9065487,1730329640.059127,2000
-3826.462188537382,-187500.02235174447,-600.7254839808326,-187500.02235174447,-187500.02235174447,-187500.02235174447,-187500.02235174447,-187500.02235174447,1730329641.9101956,1730329640.059127,2000
-3893.763291092312,-187500.02235174447,-620.9538127128855,-187500.02235174447,-187500.02235174447,-187500.02235174447,-187500.02235174447,-187500.02235174447,1730329641.91452,1730329640.059127,2000
-3832.743028729323,-187500.02235174447,-635.7059640533881,-187500.02235174447,-187500.02235174447,-187500.02235174447,-187500.02235174447,-187500.02235174447,1730329641.9181228,1730329640.059127,2000
-3728.762713523234,-187500.02235174447,-648.4017549040026,-187500.02235174447,-187500.02235174447,-187500.02235174447,-187500.02235174447,-187500.02235174447,1730329641.9217632,1730329640.059127,2000
-3763.8996558069775,-187500.02235174447,-651.0839642386394,-187500.02235174447,-187500.02235174447,-187500.02235174447,-187500.02235174447,-187500.02235174447,1730329641.925464,1730329640.059127,2000
-3878.675863584979,-187500.02235174447,-602.4465683038912,-187500.02235174447,-187500.02235174447,-187500.02235174447,-187500.02235174447,-187500.02235174447,1730329641.9303854,1730329640.059127,2000
-3848.2774911257616,-187500.02235174447,-595.9422106673969,-187500.02235174447,-187500.02235174447,-187500.02235174447,-187500.02235174447,-187500.02235174447,1730329641.9342415,1730329640.059127,2000
-3752.947301023877,-187500.02235174447,-641.4727141228574,-187500.02235174447,-187500.02235174447,-187500.02235174447,-187500.02235174447,-187500.02235174447,1730329641.938786,1730329640.059127,2000
-3745.638280586992,-187500.02235174447,-632.9790512298407,-187500.02235174447,-187500.02235174447,-187500.02235174447,-187500.02235174447,-187500.02235174447,1730329641.9426532,1730329640.059127,2000
-3852.613729550091,-187500.02235174447,-631.906167495986,-187500.02235174447,-187500.02235174447,-187500.02235174447,-187500.02235174447,-187500.02235174447,1730329641.9454627,1730329640.059127,2000
-3872.260912926306,-187500.02235174447,-664.3385487006365,-187500.02235174447,-187500.02235174447,-187500.02235174447,-187500.02235174447,-187500.02235174447,1730329641.949396,1730329640.059127,2000
-3768.682929120413,-187500.02235174447,-677.5260779292677,-187500.02235174447,-187500.02235174447,-187500.02235174447,-187500.02235174447,-187500.02235174447,1730329641.953205,1730329640.059127,2000
-3736.116437449031,-187500.02235174447,-643.8419990351199,-187500.02235174447,-187500.02235174447,-187500.02235174447,-187500.02235174447,-187500.02235174447,1730329641.957224,1730329640.059127,2000
-3860.056860453709,-187500.02235174447,-592.0306553877182,-187500.02235174447,-187500.02235174447,-187500.02235174447,-187500.02235174447,-187500.02235174447,1730329641.9629505,1730329640.059127,2000
-3879.458174640915,-187500.02235174447,-622.1384551690168,-187500.02235174447,-187500.02235174447,-187500.02235174447,-187500.02235174447,-187500.02235174447,1730329641.9663422,1730329640.059127,2000
-3786.206696773374,-187500.02235174447,-674.2850749832481,-187500.02235174447,-187500.02235174447,-187500.02235174447,-187500.02235174447,-187500.02235174447,1730329641.9704733,1730329640.059127,2000
-3752.008527756754,-187500.02235174447,-646.1889322029272,-187500.02235174447,-187500.02235174447,-187500.02235174447,-187500.02235174447,-187500.02235174447,1730329641.973472,1730329640.059127,2000
-3836.453418308904,-187500.02235174447,-586.6438849739892,-187500.02235174447,-187500.02235174447,-187500.02235174447,-187500.02235174447,-187500.02235174447,1730329641.9772704,1730329640.059127,2000
-3894.947933548443,-187500.02235174447,-594.4669955333467,-187500.02235174447,-187500.02235174447,-187500.02235174447,-187500.02235174447,-187500.02235174447,1730329641.98145,1730329640.059127,2000
-3800.8470893916,-187500.02235174447,-686.3103135002034,-187500.02235174447,-187500.02235174447,-187500.02235174447,-187500.02235174447,-187500.02235174447,1730329641.9851987,1730329640.059127,2000
-3754.176646968919,-187500.02235174447,-638.2317111768378,-187500.02235174447,-187500.02235174447,-187500.02235174447,-187500.02235174447,-187500.02235174447,1730329641.9908524,1730329640.059127,2000
-3805.3844935160273,-187500.02235174447,-649.3405281711255,-187500.02235174447,-187500.02235174447,-187500.02235174447,-187500.02235174447,-187500.02235174447,1730329641.994202,1730329640.059127,2000
-3877.267703684295,-187500.02235174447,-656.9624730303852,-187500.02235174447,-187500.02235174447,-187500.02235174447,-187500.02235174447,-187500.02235174447,1730329641.9972973,1730329640.059127,2000
-3801.271772536251,-187500.02235174447,-639.8410367776199,-187500.02235174447,-187500.02235174447,-187500.02235174447,-187500.02235174447,-187500.02235174447,1730329642.0013416,1730329640.059127,2000
-3739.715068306335,-187500.02235174447,-662.1033742551058,-187500.02235174447,-187500.02235174447,-187500.02235174447,-187500.02235174447,-187500.02235174447,1730329642.005483,1730329640.059127,2000
-3810.748912185301,-187500.02235174447,-630.7885802732206,-187500.02235174447,-187500.02235174447,-187500.02235174447,-187500.02235174447,-187500.02235174447,1730329642.0094674,1730329640.059127,2000
-3906.906116832032,-187500.02235174447,-617.3328301111258,-187500.02235174447,-187500.02235174447,-187500.02235174447,-187500.02235174447,-187500.02235174447,1730329642.0133104,1730329640.059127,2000
-3855.43004935146,-187500.02235174447,-650.5922258606226,-187500.02235174447,-187500.02235174447,-187500.02235174447,-187500.02235174447,-187500.02235174447,1730329642.01763,1730329640.059127,2000
-3757.462353403849,-187500.02235174447,-661.5892841326338,-187500.02235174447,-187500.02235174447,-187500.02235174447,-187500.02235174447,-187500.02235174447,1730329642.022843,1730329640.059127,2000
-3772.4827256778153,-187500.02235174447,-634.7001355528994,-187500.02235174447,-187500.02235174447,-187500.02235174447,-187500.02235174447,-187500.02235174447,1730329642.0256083,1730329640.059127,2000
-3877.848849040133,-187500.02235174447,-605.844033461098,-187500.02235174447,-187500.02235174447,-187500.02235174447,-187500.02235174447,-187500.02235174447,1730329642.0292575,1730329640.059127,2000
-3858.6039970641136,-187500.02235174447,-608.2133183733605,-187500.02235174447,-187500.02235174447,-187500.02235174447,-187500.02235174447,-187500.02235174447,1730329642.0333223,1730329640.059127,2000
-3763.005586028765,-187500.02235174447,-651.9780340168517,-187500.02235174447,-187500.02235174447,-187500.02235174447,-187500.02235174447,-187500.02235174447,1730329642.0373144,1730329640.059127,2000
-3750.5109608782486,-187500.02235174447,-635.4377431199244,-187500.02235174447,-187500.02235174447,-187500.02235174447,-187500.02235174447,-187500.02235174447,1730329642.041329,1730329640.059127,2000
-3837.369839831572,-187500.02235174447,-643.0820397236395,-187500.02235174447,-187500.02235174447,-187500.02235174447,-187500.02235174447,-187500.02235174447,1730329642.045354,1730329640.059127,2000
-3868.595226835636,-187500.02235174447,-638.9916704883183,-187500.02235174447,-187500.02235174447,-187500.02235174447,-187500.02235174447,-187500.02235174447,1730329642.0503447,1730329640.059127,2000
-3780.708167637368,-187500.02235174447,-652.9615107728853,-187500.02235174447,-187500.02235174447,-187500.02235174447,-187500.02235174447,-187500.02235174447,1730329642.0532484,1730329640.059127,2000
-3744.878321275511,-187500.02235174447,-640.5562926001897,-187500.02235174447,-187500.02235174447,-187500.02235174447,-187500.02235174447,-187500.02235174447,1730329642.0573552,1730329640.059127,2000
-3837.168674131474,-187500.02235174447,-615.164710898961,-187500.02235174447,-187500.02235174447,-187500.02235174447,-187500.02235174447,-187500.02235174447,1730329642.061302,1730329640.059127,2000
-3881.738052575357,-187500.02235174447,-642.8585222790864,-187500.02235174447,-187500.02235174447,-187500.02235174447,-187500.02235174447,-187500.02235174447,1730329642.0653129,1730329640.059127,2000
-3789.9394380974095,-187500.02235174447,-679.5824384191559,-187500.02235174447,-187500.02235174447,-187500.02235174447,-187500.02235174447,-187500.02235174447,1730329642.0693212,1730329640.059127,2000
-3733.143655436475,-187500.02235174447,-664.0479760227175,-187500.02235174447,-187500.02235174447,-187500.02235174447,-187500.02235174447,-187500.02235174447,1730329642.0735967,1730329640.059127,2000
-3834.352354330105,-187500.02235174447,-607.9450974398968,-187500.02235174447,-187500.02235174447,-187500.02235174447,-187500.02235174447,-187500.02235174447,1730329642.0790732,1730329640.059127,2000
-3879.905209530021,-187500.02235174447,-639.9751472443518,-187500.02235174447,-187500.02235174447,-187500.02235174447,-187500.02235174447,-187500.02235174447,1730329642.0817218,1730329640.059127,2000
-3816.627420977047,-187500.02235174447,-654.4367259069355,-187500.02235174447,-187500.02235174447,-187500.02235174447,-187500.02235174447,-187500.02235174447,1730329642.085349,1730329640.059127,2000
-3739.178626439408,-187500.02235174447,-664.7632318452874,-187500.02235174447,-187500.02235174447,-187500.02235174447,-187500.02235174447,-187500.02235174447,1730329642.08987,1730329640.059127,2000
-3810.65950520748,-187500.02235174447,-635.907129753486,-187500.02235174447,-187500.02235174447,-187500.02235174447,-187500.02235174447,-187500.02235174447,1730329642.0934122,1730329640.059127,2000
-3897.7195498609008,-187500.02235174447,-610.5602515411678,-187500.02235174447,-187500.02235174447,-187500.02235174447,-187500.02235174447,-187500.02235174447,1730329642.0978386,1730329640.059127,2000
-3844.90237771301,-187500.02235174447,-639.7963332887093,-187500.02235174447,-187500.02235174447,-187500.02235174447,-187500.02235174447,-187500.02235174447,1730329642.1025002,1730329640.059127,2000
-3748.07462073262,-187500.02235174447,-654.4590776513908,-187500.02235174447,-187500.02235174447,-187500.02235174447,-187500.02235174447,-187500.02235174447,1730329642.105612,1730329640.059127,2000
-3794.9685805998542,-187500.02235174447,-645.160751957983,-187500.02235174447,-187500.02235174447,-187500.02235174447,-187500.02235174447,-187500.02235174447,1730329642.1086817,1730329640.059127,2000
-3886.275456699784,-187500.02235174447,-632.3979058740027,-187500.02235174447,-187500.02235174447,-187500.02235174447,-187500.02235174447,-187500.02235174447,1730329642.1130767,1730329640.059127,2000
-3842.7342585008455,-187500.02235174447,-662.9750922888628,-187500.02235174447,-187500.02235174447,-187500.02235174447,-187500.02235174447,-187500.02235174447,1730329642.117868,1730329640.059127,2000
-3763.2738069622287,-187500.02235174447,-660.8963800545192,-187500.02235174447,-187500.02235174447,-187500.02235174447,-187500.02235174447,-187500.02235174447,1730329642.1219957,1730329640.059127,2000
-3788.151298540986,-187500.02235174447,-607.6321730175225,-187500.02235174447,-187500.02235174447,-187500.02235174447,-187500.02235174447,-187500.02235174447,1730329642.1254127,1730329640.059127,2000
-3863.163752932996,-187500.02235174447,-622.6748970359441,-187500.02235174447,-187500.02235174447,-187500.02235174447,-187500.02235174447,-187500.02235174447,1730329642.1301005,1730329640.059127,2000
-3851.183217904952,-187500.02235174447,-668.8088975916979,-187500.02235174447,-187500.02235174447,-187500.02235174447,-187500.02235174447,-187500.02235174447,1730329642.1337495,1730329640.059127,2000
-3759.630472616014,-187500.02235174447,-659.7564410872985,-187500.02235174447,-187500.02235174447,-187500.02235174447,-187500.02235174447,-187500.02235174447,1730329642.136558,1730329640.059127,2000
-3760.8374668166,-187500.02235174447,-636.2200541758602,-187500.02235174447,-187500.02235174447,-187500.02235174447,-187500.02235174447,-187500.02235174447,1730329642.1409268,1730329640.059127,2000
-3877.044186239742,-187500.02235174447,-617.2210713888493,-187500.02235174447,-187500.02235174447,-187500.02235174447,-187500.02235174447,-187500.02235174447,1730329642.1458216,1730329640.059127,2000
-3863.364918633094,-187500.02235174447,-638.8352082771312,-187500.02235174447,-187500.02235174447,-187500.02235174447,-187500.02235174447,-187500.02235174447,1730329642.150007,1730329640.059127,2000
-3762.2456267172847,-187500.02235174447,-677.7942988627314,-187500.02235174447,-187500.02235174447,-187500.02235174447,-187500.02235174447,-187500.02235174447,1730329642.1535604,1730329640.059127,2000
-3750.4886091337935,-187500.02235174447,-647.7982578037092,-187500.02235174447,-187500.02235174447,-187500.02235174447,-187500.02235174447,-187500.02235174447,1730329642.1576216,1730329640.059127,2000
-3839.6050142771023,-187500.02235174447,-625.9829552153296,-187500.02235174447,-187500.02235174447,-187500.02235174447,-187500.02235174447,-187500.02235174447,1730329642.161523,1730329640.059127,2000
-3885.359035177116,-187500.02235174447,-619.3444871121034,-187500.02235174447,-187500.02235174447,-187500.02235174447,-187500.02235174447,-187500.02235174447,1730329642.1644912,1730329640.059127,2000
-3804.199851059896,-187500.02235174447,-667.4007376910135,-187500.02235174447,-187500.02235174447,-187500.02235174447,-187500.02235174447,-187500.02235174447,1730329642.16846,1730329640.059127,2000
-3751.494437634282,-187500.02235174447,-653.2520834508042,-187500.02235174447,-187500.02235174447,-187500.02235174447,-187500.02235174447,-187500.02235174447,1730329642.173492,1730329640.059127,2000
-3859.162790675496,-187500.02235174447,-625.133588926028,-187500.02235174447,-187500.02235174447,-187500.02235174447,-187500.02235174447,-187500.02235174447,1730329642.1776376,1730329640.059127,2000
-3904.872108086599,-187500.02235174447,-622.3172691246592,-187500.02235174447,-187500.02235174447,-187500.02235174447,-187500.02235174447,-187500.02235174447,1730329642.1821136,1730329640.059127,2000
-3796.197926544896,-187500.02235174447,-671.1781825039604,-187500.02235174447,-187500.02235174447,-187500.02235174447,-187500.02235174447,-187500.02235174447,1730329642.1854987,1730329640.059127,2000
-3728.695658289869,-187500.02235174447,-682.1081855426056,-187500.02235174447,-187500.02235174447,-187500.02235174447,-187500.02235174447,-187500.02235174447,1730329642.18971,1730329640.059127,2000
-3804.959810371377,-187500.02235174447,-637.8293797766423,-187500.02235174447,-187500.02235174447,-187500.02235174447,-187500.02235174447,-187500.02235174447,1730329642.1929193,1730329640.059127,2000
-3902.167547007507,-187500.02235174447,-635.0354117197289,-187500.02235174447,-187500.02235174447,-187500.02235174447,-187500.02235174447,-187500.02235174447,1730329642.1967068,1730329640.059127,2000
-3834.8664444525775,-187500.02235174447,-691.6300286805664,-187500.02235174447,-187500.02235174447,-187500.02235174447,-187500.02235174447,-187500.02235174447,1730329642.201734,1730329640.059127,2000
-3765.6430918744913,-187500.02235174447,-671.7369761153432,-187500.02235174447,-187500.02235174447,-187500.02235174447,-187500.02235174447,-187500.02235174447,1730329642.205577,1730329640.059127,2000
-3798.947191112899,-187500.02235174447,-652.0450892502176,-187500.02235174447,-187500.02235174447,-187500.02235174447,-187500.02235174447,-187500.02235174447,1730329642.2097206,1730329640.059127,2000
-3879.458174640915,-187500.02235174447,-651.2404264498266,-187500.02235174447,-187500.02235174447,-187500.02235174447,-187500.02235174447,-187500.02235174447,1730329642.2139037,1730329640.059127,2000
-3859.8109912647,-187500.02235174447,-669.5241534142677,-187500.02235174447,-187500.02235174447,-187500.02235174447,-187500.02235174447,-187500.02235174447,1730329642.2167127,1730329640.059127,2000
-3775.410804201461,-187500.02235174447,-647.2841676812372,-187500.02235174447,-187500.02235174447,-187500.02235174447,-187500.02235174447,-187500.02235174447,1730329642.2213993,1730329640.059127,2000
-3775.075528034631,-187500.02235174447,-606.1793096279275,-187500.02235174447,-187500.02235174447,-187500.02235174447,-187500.02235174447,-187500.02235174447,1730329642.224965,1730329640.059127,2000
-3854.223055150873,-187500.02235174447,-656.1801619744494,-187500.02235174447,-187500.02235174447,-187500.02235174447,-187500.02235174447,-187500.02235174447,1730329642.2301126,1730329640.059127,2000
-3861.3085581432056,-187500.02235174447,-675.6038279061113,-187500.02235174447,-187500.02235174447,-187500.02235174447,-187500.02235174447,-187500.02235174447,1730329642.234059,1730329640.059127,2000
-3789.6041619305806,-187500.02235174447,-684.4104152215023,-187500.02235174447,-187500.02235174447,-187500.02235174447,-187500.02235174447,-187500.02235174447,1730329642.2376976,1730329640.059127,2000
-3752.455562645861,-187500.02235174447,-655.5543131297009,-187500.02235174447,-187500.02235174447,-187500.02235174447,-187500.02235174447,-187500.02235174447,1730329642.2407808,1730329640.059127,2000
-3840.946118944421,-187500.02235174447,-645.3172141691703,-187500.02235174447,-187500.02235174447,-187500.02235174447,-187500.02235174447,-187500.02235174447,1730329642.2446687,1730329640.059127,2000
-3876.6642065840015,-187500.02235174447,-671.6922726264326,-187500.02235174447,-187500.02235174447,-187500.02235174447,-187500.02235174447,-187500.02235174447,1730329642.248748,1730329640.059127,2000
-3805.317438282661,-187500.02235174447,-698.4473107394351,-187500.02235174447,-187500.02235174447,-187500.02235174447,-187500.02235174447,-187500.02235174447,1730329642.2526896,1730329640.059127,2000
-3751.762658567746,-187500.02235174447,-666.5513714017119,-187500.02235174447,-187500.02235174447,-187500.02235174447,-187500.02235174447,-187500.02235174447,1730329642.2566917,1730329640.059127,2000
-3838.800351476712,-187500.02235174447,-636.4659233648686,-187500.02235174447,-187500.02235174447,-187500.02235174447,-187500.02235174447,-187500.02235174447,1730329642.2617033,1730329640.059127,2000
-3894.38913993706,-187500.02235174447,-640.9586240003854,-187500.02235174447,-187500.02235174447,-187500.02235174447,-187500.02235174447,-187500.02235174447,1730329642.265712,1730329640.059127,2000
-3813.453473264393,-187500.02235174447,-665.8361155791421,-187500.02235174447,-187500.02235174447,-187500.02235174447,-187500.02235174447,-187500.02235174447,1730329642.268582,1730329640.059127,2000
-3749.9298155224105,-187500.02235174447,-674.5756476611672,-187500.02235174447,-187500.02235174447,-187500.02235174447,-187500.02235174447,-187500.02235174447,1730329642.2727911,1730329640.059127,2000
-3815.7333511988345,-187500.02235174447,-648.8711415375641,-187500.02235174447,-187500.02235174447,-187500.02235174447,-187500.02235174447,-187500.02235174447,1730329642.27663,1730329640.059127,2000
-3897.1607562495183,-187500.02235174447,-640.4892373668239,-187500.02235174447,-187500.02235174447,-187500.02235174447,-187500.02235174447,-187500.02235174447,1730329642.280738,1730329640.059127,2000
-3843.4718660678714,-187500.02235174447,-657.677728852955,-187500.02235174447,-187500.02235174447,-187500.02235174447,-187500.02235174447,-187500.02235174447,1730329642.284598,1730329640.059127,2000
-3736.339954893584,-187500.02235174447,-685.1703745329827,-187500.02235174447,-187500.02235174447,-187500.02235174447,-187500.02235174447,-187500.02235174447,1730329642.2898371,1730329640.059127,2000
-3790.6099904310695,-187500.02235174447,-676.3414354731364,-187500.02235174447,-187500.02235174447,-187500.02235174447,-187500.02235174447,-187500.02235174447,1730329642.2936096,1730329640.059127,2000
-3889.337645690161,-187500.02235174447,-633.2472721633044,-187500.02235174447,-187500.02235174447,-187500.02235174447,-187500.02235174447,-187500.02235174447,1730329642.2967646,1730329640.059127,2000
-3865.644796567535,-187500.02235174447,-670.5523336592119,-187500.02235174447,-187500.02235174447,-187500.02235174447,-187500.02235174447,-187500.02235174447,1730329642.300992,1730329640.059127,2000
-3778.6071036585695,-187500.02235174447,-680.7670808752872,-187500.02235174447,-187500.02235174447,-187500.02235174447,-187500.02235174447,-187500.02235174447,1730329642.3051028,1730329640.059127,2000
-3788.888906108011,-187500.02235174447,-631.6379465625223,-187500.02235174447,-187500.02235174447,-187500.02235174447,-187500.02235174447,-187500.02235174447,1730329642.3089635,1730329640.059127,2000
-3881.603942108624,-187500.02235174447,-633.4484378634022,-187500.02235174447,-187500.02235174447,-187500.02235174447,-187500.02235174447,-187500.02235174447,1730329642.3130453,1730329640.059127,2000
-3863.566084333192,-187500.02235174447,-685.3044849997145,-187500.02235174447,-187500.02235174447,-187500.02235174447,-187500.02235174447,-187500.02235174447,1730329642.3180175,1730329640.059127,2000
-3770.0910890210976,-187500.02235174447,-682.4658134538905,-187500.02235174447,-187500.02235174447,-187500.02235174447,-187500.02235174447,-187500.02235174447,1730329642.322132,1730329640.059127,2000
-3786.877249107033,-187500.02235174447,-641.9868042453295,-187500.02235174447,-187500.02235174447,-187500.02235174447,-187500.02235174447,-187500.02235174447,1730329642.3253143,1730329640.059127,2000
-3871.545657103736,-187500.02235174447,-622.809007502676,-187500.02235174447,-187500.02235174447,-187500.02235174447,-187500.02235174447,-187500.02235174447,1730329642.329157,1730329640.059127,2000
-3863.007290721809,-187500.02235174447,-674.642702894533,-187500.02235174447,-187500.02235174447,-187500.02235174447,-187500.02235174447,-187500.02235174447,1730329642.332798,1730329640.059127,2000
-3773.667368133946,-187500.02235174447,-684.2763047547704,-187500.02235174447,-187500.02235174447,-187500.02235174447,-187500.02235174447,-187500.02235174447,1730329642.3368597,1730329640.059127,2000
-3757.954091781866,-187500.02235174447,-656.2919206967259,-187500.02235174447,-187500.02235174447,-187500.02235174447,-187500.02235174447,-187500.02235174447,1730329642.3412962,1730329640.059127,2000
-3838.4427235654266,-187500.02235174447,-614.650620776489,-187500.02235174447,-187500.02235174447,-187500.02235174447,-187500.02235174447,-187500.02235174447,1730329642.3464844,1730329640.059127,2000
-3887.393043922549,-187500.02235174447,-623.2560423917821,-187500.02235174447,-187500.02235174447,-187500.02235174447,-187500.02235174447,-187500.02235174447,1730329642.3490217,1730329640.059127,2000
-3807.4855574948265,-187500.02235174447,-654.9508160294075,-187500.02235174447,-187500.02235174447,-187500.02235174447,-187500.02235174447,-187500.02235174447,1730329642.352894,1730329640.059127,2000
-3754.4672196468377,-187500.02235174447,-678.3754442185693,-187500.02235174447,-187500.02235174447,-187500.02235174447,-187500.02235174447,-187500.02235174447,1730329642.356841,1730329640.059127,2000
-3828.540900771725,-187500.02235174447,-639.6845745664328,-187500.02235174447,-187500.02235174447,-187500.02235174447,-187500.02235174447,-187500.02235174447,1730329642.3608265,1730329640.059127,2000
-3873.5796658491695,-187500.02235174447,-665.679653367955,-187500.02235174447,-187500.02235174447,-187500.02235174447,-187500.02235174447,-187500.02235174447,1730329642.3653264,1730329640.059127,2000
-3836.364011331083,-187500.02235174447,-694.6475141820329,-187500.02235174447,-187500.02235174447,-187500.02235174447,-187500.02235174447,-187500.02235174447,1730329642.3688717,1730329640.059127,2000
-3776.416632701949,-187500.02235174447,-682.9128483429967,-187500.02235174447,-187500.02235174447,-187500.02235174447,-187500.02235174447,-187500.02235174447,1730329642.374504,1730329640.059127,2000
-3832.8547874516,-187500.02235174447,-625.2006441593938,-187500.02235174447,-187500.02235174447,-187500.02235174447,-187500.02235174447,-187500.02235174447,1730329642.3768342,1730329640.059127,2000
-3902.4134161965153,-187500.02235174447,-649.0499554932065,-187500.02235174447,-187500.02235174447,-187500.02235174447,-187500.02235174447,-187500.02235174447,1730329642.3800704,1730329640.059127,2000
-3821.433046034938,-187500.02235174447,-693.3287612591698,-187500.02235174447,-187500.02235174447,-187500.02235174447,-187500.02235174447,-187500.02235174447,1730329642.3848045,1730329640.059127,2000
-3754.511923135749,-187500.02235174447,-685.4385954664464,-187500.02235174447,-187500.02235174447,-187500.02235174447,-187500.02235174447,-187500.02235174447,1730329642.3890796,1730329640.059127,2000
-3817.0297523772415,-187500.02235174447,-646.0548217361953,-187500.02235174447,-187500.02235174447,-187500.02235174447,-187500.02235174447,-187500.02235174447,1730329642.3929403,1730329640.059127,2000
-3879.748747318834,-187500.02235174447,-636.5553303426898,-187500.02235174447,-187500.02235174447,-187500.02235174447,-187500.02235174447,-187500.02235174447,1730329642.3969443,1730329640.059127,2000
-3853.306633628206,-187500.02235174447,-659.7340893428433,-187500.02235174447,-187500.02235174447,-187500.02235174447,-187500.02235174447,-187500.02235174447,1730329642.4018967,1730329640.059127,2000
-3767.095955264087,-187500.02235174447,-701.5765549631781,-187500.02235174447,-187500.02235174447,-187500.02235174447,-187500.02235174447,-187500.02235174447,1730329642.4051156,1730329640.059127,2000
-3789.447699719393,-187500.02235174447,-647.708850825888,-187500.02235174447,-187500.02235174447,-187500.02235174447,-187500.02235174447,-187500.02235174447,1730329642.4085894,1730329640.059127,2000
-3886.498974144337,-187500.02235174447,-627.7934465162094,-187500.02235174447,-187500.02235174447,-187500.02235174447,-187500.02235174447,-187500.02235174447,1730329642.4134135,1730329640.059127,2000
-3892.735110847367,-187500.02235174447,-673.2792464827594,-187500.02235174447,-187500.02235174447,-187500.02235174447,-187500.02235174447,-187500.02235174447,1730329642.41685,1730329640.059127,2000
-3795.080339322131,-187500.02235174447,-667.1772202464605,-187500.02235174447,-187500.02235174447,-187500.02235174447,-187500.02235174447,-187500.02235174447,1730329642.421497,1730329640.059127,2000
-3768.660577375958,-187500.02235174447,-653.9226357844634,-187500.02235174447,-187500.02235174447,-187500.02235174447,-187500.02235174447,-187500.02235174447,1730329642.4250996,1730329640.059127,2000
-3866.181238434463,-187500.02235174447,-642.7020600678993,-187500.02235174447,-187500.02235174447,-187500.02235174447,-187500.02235174447,-187500.02235174447,1730329642.4295847,1730329640.059127,2000
-3885.739014832856,-187500.02235174447,-666.41726093498,-187500.02235174447,-187500.02235174447,-187500.02235174447,-187500.02235174447,-187500.02235174447,1730329642.4335425,1730329640.059127,2000
-3778.160068769464,-187500.02235174447,-694.4463484819352,-187500.02235174447,-187500.02235174447,-187500.02235174447,-187500.02235174447,-187500.02235174447,1730329642.4359455,1730329640.059127,2000
-3758.490533648793,-187500.02235174447,-675.4250139504688,-187500.02235174447,-187500.02235174447,-187500.02235174447,-187500.02235174447,-187500.02235174447,1730329642.441363,1730329640.059127,2000
-3837.95098518741,-187500.02235174447,-655.8001823187092,-187500.02235174447,-187500.02235174447,-187500.02235174447,-187500.02235174447,-187500.02235174447,1730329642.4449253,1730329640.059127,2000
-3893.495070158848,-187500.02235174447,-640.0198507332624,-187500.02235174447,-187500.02235174447,-187500.02235174447,-187500.02235174447,-187500.02235174447,1730329642.449159,1730329640.059127,2000
-3828.920880427466,-187500.02235174447,-664.4726591673683,-187500.02235174447,-187500.02235174447,-187500.02235174447,-187500.02235174447,-187500.02235174447,1730329642.4531476,1730329640.059127,2000
