Fp1,Fp2,C3,C4,P7,P8,O1,O2,time_board,time_marker,marker
370.45781260225925,-187500.02235174447,-1372.777089211594,-187500.02235174447,-187500.02235174447,-187500.02235174447,-187500.02235174447,-187500.02235174447,1730244874.8036497,1730244874.7996285,2000
403.6725048628455,-187500.02235174447,-1306.9959052796253,-187500.02235174447,-187500.02235174447,-187500.02235174447,-187500.02235174447,-187500.02235174447,1730244874.8074963,1730244874.7996285,2000
380.2925801625944,-187500.02235174447,-1305.9900767791364,-187500.02235174447,-187500.02235174447,-187500.02235174447,-187500.02235174447,-187500.02235174447,1730244874.8115697,1730244874.7996285,2000
353.7163560052343,-187500.02235174447,-1373.090013633968,-187500.02235174447,-187500.02235174447,-187500.02235174447,-187500.02235174447,-187500.02235174447,1730244874.816353,1730244874.7996285,2000
371.08366144700784,-187500.02235174447,-1383.2377056166777,-187500.02235174447,-187500.02235174447,-187500.02235174447,-187500.02235174447,-187500.02235174447,1730244874.8205447,1730244874.7996285,2000
392.6083913574686,-187500.02235174447,-1320.3622484638988,-187500.02235174447,-187500.02235174447,-187500.02235174447,-187500.02235174447,-187500.02235174447,1730244874.8244896,1730244874.7996285,2000
371.6871585473011,-187500.02235174447,-1295.8200330519717,-187500.02235174447,-187500.02235174447,-187500.02235174447,-187500.02235174447,-187500.02235174447,1730244874.827476,1730244874.7996285,2000
353.112858904941,-187500.02235174447,-1364.7528129521386,-187500.02235174447,-187500.02235174447,-187500.02235174447,-187500.02235174447,-187500.02235174447,1730244874.8315537,1730244874.7996285,2000
360.6453967863795,-187500.02235174447,-1392.51367956563,-187500.02235174447,-187500.02235174447,-187500.02235174447,-187500.02235174447,-187500.02235174447,1730244874.8354113,1730244874.7996285,2000
392.54133612410266,-187500.02235174447,-1328.8559113569154,-187500.02235174447,-187500.02235174447,-187500.02235174447,-187500.02235174447,-187500.02235174447,1730244874.8395104,1730244874.7996285,2000
397.659885604368,-187500.02235174447,-1294.0542452400025,-187500.02235174447,-187500.02235174447,-187500.02235174447,-187500.02235174447,-187500.02235174447,1730244874.8444488,1730244874.7996285,2000
358.70079501876774,-187500.02235174447,-1350.0230133560913,-187500.02235174447,-187500.02235174447,-187500.02235174447,-187500.02235174447,-187500.02235174447,1730244874.8486571,1730244874.7996285,2000
353.4481350717706,-187500.02235174447,-1400.962638969736,-187500.02235174447,-187500.02235174447,-187500.02235174447,-187500.02235174447,-187500.02235174447,1730244874.8516233,1730244874.7996285,2000
396.8105193150663,-187500.02235174447,-1337.9307196057705,-187500.02235174447,-187500.02235174447,-187500.02235174447,-187500.02235174447,-187500.02235174447,1730244874.855638,1730244874.7996285,2000
407.2040804867841,-187500.02235174447,-1285.6723410692623,-187500.02235174447,-187500.02235174447,-187500.02235174447,-187500.02235174447,-187500.02235174447,1730244874.8595817,1730244874.7996285,2000
387.26632443265015,-187500.02235174447,-1331.9181003472925,-187500.02235174447,-187500.02235174447,-187500.02235174447,-187500.02235174447,-187500.02235174447,1730244874.8657,1730244874.7996285,2000
361.8970944758767,-187500.02235174447,-1389.4291388307977,-187500.02235174447,-187500.02235174447,-187500.02235174447,-187500.02235174447,-187500.02235174447,1730244874.8685527,1730244874.7996285,2000
395.9388012813093,-187500.02235174447,-1350.7606209231164,-187500.02235174447,-187500.02235174447,-187500.02235174447,-187500.02235174447,-187500.02235174447,1730244874.871676,1730244874.7996285,2000
401.2808682061277,-187500.02235174447,-1288.3321986594435,-187500.02235174447,-187500.02235174447,-187500.02235174447,-187500.02235174447,-187500.02235174447,1730244874.8767116,1730244874.7996285,2000
374.0564434595637,-187500.02235174447,-1317.7247426181725,-187500.02235174447,-187500.02235174447,-187500.02235174447,-187500.02235174447,-187500.02235174447,1730244874.8796203,1730244874.7996285,2000
355.079812417008,-187500.02235174447,-1391.5972580429625,-187500.02235174447,-187500.02235174447,-187500.02235174447,-187500.02235174447,-187500.02235174447,1730244874.8835163,1730244874.7996285,2000
374.2576091596615,-187500.02235174447,-1376.5321822800854,-187500.02235174447,-187500.02235174447,-187500.02235174447,-187500.02235174447,-187500.02235174447,1730244874.887742,1730244874.7996285,2000
391.915487279354,-187500.02235174447,-1308.001733780114,-187500.02235174447,-187500.02235174447,-187500.02235174447,-187500.02235174447,-187500.02235174447,1730244874.8915265,1730244874.7996285,2000
371.3295306360162,-187500.02235174447,-1317.8812048293598,-187500.02235174447,-187500.02235174447,-187500.02235174447,-187500.02235174447,-187500.02235174447,1730244874.8976004,1730244874.7996285,2000
343.32279483351647,-187500.02235174447,-1390.4573190757417,-187500.02235174447,-187500.02235174447,-187500.02235174447,-187500.02235174447,-187500.02235174447,1730244874.901612,1730244874.7996285,2000
369.16141142385146,-187500.02235174447,-1383.1035951499457,-187500.02235174447,-187500.02235174447,-187500.02235174447,-187500.02235174447,-187500.02235174447,1730244874.905575,1730244874.7996285,2000
399.4480251607925,-187500.02235174447,-1314.126111760868,-187500.02235174447,-187500.02235174447,-187500.02235174447,-187500.02235174447,-187500.02235174447,1730244874.9085572,1730244874.7996285,2000
393.7036268357786,-187500.02235174447,-1305.6548006123069,-187500.02235174447,-187500.02235174447,-187500.02235174447,-187500.02235174447,-187500.02235174447,1730244874.912639,1730244874.7996285,2000
373.9893882261978,-187500.02235174447,-1374.0064351566357,-187500.02235174447,-187500.02235174447,-187500.02235174447,-187500.02235174447,-187500.02235174447,1730244874.9155211,1730244874.7996285,2000
382.5724580970357,-187500.02235174447,-1386.6798742627948,-187500.02235174447,-187500.02235174447,-187500.02235174447,-187500.02235174447,-187500.02235174447,1730244874.9197288,1730244874.7996285,2000
407.0699700200522,-187500.02235174447,-1320.675172886273,-187500.02235174447,-187500.02235174447,-187500.02235174447,-187500.02235174447,-187500.02235174447,1730244874.923666,1730244874.7996285,2000
389.7920715560999,-187500.02235174447,-1295.7529778186058,-187500.02235174447,-187500.02235174447,-187500.02235174447,-187500.02235174447,-187500.02235174447,1730244874.9276707,1730244874.7996285,2000
368.5579143235582,-187500.02235174447,-1357.1085163484236,-187500.02235174447,-187500.02235174447,-187500.02235174447,-187500.02235174447,-187500.02235174447,1730244874.932551,1730244874.7996285,2000
368.0885276899967,-187500.02235174447,-1384.8246794730044,-187500.02235174447,-187500.02235174447,-187500.02235174447,-187500.02235174447,-187500.02235174447,1730244874.93576,1730244874.7996285,2000
384.0253214866306,-187500.02235174447,-1317.6576873848066,-187500.02235174447,-187500.02235174447,-187500.02235174447,-187500.02235174447,-187500.02235174447,1730244874.939744,1730244874.7996285,2000
388.562725611058,-187500.02235174447,-1283.3030561569997,-187500.02235174447,-187500.02235174447,-187500.02235174447,-187500.02235174447,-187500.02235174447,1730244874.9446828,1730244874.7996285,2000
365.5851323110023,-187500.02235174447,-1336.5449114495411,-187500.02235174447,-187500.02235174447,-187500.02235174447,-187500.02235174447,-187500.02235174447,1730244874.9488096,1730244874.7996285,2000
360.8018589975666,-187500.02235174447,-1386.836336473982,-187500.02235174447,-187500.02235174447,-187500.02235174447,-187500.02235174447,-187500.02235174447,1730244874.9527624,1730244874.7996285,2000
392.58603961301327,-187500.02235174447,-1338.4671614726976,-187500.02235174447,-187500.02235174447,-187500.02235174447,-187500.02235174447,-187500.02235174447,1730244874.955788,1730244874.7996285,2000
401.3479234394936,-187500.02235174447,-1292.5343266170414,-187500.02235174447,-187500.02235174447,-187500.02235174447,-187500.02235174447,-187500.02235174447,1730244874.9598017,1730244874.7996285,2000
371.530696336114,-187500.02235174447,-1323.066809542991,-187500.02235174447,-187500.02235174447,-187500.02235174447,-187500.02235174447,-187500.02235174447,1730244874.962806,1730244874.7996285,2000
364.1322689214073,-187500.02235174447,-1367.4126705423205,-187500.02235174447,-187500.02235174447,-187500.02235174447,-187500.02235174447,-187500.02235174447,1730244874.9666655,1730244874.7996285,2000
395.53646988111376,-187500.02235174447,-1339.2494725286333,-187500.02235174447,-187500.02235174447,-187500.02235174447,-187500.02235174447,-187500.02235174447,1730244874.9718611,1730244874.7996285,2000
405.9300310528316,-187500.02235174447,-1280.8890677558263,-187500.02235174447,-187500.02235174447,-187500.02235174447,-187500.02235174447,-187500.02235174447,1730244874.975862,1730244874.7996285,2000
385.5228883651362,-187500.02235174447,-1303.4643296556867,-187500.02235174447,-187500.02235174447,-187500.02235174447,-187500.02235174447,-187500.02235174447,1730244874.979818,1730244874.7996285,2000
365.339263121994,-187500.02235174447,-1377.314493336021,-187500.02235174447,-187500.02235174447,-187500.02235174447,-187500.02235174447,-187500.02235174447,1730244874.9837592,1730244874.7996285,2000
377.6103708279575,-187500.02235174447,-1362.517638506608,-187500.02235174447,-187500.02235174447,-187500.02235174447,-187500.02235174447,-187500.02235174447,1730244874.9878075,1730244874.7996285,2000
409.39455144340417,-187500.02235174447,-1301.743245332628,-187500.02235174447,-187500.02235174447,-187500.02235174447,-187500.02235174447,-187500.02235174447,1730244874.990687,1730244874.7996285,2000
383.17595519732896,-187500.02235174447,-1305.833614567949,-187500.02235174447,-187500.02235174447,-187500.02235174447,-187500.02235174447,-187500.02235174447,1730244874.9948068,1730244874.7996285,2000
374.23525741520615,-187500.02235174447,-1370.4078042993312,-187500.02235174447,-187500.02235174447,-187500.02235174447,-187500.02235174447,-187500.02235174447,1730244874.9997275,1730244874.7996285,2000
386.819289543544,-187500.02235174447,-1379.2367433591776,-187500.02235174447,-187500.02235174447,-187500.02235174447,-187500.02235174447,-187500.02235174447,1730244875.00372,1730244874.7996285,2000
408.2993159650941,-187500.02235174447,-1312.4050274378094,-187500.02235174447,-187500.02235174447,-187500.02235174447,-187500.02235174447,-187500.02235174447,1730244875.0077205,1730244874.7996285,2000
407.0476182755969,-187500.02235174447,-1289.360378904388,-187500.02235174447,-187500.02235174447,-187500.02235174447,-187500.02235174447,-187500.02235174447,1730244875.0119126,1730244874.7996285,2000
383.9359145088094,-187500.02235174447,-1343.965690608703,-187500.02235174447,-187500.02235174447,-187500.02235174447,-187500.02235174447,-187500.02235174447,1730244875.0157044,1730244874.7996285,2000
381.7901470411,-187500.02235174447,-1366.7197664642056,-187500.02235174447,-187500.02235174447,-187500.02235174447,-187500.02235174447,-187500.02235174447,1730244875.0188196,1730244874.7996285,2000
406.108845008474,-187500.02235174447,-1311.868585570882,-187500.02235174447,-187500.02235174447,-187500.02235174447,-187500.02235174447,-187500.02235174447,1730244875.0228455,1730244874.7996285,2000
406.57823164203546,-187500.02235174447,-1282.4089863787874,-187500.02235174447,-187500.02235174447,-187500.02235174447,-187500.02235174447,-187500.02235174447,1730244875.0278556,1730244874.7996285,2000
383.7347488087116,-187500.02235174447,-1340.0094318401136,-187500.02235174447,-187500.02235174447,-187500.02235174447,-187500.02235174447,-187500.02235174447,1730244875.0318122,1730244874.7996285,2000
387.60160059947975,-187500.02235174447,-1372.8217927005044,-187500.02235174447,-187500.02235174447,-187500.02235174447,-187500.02235174447,-187500.02235174447,1730244875.0358706,1730244874.7996285,2000
407.4275979313371,-187500.02235174447,-1319.3117164744997,-187500.02235174447,-187500.02235174447,-187500.02235174447,-187500.02235174447,-187500.02235174447,1730244875.0399115,1730244874.7996285,2000
412.7920166006109,-187500.02235174447,-1280.0844049554355,-187500.02235174447,-187500.02235174447,-187500.02235174447,-187500.02235174447,-187500.02235174447,1730244875.042992,1730244874.7996285,2000
393.4130541578596,-187500.02235174447,-1329.9734985796808,-187500.02235174447,-187500.02235174447,-187500.02235174447,-187500.02235174447,-187500.02235174447,1730244875.0469863,1730244874.7996285,2000
390.2167547007507,-187500.02235174447,-1385.1823073842893,-187500.02235174447,-187500.02235174447,-187500.02235174447,-187500.02235174447,-187500.02235174447,1730244875.0540257,1730244874.7996285,2000
400.6550193613791,-187500.02235174447,-1334.8685306153932,-187500.02235174447,-187500.02235174447,-187500.02235174447,-187500.02235174447,-187500.02235174447,1730244875.056975,1730244874.7996285,2000
417.7764556141443,-187500.02235174447,-1281.2690474115668,-187500.02235174447,-187500.02235174447,-187500.02235174447,-187500.02235174447,-187500.02235174447,1730244875.0610168,1730244874.7996285,2000
391.4684523902479,-187500.02235174447,-1317.680039129262,-187500.02235174447,-187500.02235174447,-187500.02235174447,-187500.02235174447,-187500.02235174447,1730244875.0650065,1730244874.7996285,2000
380.1137662069519,-187500.02235174447,-1380.1978683707555,-187500.02235174447,-187500.02235174447,-187500.02235174447,-187500.02235174447,-187500.02235174447,1730244875.0690117,1730244874.7996285,2000
399.8280048165327,-187500.02235174447,-1356.2367983146669,-187500.02235174447,-187500.02235174447,-187500.02235174447,-187500.02235174447,-187500.02235174447,1730244875.0719988,1730244874.7996285,2000
412.0097055446751,-187500.02235174447,-1281.0902334559244,-187500.02235174447,-187500.02235174447,-187500.02235174447,-187500.02235174447,-187500.02235174447,1730244875.074804,1730244874.7996285,2000
390.7979000565887,-187500.02235174447,-1303.956068033703,-187500.02235174447,-187500.02235174447,-187500.02235174447,-187500.02235174447,-187500.02235174447,1730244875.0789804,1730244874.7996285,2000
373.4529463592704,-187500.02235174447,-1376.4204235578088,-187500.02235174447,-187500.02235174447,-187500.02235174447,-187500.02235174447,-187500.02235174447,1730244875.08285,1730244874.7996285,2000
379.3761586399268,-187500.02235174447,-1370.5195630216078,-187500.02235174447,-187500.02235174447,-187500.02235174447,-187500.02235174447,-187500.02235174447,1730244875.08799,1730244874.7996285,2000
407.89698456489856,-187500.02235174447,-1304.9395447897368,-187500.02235174447,-187500.02235174447,-187500.02235174447,-187500.02235174447,-187500.02235174447,1730244875.09191,1730244874.7996285,2000
396.4752431482367,-187500.02235174447,-1308.1805477357564,-187500.02235174447,-187500.02235174447,-187500.02235174447,-187500.02235174447,-187500.02235174447,1730244875.096059,1730244874.7996285,2000
361.4724113312258,-187500.02235174447,-1371.3689293109096,-187500.02235174447,-187500.02235174447,-187500.02235174447,-187500.02235174447,-187500.02235174447,1730244875.0989783,1730244874.7996285,2000
372.2683039031392,-187500.02235174447,-1377.8285834584933,-187500.02235174447,-187500.02235174447,-187500.02235174447,-187500.02235174447,-187500.02235174447,1730244875.103217,1730244874.7996285,2000
397.0563885040747,-187500.02235174447,-1315.35545770591,-187500.02235174447,-187500.02235174447,-187500.02235174447,-187500.02235174447,-187500.02235174447,1730244875.1069689,1730244874.7996285,2000
394.0612547470635,-187500.02235174447,-1288.2204399371672,-187500.02235174447,-187500.02235174447,-187500.02235174447,-187500.02235174447,-187500.02235174447,1730244875.1110325,1730244874.7996285,2000
372.402414369871,-187500.02235174447,-1354.225141313689,-187500.02235174447,-187500.02235174447,-187500.02235174447,-187500.02235174447,-187500.02235174447,1730244875.1159616,1730244874.7996285,2000
375.7775277826223,-187500.02235174447,-1379.8178887150157,-187500.02235174447,-187500.02235174447,-187500.02235174447,-187500.02235174447,-187500.02235174447,1730244875.1200864,1730244874.7996285,2000
411.3615049554712,-187500.02235174447,-1315.646030383829,-187500.02235174447,-187500.02235174447,-187500.02235174447,-187500.02235174447,-187500.02235174447,1730244875.123005,1730244874.7996285,2000
408.72399910974497,-187500.02235174447,-1281.336102644933,-187500.02235174447,-187500.02235174447,-187500.02235174447,-187500.02235174447,-187500.02235174447,1730244875.1270714,1730244874.7996285,2000
374.3470161374827,-187500.02235174447,-1338.8471411284377,-187500.02235174447,-187500.02235174447,-187500.02235174447,-187500.02235174447,-187500.02235174447,1730244875.1310687,1730244874.7996285,2000
371.3742341249268,-187500.02235174447,-1376.6215892579066,-187500.02235174447,-187500.02235174447,-187500.02235174447,-187500.02235174447,-187500.02235174447,1730244875.135125,1730244874.7996285,2000
406.5111764086696,-187500.02235174447,-1328.2747660010775,-187500.02235174447,-187500.02235174447,-187500.02235174447,-187500.02235174447,-187500.02235174447,1730244875.1390464,1730244874.7996285,2000
410.8474148329991,-187500.02235174447,-1282.1184137008684,-187500.02235174447,-187500.02235174447,-187500.02235174447,-187500.02235174447,-187500.02235174447,1730244875.1441212,1730244874.7996285,2000
386.6404755879016,-187500.02235174447,-1325.9501845777256,-187500.02235174447,-187500.02235174447,-187500.02235174447,-187500.02235174447,-187500.02235174447,1730244875.148134,1730244874.7996285,2000
370.9942544691866,-187500.02235174447,-1386.1434323958674,-187500.02235174447,-187500.02235174447,-187500.02235174447,-187500.02235174447,-187500.02235174447,1730244875.1511831,1730244874.7996285,2000
391.401397156882,-187500.02235174447,-1343.2504347861332,-187500.02235174447,-187500.02235174447,-187500.02235174447,-187500.02235174447,-187500.02235174447,1730244875.155154,1730244874.7996285,2000
412.5461474116025,-187500.02235174447,-1280.486736355631,-187500.02235174447,-187500.02235174447,-187500.02235174447,-187500.02235174447,-187500.02235174447,1730244875.1590905,1730244874.7996285,2000
399.2245077162394,-187500.02235174447,-1308.1581959913012,-187500.02235174447,-187500.02235174447,-187500.02235174447,-187500.02235174447,-187500.02235174447,1730244875.1630952,1730244874.7996285,2000
369.563742824047,-187500.02235174447,-1375.6157607574178,-187500.02235174447,-187500.02235174447,-187500.02235174447,-187500.02235174447,-187500.02235174447,1730244875.1670144,1730244874.7996285,2000
384.628818586924,-187500.02235174447,-1357.7790686820829,-187500.02235174447,-187500.02235174447,-187500.02235174447,-187500.02235174447,-187500.02235174447,1730244875.1711893,1730244874.7996285,2000
406.22060373075055,-187500.02235174447,-1285.582934091441,-187500.02235174447,-187500.02235174447,-187500.02235174447,-187500.02235174447,-187500.02235174447,1730244875.1762166,1730244874.7996285,2000
388.1603942108625,-187500.02235174447,-1298.1893179642343,-187500.02235174447,-187500.02235174447,-187500.02235174447,-187500.02235174447,-187500.02235174447,1730244875.179207,1730244874.7996285,2000
368.8708387459325,-187500.02235174447,-1374.095842134457,-187500.02235174447,-187500.02235174447,-187500.02235174447,-187500.02235174447,-187500.02235174447,1730244875.182979,1730244874.7996285,2000
391.401397156882,-187500.02235174447,-1366.742118208661,-187500.02235174447,-187500.02235174447,-187500.02235174447,-187500.02235174447,-187500.02235174447,1730244875.1870787,1730244874.7996285,2000
389.76971981164456,-187500.02235174447,-1298.2340214531448,-187500.02235174447,-187500.02235174447,-187500.02235174447,-187500.02235174447,-187500.02235174447,1730244875.1910453,1730244874.7996285,2000
384.31589416454966,-187500.02235174447,-1290.2991521715107,-187500.02235174447,-187500.02235174447,-187500.02235174447,-187500.02235174447,-187500.02235174447,1730244875.1952276,1730244874.7996285,2000
362.724109020723,-187500.02235174447,-1360.1483535943453,-187500.02235174447,-187500.02235174447,-187500.02235174447,-187500.02235174447,-187500.02235174447,1730244875.2012353,1730244874.7996285,2000
360.6453967863795,-187500.02235174447,-1382.5224497941078,-187500.02235174447,-187500.02235174447,-187500.02235174447,-187500.02235174447,-187500.02235174447,1730244875.2042296,1730244874.7996285,2000
395.0894349920076,-187500.02235174447,-1316.0036582951138,-187500.02235174447,-187500.02235174447,-187500.02235174447,-187500.02235174447,-187500.02235174447,1730244875.2080436,1730244874.7996285,2000
398.7327693382227,-187500.02235174447,-1281.8948962563154,-187500.02235174447,-187500.02235174447,-187500.02235174447,-187500.02235174447,-187500.02235174447,1730244875.2122312,1730244874.7996285,2000
362.0088531981532,-187500.02235174447,-1357.063812859513,-187500.02235174447,-187500.02235174447,-187500.02235174447,-187500.02235174447,-187500.02235174447,1730244875.2160926,1730244874.7996285,2000
369.7872602686001,-187500.02235174447,-1396.7828627565937,-187500.02235174447,-187500.02235174447,-187500.02235174447,-187500.02235174447,-187500.02235174447,1730244875.2203128,1730244874.7996285,2000
388.853298288977,-187500.02235174447,-1364.573998996496,-187500.02235174447,-187500.02235174447,-187500.02235174447,-187500.02235174447,-187500.02235174447,1730244875.2240665,1730244874.7996285,2000
404.56657464105785,-187500.02235174447,-1294.9259632737594,-187500.02235174447,-187500.02235174447,-187500.02235174447,-187500.02235174447,-187500.02235174447,1730244875.230254,1730244874.7996285,2000
391.0661209900524,-187500.02235174447,-1309.4993006586196,-187500.02235174447,-187500.02235174447,-187500.02235174447,-187500.02235174447,-187500.02235174447,1730244875.2333696,1730244874.7996285,2000
368.7814317681113,-187500.02235174447,-1346.357327265421,-187500.02235174447,-187500.02235174447,-187500.02235174447,-187500.02235174447,-187500.02235174447,1730244875.2371025,1730244874.7996285,2000
389.725016322734,-187500.02235174447,-1326.8666061003933,-187500.02235174447,-187500.02235174447,-187500.02235174447,-187500.02235174447,-187500.02235174447,1730244875.2411442,1730244874.7996285,2000
409.6627723768679,-187500.02235174447,-1289.0251027375582,-187500.02235174447,-187500.02235174447,-187500.02235174447,-187500.02235174447,-187500.02235174447,1730244875.2443292,1730244874.7996285,2000
389.41209190035966,-187500.02235174447,-1331.9181003472925,-187500.02235174447,-187500.02235174447,-187500.02235174447,-187500.02235174447,-187500.02235174447,1730244875.2473152,1730244874.7996285,2000
356.73384150670074,-187500.02235174447,-1379.8178887150157,-187500.02235174447,-187500.02235174447,-187500.02235174447,-187500.02235174447,-187500.02235174447,1730244875.2512553,1730244874.7996285,2000
364.8028212550666,-187500.02235174447,-1261.7783262465389,-187500.02235174447,-187500.02235174447,-187500.02235174447,-187500.02235174447,-187500.02235174447,1730244875.2552028,1730244874.7996285,2000
386.1934406987954,-187500.02235174447,-1110.9264029176716,-187500.02235174447,-187500.02235174447,-187500.02235174447,-187500.02235174447,-187500.02235174447,1730244875.259237,1730244874.7996285,2000
349.6036350254578,-187500.02235174447,-1202.1215202953244,-187500.02235174447,-187500.02235174447,-187500.02235174447,-187500.02235174447,-187500.02235174447,1730244875.2622716,1730244874.7996285,2000
365.562780566547,-187500.02235174447,-1329.3029462460215,-187500.02235174447,-187500.02235174447,-187500.02235174447,-187500.02235174447,-187500.02235174447,1730244875.26717,1730244874.7996285,2000
376.6492458163793,-187500.02235174447,-1327.5595101785077,-187500.02235174447,-187500.02235174447,-187500.02235174447,-187500.02235174447,-187500.02235174447,1730244875.2722394,1730244874.7996285,2000
370.3460538799827,-187500.02235174447,-1299.2845534425442,-187500.02235174447,-187500.02235174447,-187500.02235174447,-187500.02235174447,-187500.02235174447,1730244875.2752233,1730244874.7996285,2000
378.2585714171614,-187500.02235174447,-1268.7297187721394,-187500.02235174447,-187500.02235174447,-187500.02235174447,-187500.02235174447,-187500.02235174447,1730244875.2793334,1730244874.7996285,2000
364.8028212550666,-187500.02235174447,-1348.7266121776834,-187500.02235174447,-187500.02235174447,-187500.02235174447,-187500.02235174447,-187500.02235174447,1730244875.2822192,1730244874.7996285,2000
387.109862221463,-187500.02235174447,-1379.2367433591776,-187500.02235174447,-187500.02235174447,-187500.02235174447,-187500.02235174447,-187500.02235174447,1730244875.2863717,1730244874.7996285,2000
426.6053946739906,-187500.02235174447,-1284.353588146399,-187500.02235174447,-187500.02235174447,-187500.02235174447,-187500.02235174447,-187500.02235174447,1730244875.2904685,1730244874.7996285,2000
391.11082447896297,-187500.02235174447,-1257.2409221221117,-187500.02235174447,-187500.02235174447,-187500.02235174447,-187500.02235174447,-187500.02235174447,1730244875.2954073,1730244874.7996285,2000
349.2236553697176,-187500.02235174447,-1354.158086080323,-187500.02235174447,-187500.02235174447,-187500.02235174447,-187500.02235174447,-187500.02235174447,1730244875.2992651,1730244874.7996285,2000
376.045748716086,-187500.02235174447,-1403.667200048828,-187500.02235174447,-187500.02235174447,-187500.02235174447,-187500.02235174447,-187500.02235174447,1730244875.3033805,1730244874.7996285,2000
401.9514205397869,-187500.02235174447,-1327.0677718004908,-187500.02235174447,-187500.02235174447,-187500.02235174447,-187500.02235174447,-187500.02235174447,1730244875.3072224,1730244874.7996285,2000
399.29156294960535,-187500.02235174447,-1266.3827856043322,-187500.02235174447,-187500.02235174447,-187500.02235174447,-187500.02235174447,-187500.02235174447,1730244875.3104472,1730244874.7996285,2000
354.8339432279996,-187500.02235174447,-1294.4118731512874,-187500.02235174447,-187500.02235174447,-187500.02235174447,-187500.02235174447,-187500.02235174447,1730244875.3144736,1730244874.7996285,2000
338.09248663097463,-187500.02235174447,-1344.323318519988,-187500.02235174447,-187500.02235174447,-187500.02235174447,-187500.02235174447,-187500.02235174447,1730244875.3184512,1730244874.7996285,2000
382.10307146347424,-187500.02235174447,-1335.7178969046947,-187500.02235174447,-187500.02235174447,-187500.02235174447,-187500.02235174447,-187500.02235174447,1730244875.3224442,1730244874.7996285,2000
398.3974931713931,-187500.02235174447,-1230.7094014536622,-187500.02235174447,-187500.02235174447,-187500.02235174447,-187500.02235174447,-187500.02235174447,1730244875.3274608,1730244874.7996285,2000
307.694114171757,-187500.02235174447,-1026.9956024879937,-187500.02235174447,-187500.02235174447,-187500.02235174447,-187500.02235174447,-187500.02235174447,1730244875.331308,1730244874.7996285,2000
251.8818082668553,-187500.02235174447,-1117.6095745098085,-187500.02235174447,-187500.02235174447,-187500.02235174447,-187500.02235174447,-187500.02235174447,1730244875.3353877,1730244874.7996285,2000
370.83779225799947,-187500.02235174447,-1248.5684452734524,-187500.02235174447,-187500.02235174447,-187500.02235174447,-187500.02235174447,-187500.02235174447,1730244875.3383486,1730244874.7996285,2000
411.4062084443818,-187500.02235174447,-1274.3176548859662,-187500.02235174447,-187500.02235174447,-187500.02235174447,-187500.02235174447,-187500.02235174447,1730244875.3423405,1730244874.7996285,2000
367.97676896772015,-187500.02235174447,-1403.3319238819986,-187500.02235174447,-187500.02235174447,-187500.02235174447,-187500.02235174447,-187500.02235174447,1730244875.346318,1730244874.7996285,2000
380.4043388848709,-187500.02235174447,-1440.1675987443446,-187500.02235174447,-187500.02235174447,-187500.02235174447,-187500.02235174447,-187500.02235174447,1730244875.35246,1730244874.7996285,2000
382.2148301857508,-187500.02235174447,-1295.9764952631588,-187500.02235174447,-187500.02235174447,-187500.02235174447,-187500.02235174447,-187500.02235174447,1730244875.3554645,1730244874.7996285,2000
421.2856794936275,-187500.02235174447,-1204.4461017186763,-187500.02235174447,-187500.02235174447,-187500.02235174447,-187500.02235174447,-187500.02235174447,1730244875.3594198,1730244874.7996285,2000
447.14664782841777,-187500.02235174447,-1311.421550681776,-187500.02235174447,-187500.02235174447,-187500.02235174447,-187500.02235174447,-187500.02235174447,1730244875.3635993,1730244874.7996285,2000
370.9942544691866,-187500.02235174447,-1441.7545726006715,-187500.02235174447,-187500.02235174447,-187500.02235174447,-187500.02235174447,-187500.02235174447,1730244875.3694465,1730244874.7996285,2000
317.86415789892175,-187500.02235174447,-1296.8929167858264,-187500.02235174447,-187500.02235174447,-187500.02235174447,-187500.02235174447,-187500.02235174447,1730244875.3724651,1730244874.7996285,2000
365.69689103327886,-187500.02235174447,-1177.5793048833973,-187500.02235174447,-187500.02235174447,-187500.02235174447,-187500.02235174447,-187500.02235174447,1730244875.3753877,1730244874.7996285,2000
357.8961322183767,-187500.02235174447,-1293.4283963952537,-187500.02235174447,-187500.02235174447,-187500.02235174447,-187500.02235174447,-187500.02235174447,1730244875.3785424,1730244874.7996285,2000
354.3869083388935,-187500.02235174447,-1410.1045024519567,-187500.02235174447,-187500.02235174447,-187500.02235174447,-187500.02235174447,-187500.02235174447,1730244875.3845854,1730244874.7996285,2000
382.1254232079296,-187500.02235174447,-1412.093807708479,-187500.02235174447,-187500.02235174447,-187500.02235174447,-187500.02235174447,-187500.02235174447,1730244875.3875422,1730244874.7996285,2000
412.6802578783343,-187500.02235174447,-1269.6684920392624,-187500.02235174447,-187500.02235174447,-187500.02235174447,-187500.02235174447,-187500.02235174447,1730244875.3913872,1730244874.7996285,2000
362.5899985539912,-187500.02235174447,-1132.7640572505063,-187500.02235174447,-187500.02235174447,-187500.02235174447,-187500.02235174447,-187500.02235174447,1730244875.394585,1730244874.7996285,2000
228.1442556553192,-187500.02235174447,-1130.305365360423,-187500.02235174447,-187500.02235174447,-187500.02235174447,-187500.02235174447,-187500.02235174447,1730244875.398536,1730244874.7996285,2000
291.1985267637404,-187500.02235174447,-1287.1475562033124,-187500.02235174447,-187500.02235174447,-187500.02235174447,-187500.02235174447,-187500.02235174447,1730244875.4024858,1730244874.7996285,2000
410.1321590104293,-187500.02235174447,-1361.288292561566,-187500.02235174447,-187500.02235174447,-187500.02235174447,-187500.02235174447,-187500.02235174447,1730244875.4064677,1730244874.7996285,2000
428.8405691195213,-187500.02235174447,-1283.5265736015529,-187500.02235174447,-187500.02235174447,-187500.02235174447,-187500.02235174447,-187500.02235174447,1730244875.4103696,1730244874.7996285,2000
369.49668759068106,-187500.02235174447,-1274.7646897750724,-187500.02235174447,-187500.02235174447,-187500.02235174447,-187500.02235174447,-187500.02235174447,1730244875.415387,1730244874.7996285,2000
367.7532515231671,-187500.02235174447,-1341.2611295296108,-187500.02235174447,-187500.02235174447,-187500.02235174447,-187500.02235174447,-187500.02235174447,1730244875.4195871,1730244874.7996285,2000
422.1797492718398,-187500.02235174447,-1339.5623969510077,-187500.02235174447,-187500.02235174447,-187500.02235174447,-187500.02235174447,-187500.02235174447,1730244875.4225988,1730244874.7996285,2000
428.4382377193258,-187500.02235174447,-1265.376957103843,-187500.02235174447,-187500.02235174447,-187500.02235174447,-187500.02235174447,-187500.02235174447,1730244875.4265993,1730244874.7996285,2000
373.8105742705553,-187500.02235174447,-1188.7104736221402,-187500.02235174447,-187500.02235174447,-187500.02235174447,-187500.02235174447,-187500.02235174447,1730244875.4316833,1730244874.7996285,2000
333.95741390674283,-187500.02235174447,-1257.419736077754,-187500.02235174447,-187500.02235174447,-187500.02235174447,-187500.02235174447,-187500.02235174447,1730244875.435742,1730244874.7996285,2000
384.0029697421753,-187500.02235174447,-1389.3620835974318,-187500.02235174447,-187500.02235174447,-187500.02235174447,-187500.02235174447,-187500.02235174447,1730244875.4386714,1730244874.7996285,2000
431.4110197318816,-187500.02235174447,-1321.6362978978514,-187500.02235174447,-187500.02235174447,-187500.02235174447,-187500.02235174447,-187500.02235174447,1730244875.4436977,1730244874.7996285,2000
385.2770191761279,-187500.02235174447,-1303.956068033703,-187500.02235174447,-187500.02235174447,-187500.02235174447,-187500.02235174447,-187500.02235174447,1730244875.446845,1730244874.7996285,2000
324.9496608912541,-187500.02235174447,-1283.0571869679914,-187500.02235174447,-187500.02235174447,-187500.02235174447,-187500.02235174447,-187500.02235174447,1730244875.449541,1730244874.7996285,2000
307.9176316163101,-187500.02235174447,-1212.8950611227824,-187500.02235174447,-187500.02235174447,-187500.02235174447,-187500.02235174447,-187500.02235174447,1730244875.454709,1730244874.7996285,2000
387.1992691992842,-187500.02235174447,-1233.4139625327543,-187500.02235174447,-187500.02235174447,-187500.02235174447,-187500.02235174447,-187500.02235174447,1730244875.4597049,1730244874.7996285,2000
407.24878397569466,-187500.02235174447,-1326.9783648226696,-187500.02235174447,-187500.02235174447,-187500.02235174447,-187500.02235174447,-187500.02235174447,1730244875.463744,1730244874.7996285,2000
364.5122485771476,-187500.02235174447,-1403.153109926356,-187500.02235174447,-187500.02235174447,-187500.02235174447,-187500.02235174447,-187500.02235174447,1730244875.4665203,1730244874.7996285,2000
381.4772226187257,-187500.02235174447,-1329.8840916018596,-187500.02235174447,-187500.02235174447,-187500.02235174447,-187500.02235174447,-187500.02235174447,1730244875.4716609,1730244874.7996285,2000
383.53358310861387,-187500.02235174447,-1232.519892754542,-187500.02235174447,-187500.02235174447,-187500.02235174447,-187500.02235174447,-187500.02235174447,1730244875.4745593,1730244874.7996285,2000
369.273170146128,-187500.02235174447,-1273.4012333632986,-187500.02235174447,-187500.02235174447,-187500.02235174447,-187500.02235174447,-187500.02235174447,1730244875.4777296,1730244874.7996285,2000
334.4715040292149,-187500.02235174447,-1300.8938790433265,-187500.02235174447,-187500.02235174447,-187500.02235174447,-187500.02235174447,-187500.02235174447,1730244875.4825776,1730244874.7996285,2000
318.6911724437681,-187500.02235174447,-1284.3759398908544,-187500.02235174447,-187500.02235174447,-187500.02235174447,-187500.02235174447,-187500.02235174447,1730244875.4866693,1730244874.7996285,2000
363.1934956542845,-187500.02235174447,-1273.289474641022,-187500.02235174447,-187500.02235174447,-187500.02235174447,-187500.02235174447,-187500.02235174447,1730244875.4905646,1730244874.7996285,2000
374.3470161374827,-187500.02235174447,-1215.0855320794026,-187500.02235174447,-187500.02235174447,-187500.02235174447,-187500.02235174447,-187500.02235174447,1730244875.4947546,1730244874.7996285,2000
348.4189925693265,-187500.02235174447,-1261.7336227576284,-187500.02235174447,-187500.02235174447,-187500.02235174447,-187500.02235174447,-187500.02235174447,1730244875.4986734,1730244874.7996285,2000
349.6483385143684,-187500.02235174447,-1286.5217073585638,-187500.02235174447,-187500.02235174447,-187500.02235174447,-187500.02235174447,-187500.02235174447,1730244875.5037146,1730244874.7996285,2000
344.32862333400533,-187500.02235174447,-1249.171942373746,-187500.02235174447,-187500.02235174447,-187500.02235174447,-187500.02235174447,-187500.02235174447,1730244875.5076132,1730244874.7996285,2000
350.87768445941026,-187500.02235174447,-1233.972756144137,-187500.02235174447,-187500.02235174447,-187500.02235174447,-187500.02235174447,-187500.02235174447,1730244875.510594,1730244874.7996285,2000
356.4432688287817,-187500.02235174447,-1282.9230765012594,-187500.02235174447,-187500.02235174447,-187500.02235174447,-187500.02235174447,-187500.02235174447,1730244875.5147667,1730244874.7996285,2000
351.950568193265,-187500.02235174447,-1295.6412190963292,-187500.02235174447,-187500.02235174447,-187500.02235174447,-187500.02235174447,-187500.02235174447,1730244875.5186954,1730244874.7996285,2000
371.3295306360162,-187500.02235174447,-1281.9619514896813,-187500.02235174447,-187500.02235174447,-187500.02235174447,-187500.02235174447,-187500.02235174447,1730244875.5227635,1730244874.7996285,2000
393.86008904696575,-187500.02235174447,-1233.6374799773073,-187500.02235174447,-187500.02235174447,-187500.02235174447,-187500.02235174447,-187500.02235174447,1730244875.5267613,1730244874.7996285,2000
407.3158392090606,-187500.02235174447,-1283.5042218570975,-187500.02235174447,-187500.02235174447,-187500.02235174447,-187500.02235174447,-187500.02235174447,1730244875.531783,1730244874.7996285,2000
388.42861514432616,-187500.02235174447,-1341.8199231409935,-187500.02235174447,-187500.02235174447,-187500.02235174447,-187500.02235174447,-187500.02235174447,1730244875.5347767,1730244874.7996285,2000
361.4053560978599,-187500.02235174447,-1327.783027623061,-187500.02235174447,-187500.02235174447,-187500.02235174447,-187500.02235174447,-187500.02235174447,1730244875.5400393,1730244874.7996285,2000
381.83485053001056,-187500.02235174447,-1287.661646325785,-187500.02235174447,-187500.02235174447,-187500.02235174447,-187500.02235174447,-187500.02235174447,1730244875.5441215,1730244874.7996285,2000
365.5851323110023,-187500.02235174447,-1287.4828323701422,-187500.02235174447,-187500.02235174447,-187500.02235174447,-187500.02235174447,-187500.02235174447,1730244875.5468185,1730244874.7996285,2000
311.7174281737123,-187500.02235174447,-1314.930774561259,-187500.02235174447,-187500.02235174447,-187500.02235174447,-187500.02235174447,-187500.02235174447,1730244875.5508313,1730244874.7996285,2000
327.855387670444,-187500.02235174447,-1301.2515069546112,-187500.02235174447,-187500.02235174447,-187500.02235174447,-187500.02235174447,-187500.02235174447,1730244875.5548348,1730244874.7996285,2000
387.109862221463,-187500.02235174447,-1258.8949512118045,-187500.02235174447,-187500.02235174447,-187500.02235174447,-187500.02235174447,-187500.02235174447,1730244875.5576527,1730244874.7996285,2000
370.48016434671456,-187500.02235174447,-1271.9036664847931,-187500.02235174447,-187500.02235174447,-187500.02235174447,-187500.02235174447,-187500.02235174447,1730244875.5618813,1730244874.7996285,2000
346.31792859052763,-187500.02235174447,-1293.517803373075,-187500.02235174447,-187500.02235174447,-187500.02235174447,-187500.02235174447,-187500.02235174447,1730244875.5657952,1730244874.7996285,2000
326.11195160293005,-187500.02235174447,-1250.8483232078938,-187500.02235174447,-187500.02235174447,-187500.02235174447,-187500.02235174447,-187500.02235174447,1730244875.5708573,1730244874.7996285,2000
353.4704868162259,-187500.02235174447,-1233.8833491663158,-187500.02235174447,-187500.02235174447,-187500.02235174447,-187500.02235174447,-187500.02235174447,1730244875.5746713,1730244874.7996285,2000
361.60652179795767,-187500.02235174447,-1269.333215872433,-187500.02235174447,-187500.02235174447,-187500.02235174447,-187500.02235174447,-187500.02235174447,1730244875.578852,1730244874.7996285,2000
342.1828558662958,-187500.02235174447,-1316.7189141176837,-187500.02235174447,-187500.02235174447,-187500.02235174447,-187500.02235174447,-187500.02235174447,1730244875.5819335,1730244874.7996285,2000
357.1808763958069,-187500.02235174447,-1355.4321355142756,-187500.02235174447,-187500.02235174447,-187500.02235174447,-187500.02235174447,-187500.02235174447,1730244875.5879655,1730244874.7996285,2000
391.35669366797134,-187500.02235174447,-1292.355512661399,-187500.02235174447,-187500.02235174447,-187500.02235174447,-187500.02235174447,-187500.02235174447,1730244875.5907447,1730244874.7996285,2000
367.3956236118822,-187500.02235174447,-1242.1758463592348,-187500.02235174447,-187500.02235174447,-187500.02235174447,-187500.02235174447,-187500.02235174447,1730244875.5938947,1730244874.7996285,2000
358.07494617401915,-187500.02235174447,-1296.3341231744437,-187500.02235174447,-187500.02235174447,-187500.02235174447,-187500.02235174447,-187500.02235174447,1730244875.5986812,1730244874.7996285,2000
362.8582194874549,-187500.02235174447,-1365.7586414526274,-187500.02235174447,-187500.02235174447,-187500.02235174447,-187500.02235174447,-187500.02235174447,1730244875.6038785,1730244874.7996285,2000
349.5589315365472,-187500.02235174447,-1310.549832648019,-187500.02235174447,-187500.02235174447,-187500.02235174447,-187500.02235174447,-187500.02235174447,1730244875.6068442,1730244874.7996285,2000
342.92046343332095,-187500.02235174447,-1232.4081340322657,-187500.02235174447,-187500.02235174447,-187500.02235174447,-187500.02235174447,-187500.02235174447,1730244875.6108963,1730244874.7996285,2000
339.14301862037405,-187500.02235174447,-1302.3020389440107,-187500.02235174447,-187500.02235174447,-187500.02235174447,-187500.02235174447,-187500.02235174447,1730244875.614892,1730244874.7996285,2000
354.8115914835443,-187500.02235174447,-1367.680891475784,-187500.02235174447,-187500.02235174447,-187500.02235174447,-187500.02235174447,-187500.02235174447,1730244875.618888,1730244874.7996285,2000
367.4850305897034,-187500.02235174447,-1317.5012251736196,-187500.02235174447,-187500.02235174447,-187500.02235174447,-187500.02235174447,-187500.02235174447,1730244875.6218743,1730244874.7996285,2000
371.6871585473011,-187500.02235174447,-1216.9630786136483,-187500.02235174447,-187500.02235174447,-187500.02235174447,-187500.02235174447,-187500.02235174447,1730244875.6259427,1730244874.7996285,2000
360.06425143054145,-187500.02235174447,-1266.0922129264134,-187500.02235174447,-187500.02235174447,-187500.02235174447,-187500.02235174447,-187500.02235174447,1730244875.6299393,1730244874.7996285,2000
332.5939574949691,-187500.02235174447,-1307.0853122574465,-187500.02235174447,-187500.02235174447,-187500.02235174447,-187500.02235174447,-187500.02235174447,1730244875.633816,1730244874.7996285,2000
344.23921635618404,-187500.02235174447,-1271.210762406679,-187500.02235174447,-187500.02235174447,-187500.02235174447,-187500.02235174447,-187500.02235174447,1730244875.6388173,1730244874.7996285,2000
425.7783801291442,-187500.02235174447,-1250.1554191297794,-187500.02235174447,-187500.02235174447,-187500.02235174447,-187500.02235174447,-187500.02235174447,1730244875.642852,1730244874.7996285,2000
400.40915017237074,-187500.02235174447,-1222.3051455384668,-187500.02235174447,-187500.02235174447,-187500.02235174447,-187500.02235174447,-187500.02235174447,1730244875.6468415,1730244874.7996285,2000
324.77084693561164,-187500.02235174447,-1291.0814632274466,-187500.02235174447,-187500.02235174447,-187500.02235174447,-187500.02235174447,-187500.02235174447,1730244875.6497808,1730244874.7996285,2000
362.7688125096336,-187500.02235174447,-1321.032800797558,-187500.02235174447,-187500.02235174447,-187500.02235174447,-187500.02235174447,-187500.02235174447,1730244875.6538496,1730244874.7996285,2000
390.8426035454993,-187500.02235174447,-1253.5752360314414,-187500.02235174447,-187500.02235174447,-187500.02235174447,-187500.02235174447,-187500.02235174447,1730244875.6588874,1730244874.7996285,2000
363.9087514768543,-187500.02235174447,-1237.0572968789693,-187500.02235174447,-187500.02235174447,-187500.02235174447,-187500.02235174447,-187500.02235174447,1730244875.664008,1730244874.7996285,2000
330.17996909379593,-187500.02235174447,-1324.6090799104072,-187500.02235174447,-187500.02235174447,-187500.02235174447,-187500.02235174447,-187500.02235174447,1730244875.666816,1730244874.7996285,2000
328.9953266376647,-187500.02235174447,-1351.542931979052,-187500.02235174447,-187500.02235174447,-187500.02235174447,-187500.02235174447,-187500.02235174447,1730244875.6709964,1730244874.7996285,2000
354.29750136107225,-187500.02235174447,-1280.3749776333543,-187500.02235174447,-187500.02235174447,-187500.02235174447,-187500.02235174447,-187500.02235174447,1730244875.6749692,1730244874.7996285,2000
349.2236553697176,-187500.02235174447,-1262.806506491483,-187500.02235174447,-187500.02235174447,-187500.02235174447,-187500.02235174447,-187500.02235174447,1730244875.680013,1730244874.7996285,2000
313.1032363299413,-187500.02235174447,-1328.1183037898904,-187500.02235174447,-187500.02235174447,-187500.02235174447,-187500.02235174447,-187500.02235174447,1730244875.684003,1730244874.7996285,2000
339.3888878093824,-187500.02235174447,-1337.7519056501278,-187500.02235174447,-187500.02235174447,-187500.02235174447,-187500.02235174447,-187500.02235174447,1730244875.6870286,1730244874.7996285,2000
398.5092518936696,-187500.02235174447,-1286.3428934029214,-187500.02235174447,-187500.02235174447,-187500.02235174447,-187500.02235174447,-187500.02235174447,1730244875.6920562,1730244874.7996285,2000
400.498557150192,-187500.02235174447,-1243.0252126485364,-187500.02235174447,-187500.02235174447,-187500.02235174447,-187500.02235174447,-187500.02235174447,1730244875.6950247,1730244874.7996285,2000
352.19643738227336,-187500.02235174447,-1289.5391928600304,-187500.02235174447,-187500.02235174447,-187500.02235174447,-187500.02235174447,-187500.02235174447,1730244875.700204,1730244874.7996285,2000
315.09254158646365,-187500.02235174447,-1264.974625703648,-187500.02235174447,-187500.02235174447,-187500.02235174447,-187500.02235174447,-187500.02235174447,1730244875.703081,1730244874.7996285,2000
320.5910707224692,-187500.02235174447,-1188.0175695440255,-187500.02235174447,-187500.02235174447,-187500.02235174447,-187500.02235174447,-187500.02235174447,1730244875.7069013,1730244874.7996285,2000
344.887416945388,-187500.02235174447,-1211.106921566358,-187500.02235174447,-187500.02235174447,-187500.02235174447,-187500.02235174447,-187500.02235174447,1730244875.710184,1730244874.7996285,2000
370.48016434671456,-187500.02235174447,-1306.2359459681447,-187500.02235174447,-187500.02235174447,-187500.02235174447,-187500.02235174447,-187500.02235174447,1730244875.7139008,1730244874.7996285,2000
368.2226381567286,-187500.02235174447,-1381.1366416378787,-187500.02235174447,-187500.02235174447,-187500.02235174447,-187500.02235174447,-187500.02235174447,1730244875.7201843,1730244874.7996285,2000
361.4500595867705,-187500.02235174447,-1296.5352888745415,-187500.02235174447,-187500.02235174447,-187500.02235174447,-187500.02235174447,-187500.02235174447,1730244875.72192,1730244874.7996285,2000
368.3343968790051,-187500.02235174447,-1251.943558686204,-187500.02235174447,-187500.02235174447,-187500.02235174447,-187500.02235174447,-187500.02235174447,1730244875.7271194,1730244874.7996285,2000
390.6637895898568,-187500.02235174447,-1321.0104490531028,-187500.02235174447,-187500.02235174447,-187500.02235174447,-187500.02235174447,-187500.02235174447,1730244875.7356915,1730244874.7996285,2000
363.8640479879437,-187500.02235174447,-1346.0891063319573,-187500.02235174447,-187500.02235174447,-187500.02235174447,-187500.02235174447,-187500.02235174447,1730244875.7357204,1730244874.7996285,2000
375.3751963824268,-187500.02235174447,-1336.611966682907,-187500.02235174447,-187500.02235174447,-187500.02235174447,-187500.02235174447,-187500.02235174447,1730244875.7379148,1730244874.7996285,2000
430.0699150645632,-187500.02235174447,-1259.1184686563574,-187500.02235174447,-187500.02235174447,-187500.02235174447,-187500.02235174447,-187500.02235174447,1730244875.7459462,1730244874.7996285,2000
358.03024268510853,-187500.02235174447,-1262.9182652137597,-187500.02235174447,-187500.02235174447,-187500.02235174447,-187500.02235174447,-187500.02235174447,1730244875.7479875,1730244874.7996285,2000
328.07890511499704,-187500.02235174447,-1343.2504347861332,-187500.02235174447,-187500.02235174447,-187500.02235174447,-187500.02235174447,-187500.02235174447,1730244875.7511394,1730244874.7996285,2000
361.0924316754856,-187500.02235174447,-1311.041571026036,-187500.02235174447,-187500.02235174447,-187500.02235174447,-187500.02235174447,-187500.02235174447,1730244875.7549407,1730244874.7996285,2000
357.9631874517426,-187500.02235174447,-1235.5820817449192,-187500.02235174447,-187500.02235174447,-187500.02235174447,-187500.02235174447,-187500.02235174447,1730244875.7579713,1730244874.7996285,2000
388.76389131115576,-187500.02235174447,-1232.1622648432572,-187500.02235174447,-187500.02235174447,-187500.02235174447,-187500.02235174447,-187500.02235174447,1730244875.7610617,1730244874.7996285,2000
321.4851405006815,-187500.02235174447,-1264.9299222147372,-187500.02235174447,-187500.02235174447,-187500.02235174447,-187500.02235174447,-187500.02235174447,1730244875.7660756,1730244874.7996285,2000
321.68630620077926,-187500.02235174447,-1307.5994023799185,-187500.02235174447,-187500.02235174447,-187500.02235174447,-187500.02235174447,-187500.02235174447,1730244875.7720065,1730244874.7996285,2000
420.9056998378873,-187500.02235174447,-1322.1727397647787,-187500.02235174447,-187500.02235174447,-187500.02235174447,-187500.02235174447,-187500.02235174447,1730244875.77415,1730244874.7996285,2000
384.7629290536558,-187500.02235174447,-1290.6344283383405,-187500.02235174447,-187500.02235174447,-187500.02235174447,-187500.02235174447,-187500.02235174447,1730244875.7780569,1730244874.7996285,2000
333.6221377399132,-187500.02235174447,-1335.449675971231,-187500.02235174447,-187500.02235174447,-187500.02235174447,-187500.02235174447,-187500.02235174447,1730244875.7819824,1730244874.7996285,2000
324.6367364688798,-187500.02235174447,-1323.4691409431864,-187500.02235174447,-187500.02235174447,-187500.02235174447,-187500.02235174447,-187500.02235174447,1730244875.7850788,1730244874.7996285,2000
361.3830043534046,-187500.02235174447,-1272.7306810296395,-187500.02235174447,-187500.02235174447,-187500.02235174447,-187500.02235174447,-187500.02235174447,1730244875.7892597,1730244874.7996285,2000
375.0846237045078,-187500.02235174447,-1241.2370730921118,-187500.02235174447,-187500.02235174447,-187500.02235174447,-187500.02235174447,-187500.02235174447,1730244875.7941496,1730244874.7996285,2000
352.822286227022,-187500.02235174447,-1314.6402018833403,-187500.02235174447,-187500.02235174447,-187500.02235174447,-187500.02235174447,-187500.02235174447,1730244875.8030906,1730244874.7996285,2000
361.7853357536001,-187500.02235174447,-1337.774257394583,-187500.02235174447,-187500.02235174447,-187500.02235174447,-187500.02235174447,-187500.02235174447,1730244875.8031096,1730244874.7996285,2000
366.7474230226783,-187500.02235174447,-1260.4595733236758,-187500.02235174447,-187500.02235174447,-187500.02235174447,-187500.02235174447,-187500.02235174447,1730244875.8061173,1730244874.7996285,2000
347.6143297689354,-187500.02235174447,-1201.7191888951288,-187500.02235174447,-187500.02235174447,-187500.02235174447,-187500.02235174447,-187500.02235174447,1730244875.8138616,1730244874.7996285,2000
337.0643063860305,-187500.02235174447,-1269.2885123835222,-187500.02235174447,-187500.02235174447,-187500.02235174447,-187500.02235174447,-187500.02235174447,1730244875.8140967,1730244874.7996285,2000
388.7191878222452,-187500.02235174447,-1364.998682141147,-187500.02235174447,-187500.02235174447,-187500.02235174447,-187500.02235174447,-187500.02235174447,1730244875.8171556,1730244874.7996285,2000
397.3246094375384,-187500.02235174447,-1321.8598153424043,-187500.02235174447,-187500.02235174447,-187500.02235174447,-187500.02235174447,-187500.02235174447,1730244875.8222325,1730244874.7996285,2000
372.1788969253179,-187500.02235174447,-1239.0913056244024,-187500.02235174447,-187500.02235174447,-187500.02235174447,-187500.02235174447,-187500.02235174447,1730244875.8296976,1730244874.7996285,2000
343.56866402252484,-187500.02235174447,-1255.788058732517,-187500.02235174447,-187500.02235174447,-187500.02235174447,-187500.02235174447,-187500.02235174447,1730244875.831972,1730244874.7996285,2000
357.71731826273424,-187500.02235174447,-1354.5604174805187,-187500.02235174447,-187500.02235174447,-187500.02235174447,-187500.02235174447,-187500.02235174447,1730244875.8356109,1730244874.7996285,2000
401.6384961174126,-187500.02235174447,-1337.6624986723066,-187500.02235174447,-187500.02235174447,-187500.02235174447,-187500.02235174447,-187500.02235174447,1730244875.8401206,1730244874.7996285,2000
402.5549176400802,-187500.02235174447,-1275.099965941902,-187500.02235174447,-187500.02235174447,-187500.02235174447,-187500.02235174447,-187500.02235174447,1730244875.8431408,1730244874.7996285,2000
369.6978532907788,-187500.02235174447,-1271.2778176400443,-187500.02235174447,-187500.02235174447,-187500.02235174447,-187500.02235174447,-187500.02235174447,1730244875.8475251,1730244874.7996285,2000
336.2819953300948,-187500.02235174447,-1347.74313542165,-187500.02235174447,-187500.02235174447,-187500.02235174447,-187500.02235174447,-187500.02235174447,1730244875.851047,1730244874.7996285,2000
394.5753448695356,-187500.02235174447,-1347.2737487880886,-187500.02235174447,-187500.02235174447,-187500.02235174447,-187500.02235174447,-187500.02235174447,1730244875.8541987,1730244874.7996285,2000
431.4780749652475,-187500.02235174447,-1303.0843499999464,-187500.02235174447,-187500.02235174447,-187500.02235174447,-187500.02235174447,-187500.02235174447,1730244875.8581593,1730244874.7996285,2000
342.7640012221338,-187500.02235174447,-1278.139803187824,-187500.02235174447,-187500.02235174447,-187500.02235174447,-187500.02235174447,-187500.02235174447,1730244875.86222,1730244874.7996285,2000
345.9155971903321,-187500.02235174447,-1319.490530430142,-187500.02235174447,-187500.02235174447,-187500.02235174447,-187500.02235174447,-187500.02235174447,1730244875.8651516,1730244874.7996285,2000
404.8571473189768,-187500.02235174447,-1371.3465775664542,-187500.02235174447,-187500.02235174447,-187500.02235174447,-187500.02235174447,-187500.02235174447,1730244875.8699088,1730244874.7996285,2000
379.06323421755246,-187500.02235174447,-1255.877465710338,-187500.02235174447,-187500.02235174447,-187500.02235174447,-187500.02235174447,-187500.02235174447,1730244875.8731763,1730244874.7996285,2000
349.11189664744103,-187500.02235174447,-1240.38770680281,-187500.02235174447,-187500.02235174447,-187500.02235174447,-187500.02235174447,-187500.02235174447,1730244875.8771925,1730244874.7996285,2000
348.1284198914075,-187500.02235174447,-1328.5653386789966,-187500.02235174447,-187500.02235174447,-187500.02235174447,-187500.02235174447,-187500.02235174447,1730244875.8821888,1730244874.7996285,2000
337.6901552307791,-187500.02235174447,-1330.6887544022509,-187500.02235174447,-187500.02235174447,-187500.02235174447,-187500.02235174447,-187500.02235174447,1730244875.8862407,1730244874.7996285,2000
320.5687189780139,-187500.02235174447,-1213.1856338007017,-187500.02235174447,-187500.02235174447,-187500.02235174447,-187500.02235174447,-187500.02235174447,1730244875.8926637,1730244874.7996285,2000
361.53946656459175,-187500.02235174447,-1266.941579215715,-187500.02235174447,-187500.02235174447,-187500.02235174447,-187500.02235174447,-187500.02235174447,1730244875.8943708,1730244874.7996285,2000
373.6764638038235,-187500.02235174447,-1324.9443560772368,-187500.02235174447,-187500.02235174447,-187500.02235174447,-187500.02235174447,-187500.02235174447,1730244875.8982382,1730244874.7996285,2000
338.74068722017853,-187500.02235174447,-1328.5206351900858,-187500.02235174447,-187500.02235174447,-187500.02235174447,-187500.02235174447,-187500.02235174447,1730244875.9012249,1730244874.7996285,2000
376.045748716086,-187500.02235174447,-1318.842329840938,-187500.02235174447,-187500.02235174447,-187500.02235174447,-187500.02235174447,-187500.02235174447,1730244875.9052193,1730244874.7996285,2000
400.9008885503875,-187500.02235174447,-1259.3866895898211,-187500.02235174447,-187500.02235174447,-187500.02235174447,-187500.02235174447,-187500.02235174447,1730244875.9117384,1730244874.7996285,2000
352.0846786599968,-187500.02235174447,-1265.6004745483965,-187500.02235174447,-187500.02235174447,-187500.02235174447,-187500.02235174447,-187500.02235174447,1730244875.9152849,1730244874.7996285,2000
339.83592269848856,-187500.02235174447,-1344.0103940976137,-187500.02235174447,-187500.02235174447,-187500.02235174447,-187500.02235174447,-187500.02235174447,1730244875.9196055,1730244874.7996285,2000
360.3771758529158,-187500.02235174447,-1320.6975246307284,-187500.02235174447,-187500.02235174447,-187500.02235174447,-187500.02235174447,-187500.02235174447,1730244875.9226468,1730244874.7996285,2000
371.5753998250246,-187500.02235174447,-1222.4169042607432,-187500.02235174447,-187500.02235174447,-187500.02235174447,-187500.02235174447,-187500.02235174447,1730244875.9253027,1730244874.7996285,2000
365.3169113775386,-187500.02235174447,-1257.129163399835,-187500.02235174447,-187500.02235174447,-187500.02235174447,-187500.02235174447,-187500.02235174447,1730244875.9294922,1730244874.7996285,2000
380.00200748467535,-187500.02235174447,-1330.3981817243316,-187500.02235174447,-187500.02235174447,-187500.02235174447,-187500.02235174447,-187500.02235174447,1730244875.933395,1730244874.7996285,2000
370.949550980276,-187500.02235174447,-1342.7586964081163,-187500.02235174447,-187500.02235174447,-187500.02235174447,-187500.02235174447,-187500.02235174447,1730244875.9385762,1730244874.7996285,2000
356.4879723176924,-187500.02235174447,-1294.9483150182148,-187500.02235174447,-187500.02235174447,-187500.02235174447,-187500.02235174447,-187500.02235174447,1730244875.9425204,1730244874.7996285,2000
336.4161057968266,-187500.02235174447,-1292.802547550505,-187500.02235174447,-187500.02235174447,-187500.02235174447,-187500.02235174447,-187500.02235174447,1730244875.945938,1730244874.7996285,2000
349.15660013635164,-187500.02235174447,-1347.005527854625,-187500.02235174447,-187500.02235174447,-187500.02235174447,-187500.02235174447,-187500.02235174447,1730244875.9493644,1730244874.7996285,2000
405.88532756392095,-187500.02235174447,-1346.4914377321527,-187500.02235174447,-187500.02235174447,-187500.02235174447,-187500.02235174447,-187500.02235174447,1730244875.9538565,1730244874.7996285,2000
433.5344354551358,-187500.02235174447,-1281.87254451186,-187500.02235174447,-187500.02235174447,-187500.02235174447,-187500.02235174447,-187500.02235174447,1730244875.9574215,1730244874.7996285,2000
322.1109893454301,-187500.02235174447,-1247.652023750785,-187500.02235174447,-187500.02235174447,-187500.02235174447,-187500.02235174447,-187500.02235174447,1730244875.9618883,1730244874.7996285,2000
323.6756114573016,-187500.02235174447,-1312.650896626818,-187500.02235174447,-187500.02235174447,-187500.02235174447,-187500.02235174447,-187500.02235174447,1730244875.9663987,1730244874.7996285,2000
356.6444345288795,-187500.02235174447,-1337.3048707610214,-187500.02235174447,-187500.02235174447,-187500.02235174447,-187500.02235174447,-187500.02235174447,1730244875.970723,1730244874.7996285,2000
327.0060213811423,-187500.02235174447,-1280.129108444346,-187500.02235174447,-187500.02235174447,-187500.02235174447,-187500.02235174447,-187500.02235174447,1730244875.9736588,1730244874.7996285,2000
335.5890912519802,-187500.02235174447,-1225.903776395771,-187500.02235174447,-187500.02235174447,-187500.02235174447,-187500.02235174447,-187500.02235174447,1730244875.9775944,1730244874.7996285,2000
311.4492072402486,-187500.02235174447,-1263.611169291874,-187500.02235174447,-187500.02235174447,-187500.02235174447,-187500.02235174447,-187500.02235174447,1730244875.981681,1730244874.7996285,2000
322.62507946790214,-187500.02235174447,-1369.7819554545829,-187500.02235174447,-187500.02235174447,-187500.02235174447,-187500.02235174447,-187500.02235174447,1730244875.985663,1730244874.7996285,2000
358.81255374104427,-187500.02235174447,-1330.9569753357143,-187500.02235174447,-187500.02235174447,-187500.02235174447,-187500.02235174447,-187500.02235174447,1730244875.9896152,1730244874.7996285,2000
362.5229433206253,-187500.02235174447,-1259.1184686563574,-187500.02235174447,-187500.02235174447,-187500.02235174447,-187500.02235174447,-187500.02235174447,1730244875.9946048,1730244874.7996285,2000
347.77079198012257,-187500.02235174447,-1302.905536044304,-187500.02235174447,-187500.02235174447,-187500.02235174447,-187500.02235174447,-187500.02235174447,1730244875.9975152,1730244874.7996285,2000
335.0973528739635,-187500.02235174447,-1352.705222690728,-187500.02235174447,-187500.02235174447,-187500.02235174447,-187500.02235174447,-187500.02235174447,1730244876.0025911,1730244874.7996285,2000
353.8281147275108,-187500.02235174447,-1326.486626444653,-187500.02235174447,-187500.02235174447,-187500.02235174447,-187500.02235174447,-187500.02235174447,1730244876.0064976,1730244874.7996285,2000
377.6103708279575,-187500.02235174447,-1249.261349351567,-187500.02235174447,-187500.02235174447,-187500.02235174447,-187500.02235174447,-187500.02235174447,1730244876.0106485,1730244874.7996285,2000
367.59678931197993,-187500.02235174447,-1287.4828323701422,-187500.02235174447,-187500.02235174447,-187500.02235174447,-187500.02235174447,-187500.02235174447,1730244876.0145924,1730244874.7996285,2000
363.4617165877481,-187500.02235174447,-1348.2795772885772,-187500.02235174447,-187500.02235174447,-187500.02235174447,-187500.02235174447,-187500.02235174447,1730244876.0195975,1730244874.7996285,2000
365.36161486644926,-187500.02235174447,-1311.0192192815805,-187500.02235174447,-187500.02235174447,-187500.02235174447,-187500.02235174447,-187500.02235174447,1730244876.0237226,1730244874.7996285,2000
378.6161993284463,-187500.02235174447,-1251.1165441413575,-187500.02235174447,-187500.02235174447,-187500.02235174447,-187500.02235174447,-187500.02235174447,1730244876.0266633,1730244874.7996285,2000
315.69603868675694,-187500.02235174447,-1250.5577505299748,-187500.02235174447,-187500.02235174447,-187500.02235174447,-187500.02235174447,-187500.02235174447,1730244876.030665,1730244874.7996285,2000
291.9361343307655,-187500.02235174447,-1352.816981413005,-187500.02235174447,-187500.02235174447,-187500.02235174447,-187500.02235174447,-187500.02235174447,1730244876.0335412,1730244874.7996285,2000
366.5239055781252,-187500.02235174447,-1328.8335596124602,-187500.02235174447,-187500.02235174447,-187500.02235174447,-187500.02235174447,-187500.02235174447,1730244876.0375495,1730244874.7996285,2000
413.0602375340745,-187500.02235174447,-1269.8920094838154,-187500.02235174447,-187500.02235174447,-187500.02235174447,-187500.02235174447,-187500.02235174447,1730244876.0415576,1730244874.7996285,2000
379.01853072864185,-187500.02235174447,-1258.716137256162,-187500.02235174447,-187500.02235174447,-187500.02235174447,-187500.02235174447,-187500.02235174447,1730244876.04575,1730244874.7996285,2000
296.2723727550951,-187500.02235174447,-1307.5099954020973,-187500.02235174447,-187500.02235174447,-187500.02235174447,-187500.02235174447,-187500.02235174447,1730244876.0495713,1730244874.7996285,2000
300.4745007126928,-187500.02235174447,-1352.5264087350856,-187500.02235174447,-187500.02235174447,-187500.02235174447,-187500.02235174447,-187500.02235174447,1730244876.05365,1730244874.7996285,2000
345.40150706786005,-187500.02235174447,-1305.8559663124045,-187500.02235174447,-187500.02235174447,-187500.02235174447,-187500.02235174447,-187500.02235174447,1730244876.0566418,1730244874.7996285,2000
346.8767222019103,-187500.02235174447,-1272.0824804404356,-187500.02235174447,-187500.02235174447,-187500.02235174447,-187500.02235174447,-187500.02235174447,1730244876.060738,1730244874.7996285,2000
324.36851553541607,-187500.02235174447,-1316.4953966731307,-187500.02235174447,-187500.02235174447,-187500.02235174447,-187500.02235174447,-187500.02235174447,1730244876.0665703,1730244874.7996285,2000
349.693042003279,-187500.02235174447,-1376.0180921576134,-187500.02235174447,-187500.02235174447,-187500.02235174447,-187500.02235174447,-187500.02235174447,1730244876.069746,1730244874.7996285,2000
361.60652179795767,-187500.02235174447,-1309.1416727473347,-187500.02235174447,-187500.02235174447,-187500.02235174447,-187500.02235174447,-187500.02235174447,1730244876.0735571,1730244874.7996285,2000
354.61042578344654,-187500.02235174447,-1231.938747398704,-187500.02235174447,-187500.02235174447,-187500.02235174447,-187500.02235174447,-187500.02235174447,1730244876.077561,1730244874.7996285,2000
338.1595418643405,-187500.02235174447,-1314.9978297946252,-187500.02235174447,-187500.02235174447,-187500.02235174447,-187500.02235174447,-187500.02235174447,1730244876.0817218,1730244874.7996285,2000
322.4015620233491,-187500.02235174447,-1372.710033978228,-187500.02235174447,-187500.02235174447,-187500.02235174447,-187500.02235174447,-187500.02235174447,1730244876.0869803,1730244874.7996285,2000
348.53075129160305,-187500.02235174447,-1312.1368065043457,-187500.02235174447,-187500.02235174447,-187500.02235174447,-187500.02235174447,-187500.02235174447,1730244876.089742,1730244874.7996285,2000
371.9330277363095,-187500.02235174447,-1228.3177647969444,-187500.02235174447,-187500.02235174447,-187500.02235174447,-187500.02235174447,-187500.02235174447,1730244876.0947688,1730244874.7996285,2000
336.6396232413797,-187500.02235174447,-1286.5664108474746,-187500.02235174447,-187500.02235174447,-187500.02235174447,-187500.02235174447,-187500.02235174447,1730244876.098594,1730244874.7996285,2000
333.35391680644955,-187500.02235174447,-1351.1406005788567,-187500.02235174447,-187500.02235174447,-187500.02235174447,-187500.02235174447,-187500.02235174447,1730244876.10279,1730244874.7996285,2000
350.83298097049965,-187500.02235174447,-1313.2096902382004,-187500.02235174447,-187500.02235174447,-187500.02235174447,-187500.02235174447,-187500.02235174447,1730244876.108707,1730244874.7996285,2000
361.7853357536001,-187500.02235174447,-1239.1360091133129,-187500.02235174447,-187500.02235174447,-187500.02235174447,-187500.02235174447,-187500.02235174447,1730244876.1117873,1730244874.7996285,2000
350.4082978258488,-187500.02235174447,-1262.068898924458,-187500.02235174447,-187500.02235174447,-187500.02235174447,-187500.02235174447,-187500.02235174447,1730244876.1156569,1730244874.7996285,2000
340.93115817679865,-187500.02235174447,-1342.5575307080187,-187500.02235174447,-187500.02235174447,-187500.02235174447,-187500.02235174447,-187500.02235174447,1730244876.1186063,1730244874.7996285,2000
346.74261173517846,-187500.02235174447,-1334.801475382027,-187500.02235174447,-187500.02235174447,-187500.02235174447,-187500.02235174447,-187500.02235174447,1730244876.1216264,1730244874.7996285,2000
368.4238038568264,-187500.02235174447,-1233.8162939329495,-187500.02235174447,-187500.02235174447,-187500.02235174447,-187500.02235174447,-187500.02235174447,1730244876.1256523,1730244874.7996285,2000
359.6395682858906,-187500.02235174447,-1252.1447243863015,-187500.02235174447,-187500.02235174447,-187500.02235174447,-187500.02235174447,-187500.02235174447,1730244876.1298,1730244874.7996285,2000
354.4316118278041,-187500.02235174447,-1340.9482051072366,-187500.02235174447,-187500.02235174447,-187500.02235174447,-187500.02235174447,-187500.02235174447,1730244876.1326497,1730244874.7996285,2000
361.919446220332,-187500.02235174447,-1347.229045299178,-187500.02235174447,-187500.02235174447,-187500.02235174447,-187500.02235174447,-187500.02235174447,1730244876.136894,1730244874.7996285,2000
371.173068424829,-187500.02235174447,-1274.0270822080472,-187500.02235174447,-187500.02235174447,-187500.02235174447,-187500.02235174447,-187500.02235174447,1730244876.1407912,1730244874.7996285,2000
342.89811168886564,-187500.02235174447,-1234.1292183553242,-187500.02235174447,-187500.02235174447,-187500.02235174447,-187500.02235174447,-187500.02235174447,1730244876.1448498,1730244874.7996285,2000
309.03521883907547,-187500.02235174447,-1281.224343922656,-187500.02235174447,-187500.02235174447,-187500.02235174447,-187500.02235174447,-187500.02235174447,1730244876.149686,1730244874.7996285,2000
338.4054110533489,-187500.02235174447,-1370.4301560437866,-187500.02235174447,-187500.02235174447,-187500.02235174447,-187500.02235174447,-187500.02235174447,1730244876.1538785,1730244874.7996285,2000
374.1011469484743,-187500.02235174447,-1302.8161290664827,-187500.02235174447,-187500.02235174447,-187500.02235174447,-187500.02235174447,-187500.02235174447,1730244876.1576557,1730244874.7996285,2000
355.370385094927,-187500.02235174447,-1242.3993638037878,-187500.02235174447,-187500.02235174447,-187500.02235174447,-187500.02235174447,-187500.02235174447,1730244876.1617732,1730244874.7996285,2000
344.28391984509466,-187500.02235174447,-1284.2641811685778,-187500.02235174447,-187500.02235174447,-187500.02235174447,-187500.02235174447,-187500.02235174447,1730244876.1656876,1730244874.7996285,2000
340.3947163098713,-187500.02235174447,-1345.440905742753,-187500.02235174447,-187500.02235174447,-187500.02235174447,-187500.02235174447,-187500.02235174447,1730244876.169839,1730244874.7996285,2000
363.6405305433906,-187500.02235174447,-1297.4517103972091,-187500.02235174447,-187500.02235174447,-187500.02235174447,-187500.02235174447,-187500.02235174447,1730244876.17468,1730244874.7996285,2000
364.6687107883348,-187500.02235174447,-1252.2117796196676,-187500.02235174447,-187500.02235174447,-187500.02235174447,-187500.02235174447,-187500.02235174447,1730244876.1788712,1730244874.7996285,2000
349.983614681198,-187500.02235174447,-1291.8190707944716,-187500.02235174447,-187500.02235174447,-187500.02235174447,-187500.02235174447,-187500.02235174447,1730244876.1826973,1730244874.7996285,2000
352.7775827381114,-187500.02235174447,-1338.1765887947786,-187500.02235174447,-187500.02235174447,-187500.02235174447,-187500.02235174447,-187500.02235174447,1730244876.188862,1730244874.7996285,2000
364.2663793881392,-187500.02235174447,-1304.1572337338011,-187500.02235174447,-187500.02235174447,-187500.02235174447,-187500.02235174447,-187500.02235174447,1730244876.1918817,1730244874.7996285,2000
329.01767838212,-187500.02235174447,-1237.8396079349052,-187500.02235174447,-187500.02235174447,-187500.02235174447,-187500.02235174447,-187500.02235174447,1730244876.1959493,1730244874.7996285,2000
321.95452713424294,-187500.02235174447,-1255.7433552436062,-187500.02235174447,-187500.02235174447,-187500.02235174447,-187500.02235174447,-187500.02235174447,1730244876.198688,1730244874.7996285,2000
315.8748526423994,-187500.02235174447,-1348.1678185663009,-187500.02235174447,-187500.02235174447,-187500.02235174447,-187500.02235174447,-187500.02235174447,1730244876.2019277,1730244874.7996285,2000
356.1973996397733,-187500.02235174447,-1318.4623501851977,-187500.02235174447,-187500.02235174447,-187500.02235174447,-187500.02235174447,-187500.02235174447,1730244876.20593,1730244874.7996285,2000
396.8328710595216,-187500.02235174447,-1266.9862827046256,-187500.02235174447,-187500.02235174447,-187500.02235174447,-187500.02235174447,-187500.02235174447,1730244876.2099311,1730244874.7996285,2000
343.0545739000528,-187500.02235174447,-1283.0795387124467,-187500.02235174447,-187500.02235174447,-187500.02235174447,-187500.02235174447,-187500.02235174447,1730244876.212854,1730244874.7996285,2000
300.8097768795225,-187500.02235174447,-1325.7043153887173,-187500.02235174447,-187500.02235174447,-187500.02235174447,-187500.02235174447,-187500.02235174447,1730244876.2168896,1730244874.7996285,2000
338.6959837312679,-187500.02235174447,-1324.5643764214965,-187500.02235174447,-187500.02235174447,-187500.02235174447,-187500.02235174447,-187500.02235174447,1730244876.220961,1730244874.7996285,2000
354.6551292723572,-187500.02235174447,-1273.5129920855752,-187500.02235174447,-187500.02235174447,-187500.02235174447,-187500.02235174447,-187500.02235174447,1730244876.2247863,1730244874.7996285,2000
344.5297890341031,-187500.02235174447,-1265.287550126022,-187500.02235174447,-187500.02235174447,-187500.02235174447,-187500.02235174447,-187500.02235174447,1730244876.2307448,1730244874.7996285,2000
312.3209252740056,-187500.02235174447,-1302.0561697550024,-187500.02235174447,-187500.02235174447,-187500.02235174447,-187500.02235174447,-187500.02235174447,1730244876.2338393,1730244874.7996285,2000
332.1245708614076,-187500.02235174447,-1327.1124752894016,-187500.02235174447,-187500.02235174447,-187500.02235174447,-187500.02235174447,-187500.02235174447,1730244876.237893,1730244874.7996285,2000
369.0496527015749,-187500.02235174447,-1294.59068710693,-187500.02235174447,-187500.02235174447,-187500.02235174447,-187500.02235174447,-187500.02235174447,1730244876.2417765,1730244874.7996285,2000
377.208039427762,-187500.02235174447,-1264.3711286033547,-187500.02235174447,-187500.02235174447,-187500.02235174447,-187500.02235174447,-187500.02235174447,1730244876.2459557,1730244874.7996285,2000
351.0564984150527,-187500.02235174447,-1313.6567251273068,-187500.02235174447,-187500.02235174447,-187500.02235174447,-187500.02235174447,-187500.02235174447,1730244876.2520204,1730244874.7996285,2000
337.6454517418685,-187500.02235174447,-1351.5876354679629,-187500.02235174447,-187500.02235174447,-187500.02235174447,-187500.02235174447,-187500.02235174447,1730244876.2550087,1730244874.7996285,2000
345.9603006792427,-187500.02235174447,-1306.034780268047,-187500.02235174447,-187500.02235174447,-187500.02235174447,-187500.02235174447,-187500.02235174447,1730244876.2578733,1730244874.7996285,2000
351.7494024931672,-187500.02235174447,-1252.6364627643184,-187500.02235174447,-187500.02235174447,-187500.02235174447,-187500.02235174447,-187500.02235174447,1730244876.262996,1730244874.7996285,2000
325.77667543610045,-187500.02235174447,-1310.2369082256448,-187500.02235174447,-187500.02235174447,-187500.02235174447,-187500.02235174447,-187500.02235174447,1730244876.2679448,1730244874.7996285,2000
332.16927435031823,-187500.02235174447,-1336.9472428497363,-187500.02235174447,-187500.02235174447,-187500.02235174447,-187500.02235174447,-187500.02235174447,1730244876.272024,1730244874.7996285,2000
352.0623269155415,-187500.02235174447,-1311.1756814927676,-187500.02235174447,-187500.02235174447,-187500.02235174447,-187500.02235174447,-187500.02235174447,1730244876.2748623,1730244874.7996285,2000
361.8523909869661,-187500.02235174447,-1250.4683435521536,-187500.02235174447,-187500.02235174447,-187500.02235174447,-187500.02235174447,-187500.02235174447,1730244876.2779624,1730244874.7996285,2000
343.8368849559885,-187500.02235174447,-1257.3750325888434,-187500.02235174447,-187500.02235174447,-187500.02235174447,-187500.02235174447,-187500.02235174447,1730244876.281849,1730244874.7996285,2000
346.5861495239913,-187500.02235174447,-1351.3417662789543,-187500.02235174447,-187500.02235174447,-187500.02235174447,-187500.02235174447,-187500.02235174447,1730244876.285073,1730244874.7996285,2000
371.75421378066704,-187500.02235174447,-1314.8637193278933,-187500.02235174447,-187500.02235174447,-187500.02235174447,-187500.02235174447,-187500.02235174447,1730244876.289056,1730244874.7996285,2000
361.15948690885153,-187500.02235174447,-1265.3099018704777,-187500.02235174447,-187500.02235174447,-187500.02235174447,-187500.02235174447,-187500.02235174447,1730244876.2943392,1730244874.7996285,2000
314.9584311197318,-187500.02235174447,-1285.359416646888,-187500.02235174447,-187500.02235174447,-187500.02235174447,-187500.02235174447,-187500.02235174447,1730244876.2981863,1730244874.7996285,2000
301.8603088689219,-187500.02235174447,-1354.0463273580465,-187500.02235174447,-187500.02235174447,-187500.02235174447,-187500.02235174447,-187500.02235174447,1730244876.301644,1730244874.7996285,2000
331.5657772500249,-187500.02235174447,-1317.9259083182703,-187500.02235174447,-187500.02235174447,-187500.02235174447,-187500.02235174447,-187500.02235174447,1730244876.3053071,1730244874.7996285,2000
356.3091583620499,-187500.02235174447,-1233.3469072993885,-187500.02235174447,-187500.02235174447,-187500.02235174447,-187500.02235174447,-187500.02235174447,1730244876.3090615,1730244874.7996285,2000
341.8475796994662,-187500.02235174447,-1264.3040733699886,-187500.02235174447,-187500.02235174447,-187500.02235174447,-187500.02235174447,-187500.02235174447,1730244876.3131745,1730244874.7996285,2000
317.0147916096201,-187500.02235174447,-1343.608062697418,-187500.02235174447,-187500.02235174447,-187500.02235174447,-187500.02235174447,-187500.02235174447,1730244876.316978,1730244874.7996285,2000
351.79410598207784,-187500.02235174447,-1359.7013187052391,-187500.02235174447,-187500.02235174447,-187500.02235174447,-187500.02235174447,-187500.02235174447,1730244876.3211584,1730244874.7996285,2000
365.4286700998152,-187500.02235174447,-1277.8268787654497,-187500.02235174447,-187500.02235174447,-187500.02235174447,-187500.02235174447,-187500.02235174447,1730244876.326106,1730244874.7996285,2000
322.9156521458211,-187500.02235174447,-1262.0465471800028,-187500.02235174447,-187500.02235174447,-187500.02235174447,-187500.02235174447,-187500.02235174447,1730244876.330656,1730244874.7996285,2000
329.01767838212,-187500.02235174447,-1341.350536507432,-187500.02235174447,-187500.02235174447,-187500.02235174447,-187500.02235174447,-187500.02235174447,1730244876.3339984,1730244874.7996285,2000
355.1468676503739,-187500.02235174447,-1356.6838332037728,-187500.02235174447,-187500.02235174447,-187500.02235174447,-187500.02235174447,-187500.02235174447,1730244876.3381517,1730244874.7996285,2000
364.17697241031794,-187500.02235174447,-1277.066919453969,-187500.02235174447,-187500.02235174447,-187500.02235174447,-187500.02235174447,-187500.02235174447,1730244876.3420663,1730244874.7996285,2000
363.2829026321057,-187500.02235174447,-1258.291454111511,-187500.02235174447,-187500.02235174447,-187500.02235174447,-187500.02235174447,-187500.02235174447,1730244876.3474257,1730244874.7996285,2000
326.71544870322333,-187500.02235174447,-1353.0404988575576,-187500.02235174447,-187500.02235174447,-187500.02235174447,-187500.02235174447,-187500.02235174447,1730244876.350031,1730244874.7996285,2000
321.32867828949435,-187500.02235174447,-1369.8266589434934,-187500.02235174447,-187500.02235174447,-187500.02235174447,-187500.02235174447,-187500.02235174447,1730244876.354345,1730244874.7996285,2000
344.4850855451925,-187500.02235174447,-1310.7957018370273,-187500.02235174447,-187500.02235174447,-187500.02235174447,-187500.02235174447,-187500.02235174447,1730244876.357108,1730244874.7996285,2000
341.22173085471763,-187500.02235174447,-1247.9649481731592,-187500.02235174447,-187500.02235174447,-187500.02235174447,-187500.02235174447,-187500.02235174447,1730244876.361544,1730244874.7996285,2000
310.30926827302795,-187500.02235174447,-1297.4964138861196,-187500.02235174447,-187500.02235174447,-187500.02235174447,-187500.02235174447,-187500.02235174447,1730244876.3650503,1730244874.7996285,2000
308.63288743887995,-187500.02235174447,-1359.9695396387028,-187500.02235174447,-187500.02235174447,-187500.02235174447,-187500.02235174447,-187500.02235174447,1730244876.369153,1730244874.7996285,2000
343.54631227806954,-187500.02235174447,-1312.002696037614,-187500.02235174447,-187500.02235174447,-187500.02235174447,-187500.02235174447,-187500.02235174447,1730244876.3732378,1730244874.7996285,2000
369.0943561904856,-187500.02235174447,-1252.5470557864971,-187500.02235174447,-187500.02235174447,-187500.02235174447,-187500.02235174447,-187500.02235174447,1730244876.3771148,1730244874.7996285,2000
344.73095473420085,-187500.02235174447,-1280.3302741444438,-187500.02235174447,-187500.02235174447,-187500.02235174447,-187500.02235174447,-187500.02235174447,1730244876.38034,1730244874.7996285,2000
315.8301491534888,-187500.02235174447,-1339.1153620619014,-187500.02235174447,-187500.02235174447,-187500.02235174447,-187500.02235174447,-187500.02235174447,1730244876.3843143,1730244874.7996285,2000
348.6872135027902,-187500.02235174447,-1334.6673649152954,-187500.02235174447,-187500.02235174447,-187500.02235174447,-187500.02235174447,-187500.02235174447,1730244876.3894544,1730244874.7996285,2000
365.8980567333766,-187500.02235174447,-1278.6762450547512,-187500.02235174447,-187500.02235174447,-187500.02235174447,-187500.02235174447,-187500.02235174447,1730244876.393688,1730244874.7996285,2000
320.8369399114776,-187500.02235174447,-1283.9289050017485,-187500.02235174447,-187500.02235174447,-187500.02235174447,-187500.02235174447,-187500.02235174447,1730244876.3974297,1730244874.7996285,2000
310.0857508284749,-187500.02235174447,-1376.3086648355325,-187500.02235174447,-187500.02235174447,-187500.02235174447,-187500.02235174447,-187500.02235174447,1730244876.4016805,1730244874.7996285,2000
370.2566469021615,-187500.02235174447,-1338.936548106259,-187500.02235174447,-187500.02235174447,-187500.02235174447,-187500.02235174447,-187500.02235174447,1730244876.4056387,1730244874.7996285,2000
387.1992691992842,-187500.02235174447,-1261.1301256573352,-187500.02235174447,-187500.02235174447,-187500.02235174447,-187500.02235174447,-187500.02235174447,1730244876.409214,1730244874.7996285,2000
349.5142280476365,-187500.02235174447,-1266.0475094375026,-187500.02235174447,-187500.02235174447,-187500.02235174447,-187500.02235174447,-187500.02235174447,1730244876.4123163,1730244874.7996285,2000
301.212108279718,-187500.02235174447,-1340.5235219625858,-187500.02235174447,-187500.02235174447,-187500.02235174447,-187500.02235174447,-187500.02235174447,1730244876.416082,1730244874.7996285,2000
313.2373467966732,-187500.02235174447,-1359.7683739386052,-187500.02235174447,-187500.02235174447,-187500.02235174447,-187500.02235174447,-187500.02235174447,1730244876.421657,1730244874.7996285,2000
356.1973996397733,-187500.02235174447,-1250.2448261076006,-187500.02235174447,-187500.02235174447,-187500.02235174447,-187500.02235174447,-187500.02235174447,1730244876.4250586,1730244874.7996285,2000
352.37525133791587,-187500.02235174447,-1266.516896071064,-187500.02235174447,-187500.02235174447,-187500.02235174447,-187500.02235174447,-187500.02235174447,1730244876.4292984,1730244874.7996285,2000
342.22755935520644,-187500.02235174447,-1328.6994491457283,-187500.02235174447,-187500.02235174447,-187500.02235174447,-187500.02235174447,-187500.02235174447,1730244876.4322133,1730244874.7996285,2000
326.9166144033211,-187500.02235174447,-1318.775274607572,-187500.02235174447,-187500.02235174447,-187500.02235174447,-187500.02235174447,-187500.02235174447,1730244876.4363973,1730244874.7996285,2000
333.242158084173,-187500.02235174447,-1290.0979864714132,-187500.02235174447,-187500.02235174447,-187500.02235174447,-187500.02235174447,-187500.02235174447,1730244876.440235,1730244874.7996285,2000
365.853353244466,-187500.02235174447,-1268.0815181829355,-187500.02235174447,-187500.02235174447,-187500.02235174447,-187500.02235174447,-187500.02235174447,1730244876.444302,1730244874.7996285,2000
337.3548790639495,-187500.02235174447,-1334.5332544485634,-187500.02235174447,-187500.02235174447,-187500.02235174447,-187500.02235174447,-187500.02235174447,1730244876.4490948,1730244874.7996285,2000
326.983669636687,-187500.02235174447,-1387.1716126408116,-187500.02235174447,-187500.02235174447,-187500.02235174447,-187500.02235174447,-187500.02235174447,1730244876.4536767,1730244874.7996285,2000
367.4403271007928,-187500.02235174447,-1296.5576406189969,-187500.02235174447,-187500.02235174447,-187500.02235174447,-187500.02235174447,-187500.02235174447,1730244876.457224,1730244874.7996285,2000
363.6181787989353,-187500.02235174447,-1250.781267974528,-187500.02235174447,-187500.02235174447,-187500.02235174447,-187500.02235174447,-187500.02235174447,1730244876.460717,1730244874.7996285,2000
321.68630620077926,-187500.02235174447,-1315.4001611948206,-187500.02235174447,-187500.02235174447,-187500.02235174447,-187500.02235174447,-187500.02235174447,1730244876.4647064,1730244874.7996285,2000
301.5473844465476,-187500.02235174447,-1330.934623591259,-187500.02235174447,-187500.02235174447,-187500.02235174447,-187500.02235174447,-187500.02235174447,1730244876.468398,1730244874.7996285,2000
322.1556928343407,-187500.02235174447,-1283.8171462794717,-187500.02235174447,-187500.02235174447,-187500.02235174447,-187500.02235174447,-187500.02235174447,1730244876.4727447,1730244874.7996285,2000
339.0089081536422,-187500.02235174447,-1257.0621081664692,-187500.02235174447,-187500.02235174447,-187500.02235174447,-187500.02235174447,-187500.02235174447,1730244876.4772935,1730244874.7996285,2000
365.02633869961966,-187500.02235174447,-1281.2466956671117,-187500.02235174447,-187500.02235174447,-187500.02235174447,-187500.02235174447,-187500.02235174447,1730244876.4822545,1730244874.7996285,2000
337.42193429731543,-187500.02235174447,-1336.9248911052814,-187500.02235174447,-187500.02235174447,-187500.02235174447,-187500.02235174447,-187500.02235174447,1730244876.4865189,1730244874.7996285,2000
328.436533026282,-187500.02235174447,-1317.233004240156,-187500.02235174447,-187500.02235174447,-187500.02235174447,-187500.02235174447,-187500.02235174447,1730244876.4893403,1730244874.7996285,2000
343.23338785569524,-187500.02235174447,-1231.3352502984108,-187500.02235174447,-187500.02235174447,-187500.02235174447,-187500.02235174447,-187500.02235174447,1730244876.4924624,1730244874.7996285,2000
327.6318702258909,-187500.02235174447,-1261.3983465907988,-187500.02235174447,-187500.02235174447,-187500.02235174447,-187500.02235174447,-187500.02235174447,1730244876.4964917,1730244874.7996285,2000
331.9681086502205,-187500.02235174447,-1354.8509901584375,-187500.02235174447,-187500.02235174447,-187500.02235174447,-187500.02235174447,-187500.02235174447,1730244876.5003405,1730244874.7996285,2000
372.62593181442406,-187500.02235174447,-1328.7888561235495,-187500.02235174447,-187500.02235174447,-187500.02235174447,-187500.02235174447,-187500.02235174447,1730244876.5046496,1730244874.7996285,2000
349.6706902588237,-187500.02235174447,-1271.970721718159,-187500.02235174447,-187500.02235174447,-187500.02235174447,-187500.02235174447,-187500.02235174447,1730244876.509946,1730244874.7996285,2000
300.22863152368444,-187500.02235174447,-1279.7938322775165,-187500.02235174447,-187500.02235174447,-187500.02235174447,-187500.02235174447,-187500.02235174447,1730244876.5125773,1730244874.7996285,2000
300.31803850150567,-187500.02235174447,-1332.320431747488,-187500.02235174447,-187500.02235174447,-187500.02235174447,-187500.02235174447,-187500.02235174447,1730244876.5162053,1730244874.7996285,2000
323.340335290472,-187500.02235174447,-1335.0473445710356,-187500.02235174447,-187500.02235174447,-187500.02235174447,-187500.02235174447,-187500.02235174447,1730244876.5206604,1730244874.7996285,2000
348.9777861807092,-187500.02235174447,-1289.8521172824046,-187500.02235174447,-187500.02235174447,-187500.02235174447,-187500.02235174447,-187500.02235174447,1730244876.5242462,1730244874.7996285,2000
332.3033848170501,-187500.02235174447,-1285.87350676936,-187500.02235174447,-187500.02235174447,-187500.02235174447,-187500.02235174447,-187500.02235174447,1730244876.5286064,1730244874.7996285,2000
320.0322771110865,-187500.02235174447,-1353.062850602013,-187500.02235174447,-187500.02235174447,-187500.02235174447,-187500.02235174447,-187500.02235174447,1730244876.5322297,1730244874.7996285,2000
326.11195160293005,-187500.02235174447,-1346.8267138989825,-187500.02235174447,-187500.02235174447,-187500.02235174447,-187500.02235174447,-187500.02235174447,1730244876.5374768,1730244874.7996285,2000
330.51524526062553,-187500.02235174447,-1291.841422538927,-187500.02235174447,-187500.02235174447,-187500.02235174447,-187500.02235174447,-187500.02235174447,1730244876.5402882,1730244874.7996285,2000
346.9437774352762,-187500.02235174447,-1267.455669338187,-187500.02235174447,-187500.02235174447,-187500.02235174447,-187500.02235174447,-187500.02235174447,1730244876.544808,1730244874.7996285,2000
322.71448644572337,-187500.02235174447,-1317.7247426181725,-187500.02235174447,-187500.02235174447,-187500.02235174447,-187500.02235174447,-187500.02235174447,1730244876.5484054,1730244874.7996285,2000
308.0070385941313,-187500.02235174447,-1354.2027895692338,-187500.02235174447,-187500.02235174447,-187500.02235174447,-187500.02235174447,-187500.02235174447,1730244876.5524783,1730244874.7996285,2000
332.8398266839775,-187500.02235174447,-1309.3651901918877,-187500.02235174447,-187500.02235174447,-187500.02235174447,-187500.02235174447,-187500.02235174447,1730244876.5564294,1730244874.7996285,2000
352.8446379714773,-187500.02235174447,-1251.2506546080897,-187500.02235174447,-187500.02235174447,-187500.02235174447,-187500.02235174447,-187500.02235174447,1730244876.5616696,1730244874.7996285,2000
341.8252279550109,-187500.02235174447,-1303.2631639555889,-187500.02235174447,-187500.02235174447,-187500.02235174447,-187500.02235174447,-187500.02235174447,1730244876.5644064,1730244874.7996285,2000
339.50064653165896,-187500.02235174447,-1368.865533931915,-187500.02235174447,-187500.02235174447,-187500.02235174447,-187500.02235174447,-187500.02235174447,1730244876.567305,1730244874.7996285,2000
329.53176850459204,-187500.02235174447,-1303.2855157000442,-187500.02235174447,-187500.02235174447,-187500.02235174447,-187500.02235174447,-187500.02235174447,1730244876.572876,1730244874.7996285,2000
329.86704467142164,-187500.02235174447,-1232.4751892656311,-187500.02235174447,-187500.02235174447,-187500.02235174447,-187500.02235174447,-187500.02235174447,1730244876.5765371,1730244874.7996285,2000
330.3587830494384,-187500.02235174447,-1287.840460281427,-187500.02235174447,-187500.02235174447,-187500.02235174447,-187500.02235174447,-187500.02235174447,1730244876.5805373,1730244874.7996285,2000
339.45594304274834,-187500.02235174447,-1359.0754698604906,-187500.02235174447,-187500.02235174447,-187500.02235174447,-187500.02235174447,-187500.02235174447,1730244876.5850563,1730244874.7996285,2000
337.8913209308769,-187500.02235174447,-1290.1873934492344,-187500.02235174447,-187500.02235174447,-187500.02235174447,-187500.02235174447,-187500.02235174447,1730244876.5898168,1730244874.7996285,2000
326.2907655585725,-187500.02235174447,-1220.5840612154082,-187500.02235174447,-187500.02235174447,-187500.02235174447,-187500.02235174447,-187500.02235174447,1730244876.5924196,1730244874.7996285,2000
334.8961871738657,-187500.02235174447,-1271.3001693845,-187500.02235174447,-187500.02235174447,-187500.02235174447,-187500.02235174447,-187500.02235174447,1730244876.5959291,1730244874.7996285,2000
339.5900535094802,-187500.02235174447,-1349.1959988112449,-187500.02235174447,-187500.02235174447,-187500.02235174447,-187500.02235174447,-187500.02235174447,1730244876.6004925,1730244874.7996285,2000
354.7445362501784,-187500.02235174447,-1329.3252979904769,-187500.02235174447,-187500.02235174447,-187500.02235174447,-187500.02235174447,-187500.02235174447,1730244876.6048727,1730244874.7996285,2000
360.3324723640052,-187500.02235174447,-1259.6325587788294,-187500.02235174447,-187500.02235174447,-187500.02235174447,-187500.02235174447,-187500.02235174447,1730244876.6085088,1730244874.7996285,2000
357.35969035144933,-187500.02235174447,-1243.6063580043744,-187500.02235174447,-187500.02235174447,-187500.02235174447,-187500.02235174447,-187500.02235174447,1730244876.612663,1730244874.7996285,2000
307.2694310271062,-187500.02235174447,-1290.8579457828937,-187500.02235174447,-187500.02235174447,-187500.02235174447,-187500.02235174447,-187500.02235174447,1730244876.6163642,1730244874.7996285,2000
328.86121617093283,-187500.02235174447,-1329.54881543503,-187500.02235174447,-187500.02235174447,-187500.02235174447,-187500.02235174447,-187500.02235174447,1730244876.6207411,1730244874.7996285,2000
376.045748716086,-187500.02235174447,-1285.6052858358962,-187500.02235174447,-187500.02235174447,-187500.02235174447,-187500.02235174447,-187500.02235174447,1730244876.6235516,1730244874.7996285,2000
375.174030682329,-187500.02235174447,-1273.1106606853796,-187500.02235174447,-187500.02235174447,-187500.02235174447,-187500.02235174447,-187500.02235174447,1730244876.6274529,1730244874.7996285,2000
312.0303525960866,-187500.02235174447,-1325.8160741109937,-187500.02235174447,-187500.02235174447,-187500.02235174447,-187500.02235174447,-187500.02235174447,1730244876.632388,1730244874.7996285,2000
311.00217235114246,-187500.02235174447,-1360.349519294443,-187500.02235174447,-187500.02235174447,-187500.02235174447,-187500.02235174447,-187500.02235174447,1730244876.6364956,1730244874.7996285,2000
385.7464058096893,-187500.02235174447,-1297.3175999304772,-187500.02235174447,-187500.02235174447,-187500.02235174447,-187500.02235174447,-187500.02235174447,1730244876.6425865,1730244874.7996285,2000
372.8047457700665,-187500.02235174447,-1253.0164424200586,-187500.02235174447,-187500.02235174447,-187500.02235174447,-187500.02235174447,-187500.02235174447,1730244876.6456895,1730244874.7996285,2000
286.3929017058494,-187500.02235174447,-1301.0056377656028,-187500.02235174447,-187500.02235174447,-187500.02235174447,-187500.02235174447,-187500.02235174447,1730244876.6484818,1730244874.7996285,2000
285.34236971645,-187500.02235174447,-1338.2436440281444,-187500.02235174447,-187500.02235174447,-187500.02235174447,-187500.02235174447,-187500.02235174447,1730244876.6520348,1730244874.7996285,2000
330.7164109607233,-187500.02235174447,-1302.2126319661895,-187500.02235174447,-187500.02235174447,-187500.02235174447,-187500.02235174447,-187500.02235174447,1730244876.6556296,1730244874.7996285,2000
353.1799141383069,-187500.02235174447,-1254.3128435984663,-187500.02235174447,-187500.02235174447,-187500.02235174447,-187500.02235174447,-187500.02235174447,1730244876.660776,1730244874.7996285,2000
326.8495591699552,-187500.02235174447,-1275.0776141974468,-187500.02235174447,-187500.02235174447,-187500.02235174447,-187500.02235174447,-187500.02235174447,1730244876.6648004,1730244874.7996285,2000
318.46765499921503,-187500.02235174447,-1354.7392314361612,-187500.02235174447,-187500.02235174447,-187500.02235174447,-187500.02235174447,-187500.02235174447,1730244876.6690643,1730244874.7996285,2000
341.9593384217428,-187500.02235174447,-1322.3962572093317,-187500.02235174447,-187500.02235174447,-187500.02235174447,-187500.02235174447,-187500.02235174447,1730244876.671985,1730244874.7996285,2000
355.9515304507649,-187500.02235174447,-1249.5072185405754,-187500.02235174447,-187500.02235174447,-187500.02235174447,-187500.02235174447,-187500.02235174447,1730244876.6756938,1730244874.7996285,2000
334.8514836849551,-187500.02235174447,-1255.8551139658823,-187500.02235174447,-187500.02235174447,-187500.02235174447,-187500.02235174447,-187500.02235174447,1730244876.6798906,1730244874.7996285,2000
315.71839043121224,-187500.02235174447,-1338.0871818169574,-187500.02235174447,-187500.02235174447,-187500.02235174447,-187500.02235174447,-187500.02235174447,1730244876.6835291,1730244874.7996285,2000
336.9078441748434,-187500.02235174447,-1337.0590015720131,-187500.02235174447,-187500.02235174447,-187500.02235174447,-187500.02235174447,-187500.02235174447,1730244876.6887386,1730244874.7996285,2000
362.7464607651783,-187500.02235174447,-1242.332308570422,-187500.02235174447,-187500.02235174447,-187500.02235174447,-187500.02235174447,-187500.02235174447,1730244876.693185,1730244874.7996285,2000
353.0681554160304,-187500.02235174447,-1264.974625703648,-187500.02235174447,-187500.02235174447,-187500.02235174447,-187500.02235174447,-187500.02235174447,1730244876.6966465,1730244874.7996285,2000
343.25573960015055,-187500.02235174447,-1331.6498794138288,-187500.02235174447,-187500.02235174447,-187500.02235174447,-187500.02235174447,-187500.02235174447,1730244876.69948,1730244874.7996285,2000
372.2236004142285,-187500.02235174447,-1340.8587981294154,-187500.02235174447,-187500.02235174447,-187500.02235174447,-187500.02235174447,-187500.02235174447,1730244876.7040565,1730244874.7996285,2000
369.0273009571196,-187500.02235174447,-1280.4420328667204,-187500.02235174447,-187500.02235174447,-187500.02235174447,-187500.02235174447,-187500.02235174447,1730244876.707668,1730244874.7996285,2000
325.5308062470921,-187500.02235174447,-1271.3001693845,-187500.02235174447,-187500.02235174447,-187500.02235174447,-187500.02235174447,-187500.02235174447,1730244876.7118104,1730244874.7996285,2000
316.83597765397764,-187500.02235174447,-1305.744207590128,-187500.02235174447,-187500.02235174447,-187500.02235174447,-187500.02235174447,-187500.02235174447,1730244876.7156498,1730244874.7996285,2000
330.22467258270655,-187500.02235174447,-1305.833614567949,-187500.02235174447,-187500.02235174447,-187500.02235174447,-187500.02235174447,-187500.02235174447,1730244876.7209997,1730244874.7996285,2000
338.6959837312679,-187500.02235174447,-1253.7316982426285,-187500.02235174447,-187500.02235174447,-187500.02235174447,-187500.02235174447,-187500.02235174447,1730244876.7245483,1730244874.7996285,2000
333.1080476174412,-187500.02235174447,-1229.9494421421816,-187500.02235174447,-187500.02235174447,-187500.02235174447,-187500.02235174447,-187500.02235174447,1730244876.7276723,1730244874.7996285,2000
314.08671308597485,-187500.02235174447,-1333.5944811814406,-187500.02235174447,-187500.02235174447,-187500.02235174447,-187500.02235174447,-187500.02235174447,1730244876.732674,1730244874.7996285,2000
335.5667395075249,-187500.02235174447,-1386.5681155405184,-187500.02235174447,-187500.02235174447,-187500.02235174447,-187500.02235174447,-187500.02235174447,1730244876.7367182,1730244874.7996285,2000
352.8446379714773,-187500.02235174447,-1332.3651352363986,-187500.02235174447,-187500.02235174447,-187500.02235174447,-187500.02235174447,-187500.02235174447,1730244876.7417204,1730244874.7996285,2000
339.724163976212,-187500.02235174447,-1272.618922307363,-187500.02235174447,-187500.02235174447,-187500.02235174447,-187500.02235174447,-187500.02235174447,1730244876.7449455,1730244874.7996285,2000
326.49193125867026,-187500.02235174447,-1314.751960605617,-187500.02235174447,-187500.02235174447,-187500.02235174447,-187500.02235174447,-187500.02235174447,1730244876.7485538,1730244874.7996285,2000
324.0108876241312,-187500.02235174447,-1328.1853590232563,-187500.02235174447,-187500.02235174447,-187500.02235174447,-187500.02235174447,-187500.02235174447,1730244876.752557,1730244874.7996285,2000
339.7018122317567,-187500.02235174447,-1307.711161102195,-187500.02235174447,-187500.02235174447,-187500.02235174447,-187500.02235174447,-187500.02235174447,1730244876.7560956,1730244874.7996285,2000
364.758117766156,-187500.02235174447,-1263.5888175474188,-187500.02235174447,-187500.02235174447,-187500.02235174447,-187500.02235174447,-187500.02235174447,1730244876.760242,1730244874.7996285,2000
324.74849519115634,-187500.02235174447,-1262.873561724849,-187500.02235174447,-187500.02235174447,-187500.02235174447,-187500.02235174447,-187500.02235174447,1730244876.7641551,1730244874.7996285,2000
318.9146898883212,-187500.02235174447,-1330.3311264909655,-187500.02235174447,-187500.02235174447,-187500.02235174447,-187500.02235174447,-187500.02235174447,1730244876.7676277,1730244874.7996285,2000
376.9398184942983,-187500.02235174447,-1314.617850138885,-187500.02235174447,-187500.02235174447,-187500.02235174447,-187500.02235174447,-187500.02235174447,1730244876.7719195,1730244874.7996285,2000
348.9777861807092,-187500.02235174447,-1254.9610441876705,-187500.02235174447,-187500.02235174447,-187500.02235174447,-187500.02235174447,-187500.02235174447,1730244876.7772844,1730244874.7996285,2000
307.7611694051229,-187500.02235174447,-1282.96777999017,-187500.02235174447,-187500.02235174447,-187500.02235174447,-187500.02235174447,-187500.02235174447,1730244876.7803023,1730244874.7996285,2000
301.1450530463521,-187500.02235174447,-1345.2844435315662,-187500.02235174447,-187500.02235174447,-187500.02235174447,-187500.02235174447,-187500.02235174447,1730244876.7848575,1730244874.7996285,2000
327.47540801470376,-187500.02235174447,-1325.7266671331724,-187500.02235174447,-187500.02235174447,-187500.02235174447,-187500.02235174447,-187500.02235174447,1730244876.7889483,1730244874.7996285,2000
345.6250245124131,-187500.02235174447,-1237.6607939792627,-187500.02235174447,-187500.02235174447,-187500.02235174447,-187500.02235174447,-187500.02235174447,1730244876.7933376,1730244874.7996285,2000
331.87870167239925,-187500.02235174447,-1254.759878487573,-187500.02235174447,-187500.02235174447,-187500.02235174447,-187500.02235174447,-187500.02235174447,1730244876.795988,1730244874.7996285,2000
331.789294694578,-187500.02235174447,-1329.9511468352257,-187500.02235174447,-187500.02235174447,-187500.02235174447,-187500.02235174447,-187500.02235174447,1730244876.799655,1730244874.7996285,2000
348.10606814695217,-187500.02235174447,-1347.2066935547225,-187500.02235174447,-187500.02235174447,-187500.02235174447,-187500.02235174447,-187500.02235174447,1730244876.8052096,1730244874.7996285,2000
360.6230450419242,-187500.02235174447,-1273.960026974681,-187500.02235174447,-187500.02235174447,-187500.02235174447,-187500.02235174447,-187500.02235174447,1730244876.8076792,1730244874.7996285,2000
349.44717281427063,-187500.02235174447,-1239.426581791232,-187500.02235174447,-187500.02235174447,-187500.02235174447,-187500.02235174447,-187500.02235174447,1730244876.812086,1730244874.7996285,2000
323.563852735025,-187500.02235174447,-1317.098893773424,-187500.02235174447,-187500.02235174447,-187500.02235174447,-187500.02235174447,-187500.02235174447,1730244876.8156571,1730244874.7996285,2000
341.8475796994662,-187500.02235174447,-1365.6021792414404,-187500.02235174447,-187500.02235174447,-187500.02235174447,-187500.02235174447,-187500.02235174447,1730244876.8199725,1730244874.7996285,2000
372.13419343640726,-187500.02235174447,-1308.3370099469437,-187500.02235174447,-187500.02235174447,-187500.02235174447,-187500.02235174447,-187500.02235174447,1730244876.823742,1730244874.7996285,2000
360.4218793418264,-187500.02235174447,-1240.2982998249888,-187500.02235174447,-187500.02235174447,-187500.02235174447,-187500.02235174447,-187500.02235174447,1730244876.8277297,1730244874.7996285,2000
341.22173085471763,-187500.02235174447,-1276.1504979313015,-187500.02235174447,-187500.02235174447,-187500.02235174447,-187500.02235174447,-187500.02235174447,1730244876.8327043,1730244874.7996285,2000
332.3257365615054,-187500.02235174447,-1317.0094867956027,-187500.02235174447,-187500.02235174447,-187500.02235174447,-187500.02235174447,-187500.02235174447,1730244876.8360128,1730244874.7996285,2000
348.3519373359606,-187500.02235174447,-1261.5771605464413,-187500.02235174447,-187500.02235174447,-187500.02235174447,-187500.02235174447,-187500.02235174447,1730244876.8398352,1730244874.7996285,2000
349.78244898110023,-187500.02235174447,-1237.10200036788,-187500.02235174447,-187500.02235174447,-187500.02235174447,-187500.02235174447,-187500.02235174447,1730244876.8440757,1730244874.7996285,2000
322.28980330107254,-187500.02235174447,-1300.8715272988711,-187500.02235174447,-187500.02235174447,-187500.02235174447,-187500.02235174447,-187500.02235174447,1730244876.8477097,1730244874.7996285,2000
341.6240622549132,-187500.02235174447,-1346.2679202875995,-187500.02235174447,-187500.02235174447,-187500.02235174447,-187500.02235174447,-187500.02235174447,1730244876.8519046,1730244874.7996285,2000
355.57155079502473,-187500.02235174447,-1296.7364545746393,-187500.02235174447,-187500.02235174447,-187500.02235174447,-187500.02235174447,-187500.02235174447,1730244876.8562891,1730244874.7996285,2000
372.402414369871,-187500.02235174447,-1232.6987067101843,-187500.02235174447,-187500.02235174447,-187500.02235174447,-187500.02235174447,-187500.02235174447,1730244876.8611991,1730244874.7996285,2000
350.564760037036,-187500.02235174447,-1285.359416646888,-187500.02235174447,-187500.02235174447,-187500.02235174447,-187500.02235174447,-187500.02235174447,1730244876.8639233,1730244874.7996285,2000
332.3033848170501,-187500.02235174447,-1346.4467342432422,-187500.02235174447,-187500.02235174447,-187500.02235174447,-187500.02235174447,-187500.02235174447,1730244876.8667712,1730244874.7996285,2000
355.4150885838376,-187500.02235174447,-1309.16402449179,-187500.02235174447,-187500.02235174447,-187500.02235174447,-187500.02235174447,-187500.02235174447,1730244876.8722267,1730244874.7996285,2000
348.1507716358628,-187500.02235174447,-1248.5460935289973,-187500.02235174447,-187500.02235174447,-187500.02235174447,-187500.02235174447,-187500.02235174447,1730244876.8764844,1730244874.7996285,2000
319.5852422219804,-187500.02235174447,-1242.4664190371536,-187500.02235174447,-187500.02235174447,-187500.02235174447,-187500.02235174447,-187500.02235174447,1730244876.8801286,1730244874.7996285,2000
322.7368381901787,-187500.02235174447,-1297.786986564039,-187500.02235174447,-187500.02235174447,-187500.02235174447,-187500.02235174447,-187500.02235174447,1730244876.8840349,1730244874.7996285,2000
345.5579692790472,-187500.02235174447,-1326.777199122572,-187500.02235174447,-187500.02235174447,-187500.02235174447,-187500.02235174447,-187500.02235174447,1730244876.8870614,1730244874.7996285,2000
345.8932454458768,-187500.02235174447,-1254.849285465394,-187500.02235174447,-187500.02235174447,-187500.02235174447,-187500.02235174447,-187500.02235174447,1730244876.8908083,1730244874.7996285,2000
327.74362894816744,-187500.02235174447,-1257.4420878222095,-187500.02235174447,-187500.02235174447,-187500.02235174447,-187500.02235174447,-187500.02235174447,1730244876.8951902,1730244874.7996285,2000
323.7426666906675,-187500.02235174447,-1304.5595651339968,-187500.02235174447,-187500.02235174447,-187500.02235174447,-187500.02235174447,-187500.02235174447,1730244876.8999033,1730244874.7996285,2000
333.9127104178322,-187500.02235174447,-1290.4332626382427,-187500.02235174447,-187500.02235174447,-187500.02235174447,-187500.02235174447,-187500.02235174447,1730244876.904316,1730244874.7996285,2000
362.6123502984465,-187500.02235174447,-1253.038794164514,-187500.02235174447,-187500.02235174447,-187500.02235174447,-187500.02235174447,-187500.02235174447,1730244876.9077928,1730244874.7996285,2000
378.1468126948849,-187500.02235174447,-1240.812389947461,-187500.02235174447,-187500.02235174447,-187500.02235174447,-187500.02235174447,-187500.02235174447,1730244876.912331,1730244874.7996285,2000
341.8252279550109,-187500.02235174447,-1297.384655163843,-187500.02235174447,-187500.02235174447,-187500.02235174447,-187500.02235174447,-187500.02235174447,1730244876.914965,1730244874.7996285,2000
346.4967425461701,-187500.02235174447,-1316.8306728399602,-187500.02235174447,-187500.02235174447,-187500.02235174447,-187500.02235174447,-187500.02235174447,1730244876.9191604,1730244874.7996285,2000
351.950568193265,-187500.02235174447,-1249.9319016852262,-187500.02235174447,-187500.02235174447,-187500.02235174447,-187500.02235174447,-187500.02235174447,1730244876.9229932,1730244874.7996285,2000
351.19060888178456,-187500.02235174447,-1229.5247589975309,-187500.02235174447,-187500.02235174447,-187500.02235174447,-187500.02235174447,-187500.02235174447,1730244876.9279244,1730244874.7996285,2000
347.07788790200806,-187500.02235174447,-1288.77923354855,-187500.02235174447,-187500.02235174447,-187500.02235174447,-187500.02235174447,-187500.02235174447,1730244876.931818,1730244874.7996285,2000
347.36846057992705,-187500.02235174447,-1337.4613329722088,-187500.02235174447,-187500.02235174447,-187500.02235174447,-187500.02235174447,-187500.02235174447,1730244876.9361136,1730244874.7996285,2000
358.9243124633208,-187500.02235174447,-1273.6247508078518,-187500.02235174447,-187500.02235174447,-187500.02235174447,-187500.02235174447,-187500.02235174447,1730244876.9399068,1730244874.7996285,2000
345.468562301226,-187500.02235174447,-1238.7560294575728,-187500.02235174447,-187500.02235174447,-187500.02235174447,-187500.02235174447,-187500.02235174447,1730244876.943426,1730244874.7996285,2000
314.2208235527067,-187500.02235174447,-1277.648064809807,-187500.02235174447,-187500.02235174447,-187500.02235174447,-187500.02235174447,-187500.02235174447,1730244876.9469593,1730244874.7996285,2000
328.54829174855854,-187500.02235174447,-1317.5682804069854,-187500.02235174447,-187500.02235174447,-187500.02235174447,-187500.02235174447,-187500.02235174447,1730244876.9510386,1730244874.7996285,2000
351.14590539287394,-187500.02235174447,-1284.0406637240249,-187500.02235174447,-187500.02235174447,-187500.02235174447,-187500.02235174447,-187500.02235174447,1730244876.9568622,1730244874.7996285,2000
372.2459521586839,-187500.02235174447,-1232.1175613543464,-187500.02235174447,-187500.02235174447,-187500.02235174447,-187500.02235174447,-187500.02235174447,1730244876.9600768,1730244874.7996285,2000
352.7552309936561,-187500.02235174447,-1251.5635790304636,-187500.02235174447,-187500.02235174447,-187500.02235174447,-187500.02235174447,-187500.02235174447,1730244876.964103,1730244874.7996285,2000
339.6347569983908,-187500.02235174447,-1309.387541936343,-187500.02235174447,-187500.02235174447,-187500.02235174447,-187500.02235174447,-187500.02235174447,1730244876.9681046,1730244874.7996285,2000
351.5705885375248,-187500.02235174447,-1286.8569835253936,-187500.02235174447,-187500.02235174447,-187500.02235174447,-187500.02235174447,-187500.02235174447,1730244876.9711044,1730244874.7996285,2000
362.9252747208208,-187500.02235174447,-1216.5160437245422,-187500.02235174447,-187500.02235174447,-187500.02235174447,-187500.02235174447,-187500.02235174447,1730244876.974948,1730244874.7996285,2000
351.81645772653314,-187500.02235174447,-1201.0933400503802,-187500.02235174447,-187500.02235174447,-187500.02235174447,-187500.02235174447,-187500.02235174447,1730244876.979083,1730244874.7996285,2000
315.47252124220387,-187500.02235174447,-1283.7724427905612,-187500.02235174447,-187500.02235174447,-187500.02235174447,-187500.02235174447,-187500.02235174447,1730244876.984973,1730244874.7996285,2000
336.5725680080138,-187500.02235174447,-1329.906443346315,-187500.02235174447,-187500.02235174447,-187500.02235174447,-187500.02235174447,-187500.02235174447,1730244876.988089,1730244874.7996285,2000
360.7124520197454,-187500.02235174447,-1257.330329099933,-187500.02235174447,-187500.02235174447,-187500.02235174447,-187500.02235174447,-187500.02235174447,1730244876.9919963,1730244874.7996285,2000
355.8174199840331,-187500.02235174447,-1260.2807593680334,-187500.02235174447,-187500.02235174447,-187500.02235174447,-187500.02235174447,-187500.02235174447,1730244876.995128,1730244874.7996285,2000
349.0671931585304,-187500.02235174447,-1291.975533005659,-187500.02235174447,-187500.02235174447,-187500.02235174447,-187500.02235174447,-187500.02235174447,1730244876.998904,1730244874.7996285,2000
351.43647807079293,-187500.02235174447,-1317.1883007512452,-187500.02235174447,-187500.02235174447,-187500.02235174447,-187500.02235174447,-187500.02235174447,1730244877.0030797,1730244874.7996285,2000
366.0992224334744,-187500.02235174447,-1268.9308844722373,-187500.02235174447,-187500.02235174447,-187500.02235174447,-187500.02235174447,-187500.02235174447,1730244877.007003,1730244874.7996285,2000
352.12938214890744,-187500.02235174447,-1223.4674362501428,-187500.02235174447,-187500.02235174447,-187500.02235174447,-187500.02235174447,-187500.02235174447,1730244877.011106,1730244874.7996285,2000
328.36947779291603,-187500.02235174447,-1284.9123817577818,-187500.02235174447,-187500.02235174447,-187500.02235174447,-187500.02235174447,-187500.02235174447,1730244877.0159435,1730244874.7996285,2000
350.7212222482231,-187500.02235174447,-1304.716027345184,-187500.02235174447,-187500.02235174447,-187500.02235174447,-187500.02235174447,-187500.02235174447,1730244877.0200813,1730244874.7996285,2000
369.1167079349409,-187500.02235174447,-1247.6967272396955,-187500.02235174447,-187500.02235174447,-187500.02235174447,-187500.02235174447,-187500.02235174447,1730244877.0230267,1730244874.7996285,2000
371.8659725029436,-187500.02235174447,-1212.0456948334809,-187500.02235174447,-187500.02235174447,-187500.02235174447,-187500.02235174447,-187500.02235174447,1730244877.027042,1730244874.7996285,2000
310.33162001748326,-187500.02235174447,-1241.2147213476565,-187500.02235174447,-187500.02235174447,-187500.02235174447,-187500.02235174447,-187500.02235174447,1730244877.0311613,1730244874.7996285,2000
300.8097768795225,-187500.02235174447,-1301.3409139324324,-187500.02235174447,-187500.02235174447,-187500.02235174447,-187500.02235174447,-187500.02235174447,1730244877.0351176,1730244874.7996285,2000
336.1925883522735,-187500.02235174447,-1273.4012333632986,-187500.02235174447,-187500.02235174447,-187500.02235174447,-187500.02235174447,-187500.02235174447,1730244877.0391648,1730244874.7996285,2000
339.50064653165896,-187500.02235174447,-1185.335360209389,-187500.02235174447,-187500.02235174447,-187500.02235174447,-187500.02235174447,-187500.02235174447,1730244877.0441391,1730244874.7996285,2000
332.2810330725948,-187500.02235174447,-1287.1922596922232,-187500.02235174447,-187500.02235174447,-187500.02235174447,-187500.02235174447,-187500.02235174447,1730244877.0480225,1730244874.7996285,2000
348.08371640249686,-187500.02235174447,-1343.384545252865,-187500.02235174447,-187500.02235174447,-187500.02235174447,-187500.02235174447,-187500.02235174447,1730244877.051068,1730244874.7996285,2000
363.7746410101224,-187500.02235174447,-1296.5576406189969,-187500.02235174447,-187500.02235174447,-187500.02235174447,-187500.02235174447,-187500.02235174447,1730244877.0550191,1730244874.7996285,2000
370.79308876908885,-187500.02235174447,-1238.823084690939,-187500.02235174447,-187500.02235174447,-187500.02235174447,-187500.02235174447,-187500.02235174447,1730244877.059163,1730244874.7996285,2000
331.6998877167568,-187500.02235174447,-1246.065049894458,-187500.02235174447,-187500.02235174447,-187500.02235174447,-187500.02235174447,-187500.02235174447,1730244877.0630107,1730244874.7996285,2000
345.8261902125109,-187500.02235174447,-1304.581916878452,-187500.02235174447,-187500.02235174447,-187500.02235174447,-187500.02235174447,-187500.02235174447,1730244877.06714,1730244874.7996285,2000
361.338300864494,-187500.02235174447,-1322.3739054648763,-187500.02235174447,-187500.02235174447,-187500.02235174447,-187500.02235174447,-187500.02235174447,1730244877.0712492,1730244874.7996285,2000
387.3110279215608,-187500.02235174447,-1241.1253143698352,-187500.02235174447,-187500.02235174447,-187500.02235174447,-187500.02235174447,-187500.02235174447,1730244877.0764349,1730244874.7996285,2000
366.4792020892146,-187500.02235174447,-1222.5063112385644,-187500.02235174447,-187500.02235174447,-187500.02235174447,-187500.02235174447,-187500.02235174447,1730244877.0792153,1730244874.7996285,2000
321.4404370117709,-187500.02235174447,-1304.4701581561756,-187500.02235174447,-187500.02235174447,-187500.02235174447,-187500.02235174447,-187500.02235174447,1730244877.083208,1730244874.7996285,2000
341.64641399936846,-187500.02235174447,-1314.327277460966,-187500.02235174447,-187500.02235174447,-187500.02235174447,-187500.02235174447,-187500.02235174447,1730244877.0872371,1730244874.7996285,2000
379.7784900401223,-187500.02235174447,-1243.1816748597234,-187500.02235174447,-187500.02235174447,-187500.02235174447,-187500.02235174447,-187500.02235174447,1730244877.0910976,1730244874.7996285,2000
367.1497544228738,-187500.02235174447,-1219.2876600370005,-187500.02235174447,-187500.02235174447,-187500.02235174447,-187500.02235174447,-187500.02235174447,1730244877.0951169,1730244874.7996285,2000
326.5366347475809,-187500.02235174447,-1283.0795387124467,-187500.02235174447,-187500.02235174447,-187500.02235174447,-187500.02235174447,-187500.02235174447,1730244877.1002133,1730244874.7996285,2000
342.3840215663936,-187500.02235174447,-1307.8229198244717,-187500.02235174447,-187500.02235174447,-187500.02235174447,-187500.02235174447,-187500.02235174447,1730244877.1037223,1730244874.7996285,2000
372.5812283255135,-187500.02235174447,-1247.6743754952402,-187500.02235174447,-187500.02235174447,-187500.02235174447,-187500.02235174447,-187500.02235174447,1730244877.1063285,1730244874.7996285,2000
345.8038384680556,-187500.02235174447,-1196.0865492923915,-187500.02235174447,-187500.02235174447,-187500.02235174447,-187500.02235174447,-187500.02235174447,1730244877.1124668,1730244874.7996285,2000
300.5415559460588,-187500.02235174447,-1233.3469072993885,-187500.02235174447,-187500.02235174447,-187500.02235174447,-187500.02235174447,-187500.02235174447,1730244877.1162088,1730244874.7996285,2000
322.04393411206416,-187500.02235174447,-1315.2660507280889,-187500.02235174447,-187500.02235174447,-187500.02235174447,-187500.02235174447,-187500.02235174447,1730244877.1196728,1730244874.7996285,2000
352.5540652935583,-187500.02235174447,-1252.0106139195698,-187500.02235174447,-187500.02235174447,-187500.02235174447,-187500.02235174447,-187500.02235174447,1730244877.1252224,1730244874.7996285,2000
347.07788790200806,-187500.02235174447,-1214.3479245123774,-187500.02235174447,-187500.02235174447,-187500.02235174447,-187500.02235174447,-187500.02235174447,1730244877.1288793,1730244874.7996285,2000
322.26745155661723,-187500.02235174447,-1281.6937305562176,-187500.02235174447,-187500.02235174447,-187500.02235174447,-187500.02235174447,-187500.02235174447,1730244877.1314597,1730244874.7996285,2000
316.52305323160334,-187500.02235174447,-1337.9530713502254,-187500.02235174447,-187500.02235174447,-187500.02235174447,-187500.02235174447,-187500.02235174447,1730244877.135478,1730244874.7996285,2000
345.02152741211984,-187500.02235174447,-1271.0543001954914,-187500.02235174447,-187500.02235174447,-187500.02235174447,-187500.02235174447,-187500.02235174447,1730244877.1396427,1730244874.7996285,2000
359.14782990787387,-187500.02235174447,-1237.8843114238157,-187500.02235174447,-187500.02235174447,-187500.02235174447,-187500.02235174447,-187500.02235174447,1730244877.1436982,1730244874.7996285,2000
357.76202175164485,-187500.02235174447,-1258.5373233005196,-187500.02235174447,-187500.02235174447,-187500.02235174447,-187500.02235174447,-187500.02235174447,1730244877.147379,1730244874.7996285,2000
316.41129450932675,-187500.02235174447,-1310.7509983481168,-187500.02235174447,-187500.02235174447,-187500.02235174447,-187500.02235174447,-187500.02235174447,1730244877.1518068,1730244874.7996285,2000
336.5949197524691,-187500.02235174447,-1295.7306260741505,-187500.02235174447,-187500.02235174447,-187500.02235174447,-187500.02235174447,-187500.02235174447,1730244877.1572092,1730244874.7996285,2000
375.7998795270776,-187500.02235174447,-1241.974680659137,-187500.02235174447,-187500.02235174447,-187500.02235174447,-187500.02235174447,-187500.02235174447,1730244877.1604,1730244874.7996285,2000
346.31792859052763,-187500.02235174447,-1251.6753377527402,-187500.02235174447,-187500.02235174447,-187500.02235174447,-187500.02235174447,-187500.02235174447,1730244877.1643465,1730244874.7996285,2000
301.9273641022878,-187500.02235174447,-1307.0853122574465,-187500.02235174447,-187500.02235174447,-187500.02235174447,-187500.02235174447,-187500.02235174447,1730244877.167422,1730244874.7996285,2000
331.9457569057652,-187500.02235174447,-1288.06397772598,-187500.02235174447,-187500.02235174447,-187500.02235174447,-187500.02235174447,-187500.02235174447,1730244877.1716688,1730244874.7996285,2000
360.5112863196477,-187500.02235174447,-1203.7755493850173,-187500.02235174447,-187500.02235174447,-187500.02235174447,-187500.02235174447,-187500.02235174447,1730244877.1753323,1730244874.7996285,2000
344.5074372896478,-187500.02235174447,-1211.0622180774474,-187500.02235174447,-187500.02235174447,-187500.02235174447,-187500.02235174447,-187500.02235174447,1730244877.179808,1730244874.7996285,2000
331.9010534168545,-187500.02235174447,-1323.7820653655608,-187500.02235174447,-187500.02235174447,-187500.02235174447,-187500.02235174447,-187500.02235174447,1730244877.1833432,1730244874.7996285,2000
357.11382116244096,-187500.02235174447,-1343.7198214196949,-187500.02235174447,-187500.02235174447,-187500.02235174447,-187500.02235174447,-187500.02235174447,1730244877.1874647,1730244874.7996285,2000
