Fp1,Fp2,C3,C4,P7,P8,O1,O2,time_board,time_marker,marker
-4846.796971177694,-187500.02235174447,18163.1393031048,-187500.02235174447,-187500.02235174447,-187500.02235174447,-187500.02235174447,-187500.02235174447,1730411795.5676668,1730411795.5660644,2000
-4842.5501397311855,-187500.02235174447,18150.152939576263,-187500.02235174447,-187500.02235174447,-187500.02235174447,-187500.02235174447,-187500.02235174447,1730411795.571765,1730411795.5660644,2000
-4843.287747298211,-187500.02235174447,18159.674782714224,-187500.02235174447,-187500.02235174447,-187500.02235174447,-187500.02235174447,-187500.02235174447,1730411795.575865,1730411795.5660644,2000
-4853.3460323031,-187500.02235174447,18167.47554152913,-187500.02235174447,-187500.02235174447,-187500.02235174447,-187500.02235174447,-187500.02235174447,1730411795.5787425,1730411795.5660644,2000
-4850.037974123714,-187500.02235174447,18155.40559952326,-187500.02235174447,-187500.02235174447,-187500.02235174447,-187500.02235174447,-187500.02235174447,1730411795.5827563,1730411795.5660644,2000
-4840.314965285655,-187500.02235174447,18143.715637173133,-187500.02235174447,-187500.02235174447,-187500.02235174447,-187500.02235174447,-187500.02235174447,1730411795.586686,1730411795.5660644,2000
-4853.480142769831,-187500.02235174447,18157.283146057503,-187500.02235174447,-187500.02235174447,-187500.02235174447,-187500.02235174447,-187500.02235174447,1730411795.5908976,1730411795.5660644,2000
-4855.000061392791,-187500.02235174447,18175.41041081076,-187500.02235174447,-187500.02235174447,-187500.02235174447,-187500.02235174447,-187500.02235174447,1730411795.5968175,1730411795.5660644,2000
-4850.194436334901,-187500.02235174447,18163.42987578272,-187500.02235174447,-187500.02235174447,-187500.02235174447,-187500.02235174447,-187500.02235174447,1730411795.5997417,1730411795.5660644,2000
-4841.119628086046,-187500.02235174447,18145.77199766302,-187500.02235174447,-187500.02235174447,-187500.02235174447,-187500.02235174447,-187500.02235174447,1730411795.6037996,1730411795.5660644,2000
-4834.235290793811,-187500.02235174447,18155.51735824553,-187500.02235174447,-187500.02235174447,-187500.02235174447,-187500.02235174447,-187500.02235174447,1730411795.6070411,1730411795.5660644,2000
-4837.409238506465,-187500.02235174447,18180.21603586865,-187500.02235174447,-187500.02235174447,-187500.02235174447,-187500.02235174447,-187500.02235174447,1730411795.6108456,1730411795.5660644,2000
-4836.425761750432,-187500.02235174447,18178.137323634302,-187500.02235174447,-187500.02235174447,-187500.02235174447,-187500.02235174447,-187500.02235174447,1730411795.6149232,1730411795.5660644,2000
-4823.372342988532,-187500.02235174447,18159.69713445868,-187500.02235174447,-187500.02235174447,-187500.02235174447,-187500.02235174447,-187500.02235174447,1730411795.6189785,1730411795.5660644,2000
-4830.52490121423,-187500.02235174447,18153.79627392248,-187500.02235174447,-187500.02235174447,-187500.02235174447,-187500.02235174447,-187500.02235174447,1730411795.6229577,1730411795.5660644,2000
-4850.909692157471,-187500.02235174447,18163.049896126973,-187500.02235174447,-187500.02235174447,-187500.02235174447,-187500.02235174447,-187500.02235174447,1730411795.62774,1730411795.5660644,2000
-4848.495703756297,-187500.02235174447,18170.113047374853,-187500.02235174447,-187500.02235174447,-187500.02235174447,-187500.02235174447,-187500.02235174447,1730411795.6319273,1730411795.5660644,2000
-4839.62206120754,-187500.02235174447,18154.913861145244,-187500.02235174447,-187500.02235174447,-187500.02235174447,-187500.02235174447,-187500.02235174447,1730411795.6350083,1730411795.5660644,2000
-4839.689116440906,-187500.02235174447,18149.527090731517,-187500.02235174447,-187500.02235174447,-187500.02235174447,-187500.02235174447,-187500.02235174447,1730411795.638952,1730411795.5660644,2000
-4845.00883162127,-187500.02235174447,18160.50179725907,-187500.02235174447,-187500.02235174447,-187500.02235174447,-187500.02235174447,-187500.02235174447,1730411795.6429696,1730411795.5660644,2000
-4838.4374187514095,-187500.02235174447,18172.97407066513,-187500.02235174447,-187500.02235174447,-187500.02235174447,-187500.02235174447,-187500.02235174447,1730411795.6469333,1730411795.5660644,2000
-4824.042895322192,-187500.02235174447,18163.474579271624,-187500.02235174447,-187500.02235174447,-187500.02235174447,-187500.02235174447,-187500.02235174447,1730411795.650876,1730411795.5660644,2000
-4835.174064060934,-187500.02235174447,18151.561099476945,-187500.02235174447,-187500.02235174447,-187500.02235174447,-187500.02235174447,-187500.02235174447,1730411795.6558533,1730411795.5660644,2000
-4853.927177658937,-187500.02235174447,18161.999364137577,-187500.02235174447,-187500.02235174447,-187500.02235174447,-187500.02235174447,-187500.02235174447,1730411795.6598468,1730411795.5660644,2000
-4855.000061392791,-187500.02235174447,18172.482332287116,-187500.02235174447,-187500.02235174447,-187500.02235174447,-187500.02235174447,-187500.02235174447,1730411795.6627944,1730411795.5660644,2000
-4848.4733520118425,-187500.02235174447,18153.706866944656,-187500.02235174447,-187500.02235174447,-187500.02235174447,-187500.02235174447,-187500.02235174447,1730411795.6669223,1730411795.5660644,2000
-4841.790180419705,-187500.02235174447,18140.94402086068,-187500.02235174447,-187500.02235174447,-187500.02235174447,-187500.02235174447,-187500.02235174447,1730411795.6709504,1730411795.5660644,2000
-4839.107971085068,-187500.02235174447,18158.02075362453,-187500.02235174447,-187500.02235174447,-187500.02235174447,-187500.02235174447,-187500.02235174447,1730411795.6750004,1730411795.5660644,2000
-4845.05353511018,-187500.02235174447,18170.20245435267,-187500.02235174447,-187500.02235174447,-187500.02235174447,-187500.02235174447,-187500.02235174447,1730411795.6789424,1730411795.5660644,2000
-4838.616232707052,-187500.02235174447,18160.322983303427,-187500.02235174447,-187500.02235174447,-187500.02235174447,-187500.02235174447,-187500.02235174447,1730411795.68408,1730411795.5660644,2000
-4829.831997136116,-187500.02235174447,18145.906108129755,-187500.02235174447,-187500.02235174447,-187500.02235174447,-187500.02235174447,-187500.02235174447,1730411795.6879916,1730411795.5660644,2000
-4841.410200763965,-187500.02235174447,18151.650506454767,-187500.02235174447,-187500.02235174447,-187500.02235174447,-187500.02235174447,-187500.02235174447,1730411795.691063,1730411795.5660644,2000
-4850.596767735096,-187500.02235174447,18165.799160694976,-187500.02235174447,-187500.02235174447,-187500.02235174447,-187500.02235174447,-187500.02235174447,1730411795.6949117,1730411795.5660644,2000
-4849.43447702342,-187500.02235174447,18157.953698391164,-187500.02235174447,-187500.02235174447,-187500.02235174447,-187500.02235174447,-187500.02235174447,1730411795.6990738,1730411795.5660644,2000
-4842.974822875836,-187500.02235174447,18133.45618646815,-187500.02235174447,-187500.02235174447,-187500.02235174447,-187500.02235174447,-187500.02235174447,1730411795.7029605,1730411795.5660644,2000
-4839.085619340613,-187500.02235174447,18144.74381741808,-187500.02235174447,-187500.02235174447,-187500.02235174447,-187500.02235174447,-187500.02235174447,1730411795.7070165,1730411795.5660644,2000
-4850.7085264573725,-187500.02235174447,18163.31811706044,-187500.02235174447,-187500.02235174447,-187500.02235174447,-187500.02235174447,-187500.02235174447,1730411795.7119408,1730411795.5660644,2000
-4851.535541002219,-187500.02235174447,18156.858462912853,-187500.02235174447,-187500.02235174447,-187500.02235174447,-187500.02235174447,-187500.02235174447,1730411795.714944,1730411795.5660644,2000
-4836.157540816968,-187500.02235174447,18141.793387149977,-187500.02235174447,-187500.02235174447,-187500.02235174447,-187500.02235174447,-187500.02235174447,1730411795.7190008,1730411795.5660644,2000
-4834.145883815991,-187500.02235174447,18144.67676218471,-187500.02235174447,-187500.02235174447,-187500.02235174447,-187500.02235174447,-187500.02235174447,1730411795.7231145,1730411795.5660644,2000
-4837.632755951018,-187500.02235174447,18159.07128561393,-187500.02235174447,-187500.02235174447,-187500.02235174447,-187500.02235174447,-187500.02235174447,1730411795.72707,1730411795.5660644,2000
-4847.53457874472,-187500.02235174447,18155.40559952326,-187500.02235174447,-187500.02235174447,-187500.02235174447,-187500.02235174447,-187500.02235174447,1730411795.73095,1730411795.5660644,2000
-4847.109895600069,-187500.02235174447,18139.1335295598,-187500.02235174447,-187500.02235174447,-187500.02235174447,-187500.02235174447,-187500.02235174447,1730411795.735102,1730411795.5660644,2000
-4840.024392607736,-187500.02235174447,18138.887660370787,-187500.02235174447,-187500.02235174447,-187500.02235174447,-187500.02235174447,-187500.02235174447,1730411795.740234,1730411795.5660644,2000
-4846.171122332946,-187500.02235174447,18149.035352353498,-187500.02235174447,-187500.02235174447,-187500.02235174447,-187500.02235174447,-187500.02235174447,1730411795.7431655,1730411795.5660644,2000
-4856.117648615557,-187500.02235174447,18144.49794822907,-187500.02235174447,-187500.02235174447,-187500.02235174447,-187500.02235174447,-187500.02235174447,1730411795.7462463,1730411795.5660644,2000
-4844.360631032066,-187500.02235174447,18140.25111678256,-187500.02235174447,-187500.02235174447,-187500.02235174447,-187500.02235174447,-187500.02235174447,1730411795.751223,1730411795.5660644,2000
-4835.218767549845,-187500.02235174447,18138.68649467069,-187500.02235174447,-187500.02235174447,-187500.02235174447,-187500.02235174447,-187500.02235174447,1730411795.7551892,1730411795.5660644,2000
-4834.369401260544,-187500.02235174447,18142.37453250581,-187500.02235174447,-187500.02235174447,-187500.02235174447,-187500.02235174447,-187500.02235174447,1730411795.7591631,1730411795.5660644,2000
-4844.517093243253,-187500.02235174447,18151.203471565663,-187500.02235174447,-187500.02235174447,-187500.02235174447,-187500.02235174447,-187500.02235174447,1730411795.765104,1730411795.5660644,2000
-4855.268282326256,-187500.02235174447,18144.11796857333,-187500.02235174447,-187500.02235174447,-187500.02235174447,-187500.02235174447,-187500.02235174447,1730411795.7681203,1730411795.5660644,2000
-4843.198340320389,-187500.02235174447,18134.39495973527,-187500.02235174447,-187500.02235174447,-187500.02235174447,-187500.02235174447,-187500.02235174447,1730411795.7711549,1730411795.5660644,2000
-4845.902901399481,-187500.02235174447,18139.15588130425,-187500.02235174447,-187500.02235174447,-187500.02235174447,-187500.02235174447,-187500.02235174447,1730411795.775114,1730411795.5660644,2000
-4856.00588989328,-187500.02235174447,18149.549442475967,-187500.02235174447,-187500.02235174447,-187500.02235174447,-187500.02235174447,-187500.02235174447,1730411795.7790873,1730411795.5660644,2000
-4840.583186219119,-187500.02235174447,18143.335657517397,-187500.02235174447,-187500.02235174447,-187500.02235174447,-187500.02235174447,-187500.02235174447,1730411795.7831194,1730411795.5660644,2000
-4828.110912813057,-187500.02235174447,18136.67483766971,-187500.02235174447,-187500.02235174447,-187500.02235174447,-187500.02235174447,-187500.02235174447,1730411795.7870605,1730411795.5660644,2000
-4841.812532164161,-187500.02235174447,18141.189890049685,-187500.02235174447,-187500.02235174447,-187500.02235174447,-187500.02235174447,-187500.02235174447,1730411795.7912176,1730411795.5660644,2000
-4853.256625325278,-187500.02235174447,18154.042143111485,-187500.02235174447,-187500.02235174447,-187500.02235174447,-187500.02235174447,-187500.02235174447,1730411795.795071,1730411795.5660644,2000
-4846.685212455418,-187500.02235174447,18150.64467795428,-187500.02235174447,-187500.02235174447,-187500.02235174447,-187500.02235174447,-187500.02235174447,1730411795.7982736,1730411795.5660644,2000
-4833.989421604803,-187500.02235174447,18138.194756292676,-187500.02235174447,-187500.02235174447,-187500.02235174447,-187500.02235174447,-187500.02235174447,1730411795.8021157,1730411795.5660644,2000
-4840.002040863281,-187500.02235174447,18136.25015452506,-187500.02235174447,-187500.02235174447,-187500.02235174447,-187500.02235174447,-187500.02235174447,1730411795.806282,1730411795.5660644,2000
-4852.250796824789,-187500.02235174447,18147.716599430634,-187500.02235174447,-187500.02235174447,-187500.02235174447,-187500.02235174447,-187500.02235174447,1730411795.811156,1730411795.5660644,2000
-4851.736706702317,-187500.02235174447,18152.36576227734,-187500.02235174447,-187500.02235174447,-187500.02235174447,-187500.02235174447,-187500.02235174447,1730411795.8153524,1730411795.5660644,2000
-4835.084657083114,-187500.02235174447,18150.130587831805,-187500.02235174447,-187500.02235174447,-187500.02235174447,-187500.02235174447,-187500.02235174447,1730411795.8194096,1730411795.5660644,2000
-4834.615270449552,-187500.02235174447,18149.12475933132,-187500.02235174447,-187500.02235174447,-187500.02235174447,-187500.02235174447,-187500.02235174447,1730411795.8232622,1730411795.5660644,2000
-4848.071020611646,-187500.02235174447,18158.02075362453,-187500.02235174447,-187500.02235174447,-187500.02235174447,-187500.02235174447,-187500.02235174447,1730411795.8274448,1730411795.5660644,2000
-4853.547198003197,-187500.02235174447,18158.42308502473,-187500.02235174447,-187500.02235174447,-187500.02235174447,-187500.02235174447,-187500.02235174447,1730411795.830663,1730411795.5660644,2000
-4844.517093243253,-187500.02235174447,18143.156843561752,-187500.02235174447,-187500.02235174447,-187500.02235174447,-187500.02235174447,-187500.02235174447,1730411795.8343072,1730411795.5660644,2000
-4838.817398407149,-187500.02235174447,18142.37453250581,-187500.02235174447,-187500.02235174447,-187500.02235174447,-187500.02235174447,-187500.02235174447,1730411795.8392308,1730411795.5660644,2000
-4846.349936288588,-187500.02235174447,18157.171387335227,-187500.02235174447,-187500.02235174447,-187500.02235174447,-187500.02235174447,-187500.02235174447,1730411795.8431845,1730411795.5660644,2000
-4854.754192203784,-187500.02235174447,18160.144169347783,-187500.02235174447,-187500.02235174447,-187500.02235174447,-187500.02235174447,-187500.02235174447,1730411795.8472648,1730411795.5660644,2000
-4845.344107788099,-187500.02235174447,18151.91872738823,-187500.02235174447,-187500.02235174447,-187500.02235174447,-187500.02235174447,-187500.02235174447,1730411795.850298,1730411795.5660644,2000
-4831.351915759077,-187500.02235174447,18147.962468619644,-187500.02235174447,-187500.02235174447,-187500.02235174447,-187500.02235174447,-187500.02235174447,1730411795.8543048,1730411795.5660644,2000
-4834.078828582625,-187500.02235174447,18159.71948620313,-187500.02235174447,-187500.02235174447,-187500.02235174447,-187500.02235174447,-187500.02235174447,1730411795.8583703,1730411795.5660644,2000
-4847.2440060668005,-187500.02235174447,18165.955622906164,-187500.02235174447,-187500.02235174447,-187500.02235174447,-187500.02235174447,-187500.02235174447,1730411795.8623233,1730411795.5660644,2000
-4854.553026503686,-187500.02235174447,18155.182082078707,-187500.02235174447,-187500.02235174447,-187500.02235174447,-187500.02235174447,-187500.02235174447,1730411795.8674357,1730411795.5660644,2000
-4833.095351826591,-187500.02235174447,18142.285125527997,-187500.02235174447,-187500.02235174447,-187500.02235174447,-187500.02235174447,-187500.02235174447,1730411795.8712437,1730411795.5660644,2000
-4829.474369224831,-187500.02235174447,18151.35993377685,-187500.02235174447,-187500.02235174447,-187500.02235174447,-187500.02235174447,-187500.02235174447,1730411795.8752928,1730411795.5660644,2000
-4858.263416083267,-187500.02235174447,18163.787503694,-187500.02235174447,-187500.02235174447,-187500.02235174447,-187500.02235174447,-187500.02235174447,1730411795.878194,1730411795.5660644,2000
-4854.575378248141,-187500.02235174447,18161.50762575956,-187500.02235174447,-187500.02235174447,-187500.02235174447,-187500.02235174447,-187500.02235174447,1730411795.8822958,1730411795.5660644,2000
-4838.169197817945,-187500.02235174447,18147.247212797072,-187500.02235174447,-187500.02235174447,-187500.02235174447,-187500.02235174447,-187500.02235174447,1730411795.8862288,1730411795.5660644,2000
-4845.165293832457,-187500.02235174447,18152.678686699717,-187500.02235174447,-187500.02235174447,-187500.02235174447,-187500.02235174447,-187500.02235174447,1730411795.8902445,1730411795.5660644,2000
-4855.760020704272,-187500.02235174447,18163.65339322727,-187500.02235174447,-187500.02235174447,-187500.02235174447,-187500.02235174447,-187500.02235174447,1730411795.8952155,1730411795.5660644,2000
-4847.95926188937,-187500.02235174447,18156.8361111684,-187500.02235174447,-187500.02235174447,-187500.02235174447,-187500.02235174447,-187500.02235174447,1730411795.8992894,1730411795.5660644,2000
-4840.180854818923,-187500.02235174447,18144.72146567362,-187500.02235174447,-187500.02235174447,-187500.02235174447,-187500.02235174447,-187500.02235174447,1730411795.903256,1730411795.5660644,2000
-4844.941776387904,-187500.02235174447,18142.26277378354,-187500.02235174447,-187500.02235174447,-187500.02235174447,-187500.02235174447,-187500.02235174447,1730411795.906288,1730411795.5660644,2000
-4853.703660214384,-187500.02235174447,18157.350201290872,-187500.02235174447,-187500.02235174447,-187500.02235174447,-187500.02235174447,-187500.02235174447,1730411795.9103105,1730411795.5660644,2000
-4851.937872402415,-187500.02235174447,18164.56981474993,-187500.02235174447,-187500.02235174447,-187500.02235174447,-187500.02235174447,-187500.02235174447,1730411795.91433,1730411795.5660644,2000
-4845.589976977108,-187500.02235174447,18143.53682321749,-187500.02235174447,-187500.02235174447,-187500.02235174447,-187500.02235174447,-187500.02235174447,1730411795.9202826,1730411795.5660644,2000
-4844.986479876814,-187500.02235174447,18139.804081893457,-187500.02235174447,-187500.02235174447,-187500.02235174447,-187500.02235174447,-187500.02235174447,1730411795.9233348,1730411795.5660644,2000
-4853.77071544775,-187500.02235174447,18156.724352446123,-187500.02235174447,-187500.02235174447,-187500.02235174447,-187500.02235174447,-187500.02235174447,1730411795.927592,1730411795.5660644,2000
-4848.451000267387,-187500.02235174447,18167.252024084573,-187500.02235174447,-187500.02235174447,-187500.02235174447,-187500.02235174447,-187500.02235174447,1730411795.930343,1730411795.5660644,2000
-4836.537520472708,-187500.02235174447,18155.293840800983,-187500.02235174447,-187500.02235174447,-187500.02235174447,-187500.02235174447,-187500.02235174447,1730411795.934518,1730411795.5660644,2000
-4840.985517619314,-187500.02235174447,18139.669971426723,-187500.02235174447,-187500.02235174447,-187500.02235174447,-187500.02235174447,-187500.02235174447,1730411795.9385948,1730411795.5660644,2000
-4850.015622379258,-187500.02235174447,18148.6330209533,-187500.02235174447,-187500.02235174447,-187500.02235174447,-187500.02235174447,-187500.02235174447,1730411795.9424243,1730411795.5660644,2000
-4844.897072898993,-187500.02235174447,18165.6874019727,-187500.02235174447,-187500.02235174447,-187500.02235174447,-187500.02235174447,-187500.02235174447,1730411795.9464111,1730411795.5660644,2000
-4835.509340227764,-187500.02235174447,18153.39394252228,-187500.02235174447,-187500.02235174447,-187500.02235174447,-187500.02235174447,-187500.02235174447,1730411795.9504569,1730411795.5660644,2000
-4828.692058168896,-187500.02235174447,18150.152939576263,-187500.02235174447,-187500.02235174447,-187500.02235174447,-187500.02235174447,-187500.02235174447,1730411795.9555037,1730411795.5660644,2000
-4828.960279102359,-187500.02235174447,18163.943965905182,-187500.02235174447,-187500.02235174447,-187500.02235174447,-187500.02235174447,-187500.02235174447,1730411795.9585335,1730411795.5660644,2000
-4843.108933342568,-187500.02235174447,18162.20052983767,-187500.02235174447,-187500.02235174447,-187500.02235174447,-187500.02235174447,-187500.02235174447,1730411795.9623516,1730411795.5660644,2000
-4842.438381008909,-187500.02235174447,18147.671895941723,-187500.02235174447,-187500.02235174447,-187500.02235174447,-187500.02235174447,-187500.02235174447,1730411795.966514,1730411795.5660644,2000
-4817.672648152429,-187500.02235174447,18147.06839884143,-187500.02235174447,-187500.02235174447,-187500.02235174447,-187500.02235174447,-187500.02235174447,1730411795.970399,1730411795.5660644,2000
-4832.6259651930295,-187500.02235174447,18155.33854428989,-187500.02235174447,-187500.02235174447,-187500.02235174447,-187500.02235174447,-187500.02235174447,1730411795.9743423,1730411795.5660644,2000
-4862.420840551954,-187500.02235174447,18149.527090731517,-187500.02235174447,-187500.02235174447,-187500.02235174447,-187500.02235174447,-187500.02235174447,1730411795.978398,1730411795.5660644,2000
-4860.096259128602,-187500.02235174447,18143.380361006304,-187500.02235174447,-187500.02235174447,-187500.02235174447,-187500.02235174447,-187500.02235174447,1730411795.9834547,1730411795.5660644,2000
-4838.973860618336,-187500.02235174447,18152.16459657724,-187500.02235174447,-187500.02235174447,-187500.02235174447,-187500.02235174447,-187500.02235174447,1730411795.9864042,1730411795.5660644,2000
-4849.05449736768,-187500.02235174447,18153.885680900297,-187500.02235174447,-187500.02235174447,-187500.02235174447,-187500.02235174447,-187500.02235174447,1730411795.9913464,1730411795.5660644,2000
-4868.947549932904,-187500.02235174447,18143.29095402848,-187500.02235174447,-187500.02235174447,-187500.02235174447,-187500.02235174447,-187500.02235174447,1730411795.995512,1730411795.5660644,2000
-4868.38875632152,-187500.02235174447,18124.493136941568,-187500.02235174447,-187500.02235174447,-187500.02235174447,-187500.02235174447,-187500.02235174447,1730411795.998514,1730411795.5660644,2000
-4842.90776764247,-187500.02235174447,18113.138450758277,-187500.02235174447,-187500.02235174447,-187500.02235174447,-187500.02235174447,-187500.02235174447,1730411796.0025363,1730411795.5660644,2000
-4836.112837328057,-187500.02235174447,18138.194756292676,-187500.02235174447,-187500.02235174447,-187500.02235174447,-187500.02235174447,-187500.02235174447,1730411796.006627,1730411795.5660644,2000
-4822.746494143784,-187500.02235174447,18159.205396080662,-187500.02235174447,-187500.02235174447,-187500.02235174447,-187500.02235174447,-187500.02235174447,1730411796.0114596,1730411795.5660644,2000
-4739.218025114301,-187500.02235174447,18143.40271275076,-187500.02235174447,-187500.02235174447,-187500.02235174447,-187500.02235174447,-187500.02235174447,1730411796.0144808,1730411795.5660644,2000
-4787.318979182122,-187500.02235174447,18124.001398563552,-187500.02235174447,-187500.02235174447,-187500.02235174447,-187500.02235174447,-187500.02235174447,1730411796.0185134,1730411795.5660644,2000
-4907.9960474963245,-187500.02235174447,18068.65847929221,-187500.02235174447,-187500.02235174447,-187500.02235174447,-187500.02235174447,-187500.02235174447,1730411796.0224588,1730411795.5660644,2000
-4895.4343671124425,-187500.02235174447,18102.45431690864,-187500.02235174447,-187500.02235174447,-187500.02235174447,-187500.02235174447,-187500.02235174447,1730411796.0265508,1730411795.5660644,2000
-4872.099145901102,-187500.02235174447,18198.700928533188,-187500.02235174447,-187500.02235174447,-187500.02235174447,-187500.02235174447,-187500.02235174447,1730411796.030456,1730411795.5660644,2000
-4805.736816613295,-187500.02235174447,18176.01390791105,-187500.02235174447,-187500.02235174447,-187500.02235174447,-187500.02235174447,-187500.02235174447,1730411796.0344777,1730411795.5660644,2000
-4742.03434491567,-187500.02235174447,18143.22389879512,-187500.02235174447,-187500.02235174447,-187500.02235174447,-187500.02235174447,-187500.02235174447,1730411796.0388403,1730411795.5660644,2000
-4797.511374653742,-187500.02235174447,18186.809800482966,-187500.02235174447,-187500.02235174447,-187500.02235174447,-187500.02235174447,-187500.02235174447,1730411796.0416472,1730411795.5660644,2000
-4862.53259927423,-187500.02235174447,18214.59301884091,-187500.02235174447,-187500.02235174447,-187500.02235174447,-187500.02235174447,-187500.02235174447,1730411796.0455587,1730411795.5660644,2000
-4800.148880499468,-187500.02235174447,18161.485274015104,-187500.02235174447,-187500.02235174447,-187500.02235174447,-187500.02235174447,-187500.02235174447,1730411796.0507343,1730411795.5660644,2000
-4832.961241359859,-187500.02235174447,18142.083959827894,-187500.02235174447,-187500.02235174447,-187500.02235174447,-187500.02235174447,-187500.02235174447,1730411796.0546467,1730411795.5660644,2000
-4888.2147536533785,-187500.02235174447,18169.64366074129,-187500.02235174447,-187500.02235174447,-187500.02235174447,-187500.02235174447,-187500.02235174447,1730411796.058673,1730411795.5660644,2000
-4900.262343914788,-187500.02235174447,18139.468805726625,-187500.02235174447,-187500.02235174447,-187500.02235174447,-187500.02235174447,-187500.02235174447,1730411796.062536,1730411795.5660644,2000
-4910.320628919677,-187500.02235174447,18076.995679974043,-187500.02235174447,-187500.02235174447,-187500.02235174447,-187500.02235174447,-187500.02235174447,1730411796.06655,1730411795.5660644,2000
-4882.962093706381,-187500.02235174447,18020.669283946667,-187500.02235174447,-187500.02235174447,-187500.02235174447,-187500.02235174447,-187500.02235174447,1730411796.0696096,1730411795.5660644,2000
-4832.804779148672,-187500.02235174447,18140.00524759355,-187500.02235174447,-187500.02235174447,-187500.02235174447,-187500.02235174447,-187500.02235174447,1730411796.073588,1730411795.5660644,2000
-4797.6454851204735,-187500.02235174447,18219.711568321178,-187500.02235174447,-187500.02235174447,-187500.02235174447,-187500.02235174447,-187500.02235174447,1730411796.0786505,1730411795.5660644,2000
-4737.675754746885,-187500.02235174447,18196.532809321023,-187500.02235174447,-187500.02235174447,-187500.02235174447,-187500.02235174447,-187500.02235174447,1730411796.0826,1730411795.5660644,2000
-4866.041823153713,-187500.02235174447,18175.41041081076,-187500.02235174447,-187500.02235174447,-187500.02235174447,-187500.02235174447,-187500.02235174447,1730411796.0866463,1730411795.5660644,2000
-4824.4675784668425,-187500.02235174447,18099.52623838499,-187500.02235174447,-187500.02235174447,-187500.02235174447,-187500.02235174447,-187500.02235174447,1730411796.0906646,1730411795.5660644,2000
-4853.793067192205,-187500.02235174447,18056.72264775308,-187500.02235174447,-187500.02235174447,-187500.02235174447,-187500.02235174447,-187500.02235174447,1730411796.0936131,1730411795.5660644,2000
-4982.740280954871,-187500.02235174447,18060.276575121472,-187500.02235174447,-187500.02235174447,-187500.02235174447,-187500.02235174447,-187500.02235174447,1730411796.0976248,1730411795.5660644,2000
-4842.8407124091045,-187500.02235174447,18118.63697989428,-187500.02235174447,-187500.02235174447,-187500.02235174447,-187500.02235174447,-187500.02235174447,1730411796.1016908,1730411795.5660644,2000
-4838.9068053849705,-187500.02235174447,18144.72146567362,-187500.02235174447,-187500.02235174447,-187500.02235174447,-187500.02235174447,-187500.02235174447,1730411796.10657,1730411795.5660644,2000
-4778.4453366333655,-187500.02235174447,18244.142025010828,-187500.02235174447,-187500.02235174447,-187500.02235174447,-187500.02235174447,-187500.02235174447,1730411796.11056,1730411795.5660644,2000
-4748.270481618701,-187500.02235174447,18175.142189877297,-187500.02235174447,-187500.02235174447,-187500.02235174447,-187500.02235174447,-187500.02235174447,1730411796.1146448,1730411795.5660644,2000
-4814.47634869532,-187500.02235174447,18149.817663409434,-187500.02235174447,-187500.02235174447,-187500.02235174447,-187500.02235174447,-187500.02235174447,1730411796.118616,1730411795.5660644,2000
-4775.651368576452,-187500.02235174447,18190.274320873537,-187500.02235174447,-187500.02235174447,-187500.02235174447,-187500.02235174447,-187500.02235174447,1730411796.1216097,1730411795.5660644,2000
-4662.4621346547765,-187500.02235174447,18101.090860496864,-187500.02235174447,-187500.02235174447,-187500.02235174447,-187500.02235174447,-187500.02235174447,1730411796.125655,1730411795.5660644,2000
-4844.852369410082,-187500.02235174447,18109.89744781225,-187500.02235174447,-187500.02235174447,-187500.02235174447,-187500.02235174447,-187500.02235174447,1730411796.1297846,1730411795.5660644,2000
-4922.412922669998,-187500.02235174447,18252.926260581764,-187500.02235174447,-187500.02235174447,-187500.02235174447,-187500.02235174447,-187500.02235174447,1730411796.1357615,1730411795.5660644,2000
-4845.165293832457,-187500.02235174447,18208.669806560258,-187500.02235174447,-187500.02235174447,-187500.02235174447,-187500.02235174447,-187500.02235174447,1730411796.1387937,1730411795.5660644,2000
-4827.842691879594,-187500.02235174447,18195.795201754,-187500.02235174447,-187500.02235174447,-187500.02235174447,-187500.02235174447,-187500.02235174447,1730411796.1428273,1730411795.5660644,2000
-4739.441542558854,-187500.02235174447,18204.244161158105,-187500.02235174447,-187500.02235174447,-187500.02235174447,-187500.02235174447,-187500.02235174447,1730411796.145857,1730411795.5660644,2000
-4766.978891727793,-187500.02235174447,18210.681463561235,-187500.02235174447,-187500.02235174447,-187500.02235174447,-187500.02235174447,-187500.02235174447,1730411796.149852,1730411795.5660644,2000
-4924.134006993057,-187500.02235174447,18167.40848629576,-187500.02235174447,-187500.02235174447,-187500.02235174447,-187500.02235174447,-187500.02235174447,1730411796.1538043,1730411795.5660644,2000
-4901.961076493392,-187500.02235174447,18180.417201568747,-187500.02235174447,-187500.02235174447,-187500.02235174447,-187500.02235174447,-187500.02235174447,1730411796.1596684,1730411795.5660644,2000
-4830.681363425418,-187500.02235174447,18203.283036146528,-187500.02235174447,-187500.02235174447,-187500.02235174447,-187500.02235174447,-187500.02235174447,1730411796.162848,1730411795.5660644,2000
-4835.174064060934,-187500.02235174447,18157.6854774577,-187500.02235174447,-187500.02235174447,-187500.02235174447,-187500.02235174447,-187500.02235174447,1730411796.16689,1730411795.5660644,2000
-4832.447151237387,-187500.02235174447,18126.21422126463,-187500.02235174447,-187500.02235174447,-187500.02235174447,-187500.02235174447,-187500.02235174447,1730411796.1709127,1730411795.5660644,2000
-4721.515443505698,-187500.02235174447,18103.370738431306,-187500.02235174447,-187500.02235174447,-187500.02235174447,-187500.02235174447,-187500.02235174447,1730411796.1738489,1730411795.5660644,2000
-4839.912633885459,-187500.02235174447,18153.103369844364,-187500.02235174447,-187500.02235174447,-187500.02235174447,-187500.02235174447,-187500.02235174447,1730411796.1776977,1730411795.5660644,2000
-4878.268227370766,-187500.02235174447,18227.869955047365,-187500.02235174447,-187500.02235174447,-187500.02235174447,-187500.02235174447,-187500.02235174447,1730411796.1817768,1730411795.5660644,2000
-4771.784516785684,-187500.02235174447,18190.274320873537,-187500.02235174447,-187500.02235174447,-187500.02235174447,-187500.02235174447,-187500.02235174447,1730411796.1857042,1730411795.5660644,2000
-4829.452017480376,-187500.02235174447,18225.299504435006,-187500.02235174447,-187500.02235174447,-187500.02235174447,-187500.02235174447,-187500.02235174447,1730411796.1898491,1730411795.5660644,2000
-4862.554951018686,-187500.02235174447,18263.297470009027,-187500.02235174447,-187500.02235174447,-187500.02235174447,-187500.02235174447,-187500.02235174447,1730411796.1947384,1730411795.5660644,2000
-4805.37918870201,-187500.02235174447,18232.720283594168,-187500.02235174447,-187500.02235174447,-187500.02235174447,-187500.02235174447,-187500.02235174447,1730411796.1987774,1730411795.5660644,2000
-4749.388068841466,-187500.02235174447,18165.530939761516,-187500.02235174447,-187500.02235174447,-187500.02235174447,-187500.02235174447,-187500.02235174447,1730411796.2018285,1730411795.5660644,2000
-4776.388976143477,-187500.02235174447,18197.091602932407,-187500.02235174447,-187500.02235174447,-187500.02235174447,-187500.02235174447,-187500.02235174447,1730411796.2059276,1730411795.5660644,2000
-4708.976114866271,-187500.02235174447,18216.336454908425,-187500.02235174447,-187500.02235174447,-187500.02235174447,-187500.02235174447,-187500.02235174447,1730411796.2098815,1730411795.5660644,2000
-4783.541534369175,-187500.02235174447,18207.351053637394,-187500.02235174447,-187500.02235174447,-187500.02235174447,-187500.02235174447,-187500.02235174447,1730411796.213908,1730411795.5660644,2000
-4878.514096559775,-187500.02235174447,18188.68734701721,-187500.02235174447,-187500.02235174447,-187500.02235174447,-187500.02235174447,-187500.02235174447,1730411796.217935,1730411795.5660644,2000
-4778.244170933267,-187500.02235174447,18168.995460152088,-187500.02235174447,-187500.02235174447,-187500.02235174447,-187500.02235174447,-187500.02235174447,1730411796.2220182,1730411795.5660644,2000
-4796.9972845312695,-187500.02235174447,18152.052837854964,-187500.02235174447,-187500.02235174447,-187500.02235174447,-187500.02235174447,-187500.02235174447,1730411796.2268832,1730411795.5660644,2000
-4921.11652149159,-187500.02235174447,18134.9314016022,-187500.02235174447,-187500.02235174447,-187500.02235174447,-187500.02235174447,-187500.02235174447,1730411796.2298253,1730411795.5660644,2000
-4752.919644465404,-187500.02235174447,18229.05459750349,-187500.02235174447,-187500.02235174447,-187500.02235174447,-187500.02235174447,-187500.02235174447,1730411796.2338257,1730411795.5660644,2000
-4816.175081273924,-187500.02235174447,18246.935993067746,-187500.02235174447,-187500.02235174447,-187500.02235174447,-187500.02235174447,-187500.02235174447,1730411796.2378316,1730411795.5660644,2000
-4848.71922120085,-187500.02235174447,18210.1003182054,-187500.02235174447,-187500.02235174447,-187500.02235174447,-187500.02235174447,-187500.02235174447,1730411796.242002,1730411795.5660644,2000
-4828.110912813057,-187500.02235174447,18160.993535637088,-187500.02235174447,-187500.02235174447,-187500.02235174447,-187500.02235174447,-187500.02235174447,1730411796.2459247,1730411795.5660644,2000
-4878.089413415124,-187500.02235174447,18074.53698808396,-187500.02235174447,-187500.02235174447,-187500.02235174447,-187500.02235174447,-187500.02235174447,1730411796.2508676,1730411795.5660644,2000
-4840.247910052289,-187500.02235174447,18139.245288282076,-187500.02235174447,-187500.02235174447,-187500.02235174447,-187500.02235174447,-187500.02235174447,1730411796.2539406,1730411795.5660644,2000
-4801.199412488868,-187500.02235174447,18275.47917073717,-187500.02235174447,-187500.02235174447,-187500.02235174447,-187500.02235174447,-187500.02235174447,1730411796.2568812,1730411795.5660644,2000
-4839.532654229719,-187500.02235174447,18235.76012084009,-187500.02235174447,-187500.02235174447,-187500.02235174447,-187500.02235174447,-187500.02235174447,1730411796.2618656,1730411795.5660644,2000
-4761.502714336242,-187500.02235174447,18203.104222190887,-187500.02235174447,-187500.02235174447,-187500.02235174447,-187500.02235174447,-187500.02235174447,1730411796.266013,1730411795.5660644,2000
-4795.030331019203,-187500.02235174447,18242.04096103203,-187500.02235174447,-187500.02235174447,-187500.02235174447,-187500.02235174447,-187500.02235174447,1730411796.2698927,1730411795.5660644,2000
-4823.7076191553615,-187500.02235174447,18221.99144625562,-187500.02235174447,-187500.02235174447,-187500.02235174447,-187500.02235174447,-187500.02235174447,1730411796.2740705,1730411795.5660644,2000
-4793.085729251591,-187500.02235174447,18195.571684309445,-187500.02235174447,-187500.02235174447,-187500.02235174447,-187500.02235174447,-187500.02235174447,1730411796.277908,1730411795.5660644,2000
-4752.919644465404,-187500.02235174447,18182.65237601428,-187500.02235174447,-187500.02235174447,-187500.02235174447,-187500.02235174447,-187500.02235174447,1730411796.2819822,1730411795.5660644,2000
-4796.349083942066,-187500.02235174447,18199.863219244864,-187500.02235174447,-187500.02235174447,-187500.02235174447,-187500.02235174447,-187500.02235174447,1730411796.2850287,1730411795.5660644,2000
-4806.943810813882,-187500.02235174447,18212.335492650927,-187500.02235174447,-187500.02235174447,-187500.02235174447,-187500.02235174447,-187500.02235174447,1730411796.2899463,1730411795.5660644,2000
-4836.045782094691,-187500.02235174447,18238.79995808601,-187500.02235174447,-187500.02235174447,-187500.02235174447,-187500.02235174447,-187500.02235174447,1730411796.2940135,1730411795.5660644,2000
-4880.928084960948,-187500.02235174447,18215.01770198556,-187500.02235174447,-187500.02235174447,-187500.02235174447,-187500.02235174447,-187500.02235174447,1730411796.2980883,1730411795.5660644,2000
-4831.91070937046,-187500.02235174447,18177.310309089466,-187500.02235174447,-187500.02235174447,-187500.02235174447,-187500.02235174447,-187500.02235174447,1730411796.301964,1730411795.5660644,2000
-4819.863119109049,-187500.02235174447,18110.00920653453,-187500.02235174447,-187500.02235174447,-187500.02235174447,-187500.02235174447,-187500.02235174447,1730411796.3060062,1730411795.5660644,2000
-4804.149842756969,-187500.02235174447,18129.96931433312,-187500.02235174447,-187500.02235174447,-187500.02235174447,-187500.02235174447,-187500.02235174447,1730411796.31093,1730411795.5660644,2000
-4749.946862452849,-187500.02235174447,18138.887660370787,-187500.02235174447,-187500.02235174447,-187500.02235174447,-187500.02235174447,-187500.02235174447,1730411796.3141277,1730411795.5660644,2000
-4826.546290701186,-187500.02235174447,18137.6806661702,-187500.02235174447,-187500.02235174447,-187500.02235174447,-187500.02235174447,-187500.02235174447,1730411796.317073,1730411795.5660644,2000
-4795.723235097317,-187500.02235174447,18202.00898671257,-187500.02235174447,-187500.02235174447,-187500.02235174447,-187500.02235174447,-187500.02235174447,1730411796.3219633,1730411795.5660644,2000
-4799.008941532247,-187500.02235174447,18211.776699039543,-187500.02235174447,-187500.02235174447,-187500.02235174447,-187500.02235174447,-187500.02235174447,1730411796.3259408,1730411795.5660644,2000
-4832.648316937485,-187500.02235174447,18180.6407190133,-187500.02235174447,-187500.02235174447,-187500.02235174447,-187500.02235174447,-187500.02235174447,1730411796.330128,1730411795.5660644,2000
-4634.902433741383,-187500.02235174447,18192.107163918878,-187500.02235174447,-187500.02235174447,-187500.02235174447,-187500.02235174447,-187500.02235174447,1730411796.334027,1730411795.5660644,2000
-4742.302565849133,-187500.02235174447,18244.11967326637,-187500.02235174447,-187500.02235174447,-187500.02235174447,-187500.02235174447,-187500.02235174447,1730411796.3371122,1730411795.5660644,2000
-4945.748143881338,-187500.02235174447,18216.96230375317,-187500.02235174447,-187500.02235174447,-187500.02235174447,-187500.02235174447,-187500.02235174447,1730411796.341267,1730411795.5660644,2000
-4819.371380731032,-187500.02235174447,18196.73397502112,-187500.02235174447,-187500.02235174447,-187500.02235174447,-187500.02235174447,-187500.02235174447,1730411796.3451216,1730411795.5660644,2000
-4704.751635164218,-187500.02235174447,18198.41035585527,-187500.02235174447,-187500.02235174447,-187500.02235174447,-187500.02235174447,-187500.02235174447,1730411796.3502104,1730411795.5660644,2000
-4884.459660584887,-187500.02235174447,18130.863384111333,-187500.02235174447,-187500.02235174447,-187500.02235174447,-187500.02235174447,-187500.02235174447,1730411796.3542316,1730411795.5660644,2000
-4896.440195612931,-187500.02235174447,18141.547517960968,-187500.02235174447,-187500.02235174447,-187500.02235174447,-187500.02235174447,-187500.02235174447,1730411796.3582091,1730411795.5660644,2000
-4821.293630754189,-187500.02235174447,18119.911029328232,-187500.02235174447,-187500.02235174447,-187500.02235174447,-187500.02235174447,-187500.02235174447,1730411796.3621109,1730411795.5660644,2000
-4816.912688840948,-187500.02235174447,18126.16951777572,-187500.02235174447,-187500.02235174447,-187500.02235174447,-187500.02235174447,-187500.02235174447,1730411796.3661296,1730411795.5660644,2000
-4821.248927265278,-187500.02235174447,18109.62922687879,-187500.02235174447,-187500.02235174447,-187500.02235174447,-187500.02235174447,-187500.02235174447,1730411796.3691049,1730411795.5660644,2000
-4708.21615555479,-187500.02235174447,18133.612648679336,-187500.02235174447,-187500.02235174447,-187500.02235174447,-187500.02235174447,-187500.02235174447,1730411796.373134,1730411795.5660644,2000
-4551.016336800616,-187500.02235174447,18187.68151851672,-187500.02235174447,-187500.02235174447,-187500.02235174447,-187500.02235174447,-187500.02235174447,1730411796.37802,1730411795.5660644,2000
-4744.001298427737,-187500.02235174447,18157.908994902253,-187500.02235174447,-187500.02235174447,-187500.02235174447,-187500.02235174447,-187500.02235174447,1730411796.3821232,1730411795.5660644,2000
-5010.568202801729,-187500.02235174447,18138.17240454822,-187500.02235174447,-187500.02235174447,-187500.02235174447,-187500.02235174447,-187500.02235174447,1730411796.3861265,1730411795.5660644,2000
-4978.180525085989,-187500.02235174447,18101.82846806389,-187500.02235174447,-187500.02235174447,-187500.02235174447,-187500.02235174447,-187500.02235174447,1730411796.3891463,1730411795.5660644,2000
-4861.973805662848,-187500.02235174447,18102.58842737537,-187500.02235174447,-187500.02235174447,-187500.02235174447,-187500.02235174447,-187500.02235174447,1730411796.3931608,1730411795.5660644,2000
-4736.021725657192,-187500.02235174447,18228.11582423637,-187500.02235174447,-187500.02235174447,-187500.02235174447,-187500.02235174447,-187500.02235174447,1730411796.3972368,1730411795.5660644,2000
-4847.311061300166,-187500.02235174447,18124.694302641667,-187500.02235174447,-187500.02235174447,-187500.02235174447,-187500.02235174447,-187500.02235174447,1730411796.4011936,1730411795.5660644,2000
-4840.851407152582,-187500.02235174447,17949.367219134238,-187500.02235174447,-187500.02235174447,-187500.02235174447,-187500.02235174447,-187500.02235174447,1730411796.4061255,1730411795.5660644,2000
-4834.86113963856,-187500.02235174447,17946.573251077327,-187500.02235174447,-187500.02235174447,-187500.02235174447,-187500.02235174447,-187500.02235174447,1730411796.4101243,1730411795.5660644,2000
-4849.322718301144,-187500.02235174447,18053.839272718345,-187500.02235174447,-187500.02235174447,-187500.02235174447,-187500.02235174447,-187500.02235174447,1730411796.4142394,1730411795.5660644,2000
-4730.322030821089,-187500.02235174447,18251.51810068108,-187500.02235174447,-187500.02235174447,-187500.02235174447,-187500.02235174447,-187500.02235174447,1730411796.4172392,1730411795.5660644,2000
-4911.549974864719,-187500.02235174447,18201.964283223664,-187500.02235174447,-187500.02235174447,-187500.02235174447,-187500.02235174447,-187500.02235174447,1730411796.4213085,1730411795.5660644,2000
-4820.600726676074,-187500.02235174447,18307.91155194182,-187500.02235174447,-187500.02235174447,-187500.02235174447,-187500.02235174447,-187500.02235174447,1730411796.4253747,1730411795.5660644,2000
-4762.79911551465,-187500.02235174447,18294.455801779724,-187500.02235174447,-187500.02235174447,-187500.02235174447,-187500.02235174447,-187500.02235174447,1730411796.4293623,1730411795.5660644,2000
-4742.682545504874,-187500.02235174447,18187.390945838804,-187500.02235174447,-187500.02235174447,-187500.02235174447,-187500.02235174447,-187500.02235174447,1730411796.4333065,1730411795.5660644,2000
-4683.897457587416,-187500.02235174447,18151.650506454767,-187500.02235174447,-187500.02235174447,-187500.02235174447,-187500.02235174447,-187500.02235174447,1730411796.4386451,1730411795.5660644,2000
-4674.979111549748,-187500.02235174447,18089.91498826921,-187500.02235174447,-187500.02235174447,-187500.02235174447,-187500.02235174447,-187500.02235174447,1730411796.4428916,1730411795.5660644,2000
-4752.718478765307,-187500.02235174447,18025.69842644911,-187500.02235174447,-187500.02235174447,-187500.02235174447,-187500.02235174447,-187500.02235174447,1730411796.4452293,1730411795.5660644,2000
-4943.3341554801655,-187500.02235174447,18104.26480820952,-187500.02235174447,-187500.02235174447,-187500.02235174447,-187500.02235174447,-187500.02235174447,1730411796.4496884,1730411795.5660644,2000
-4840.024392607736,-187500.02235174447,18259.318859495983,-187500.02235174447,-187500.02235174447,-187500.02235174447,-187500.02235174447,-187500.02235174447,1730411796.4532208,1730411795.5660644,2000
-4833.095351826591,-187500.02235174447,18284.017537119096,-187500.02235174447,-187500.02235174447,-187500.02235174447,-187500.02235174447,-187500.02235174447,1730411796.4576263,1730411795.5660644,2000
-4831.262508781256,-187500.02235174447,18233.99433302812,-187500.02235174447,-187500.02235174447,-187500.02235174447,-187500.02235174447,-187500.02235174447,1730411796.4613545,1730411795.5660644,2000
-4829.496720969287,-187500.02235174447,18141.547517960968,-187500.02235174447,-187500.02235174447,-187500.02235174447,-187500.02235174447,-187500.02235174447,1730411796.46656,1730411795.5660644,2000
-4707.277382287667,-187500.02235174447,18038.394217299727,-187500.02235174447,-187500.02235174447,-187500.02235174447,-187500.02235174447,-187500.02235174447,1730411796.470289,1730411795.5660644,2000
-4762.75441202574,-187500.02235174447,18051.447636061625,-187500.02235174447,-187500.02235174447,-187500.02235174447,-187500.02235174447,-187500.02235174447,1730411796.4734735,1730411795.5660644,2000
-4822.657087165962,-187500.02235174447,18219.532754365537,-187500.02235174447,-187500.02235174447,-187500.02235174447,-187500.02235174447,-187500.02235174447,1730411796.4776132,1730411795.5660644,2000
-4782.982740757792,-187500.02235174447,18218.482222376137,-187500.02235174447,-187500.02235174447,-187500.02235174447,-187500.02235174447,-187500.02235174447,1730411796.4817286,1730411795.5660644,2000
-4811.212994004845,-187500.02235174447,18165.93327116171,-187500.02235174447,-187500.02235174447,-187500.02235174447,-187500.02235174447,-187500.02235174447,1730411796.485483,1730411795.5660644,2000
-4817.203261518867,-187500.02235174447,18113.898410069756,-187500.02235174447,-187500.02235174447,-187500.02235174447,-187500.02235174447,-187500.02235174447,1730411796.4897206,1730411795.5660644,2000
-4789.889429794483,-187500.02235174447,18185.80397198248,-187500.02235174447,-187500.02235174447,-187500.02235174447,-187500.02235174447,-187500.02235174447,1730411796.494496,1730411795.5660644,2000
-4777.059528477136,-187500.02235174447,18144.810872651444,-187500.02235174447,-187500.02235174447,-187500.02235174447,-187500.02235174447,-187500.02235174447,1730411796.497625,1730411795.5660644,2000
-4760.2733683912,-187500.02235174447,18147.515433730536,-187500.02235174447,-187500.02235174447,-187500.02235174447,-187500.02235174447,-187500.02235174447,1730411796.5017667,1730411795.5660644,2000
-4740.000336170237,-187500.02235174447,18149.191814564685,-187500.02235174447,-187500.02235174447,-187500.02235174447,-187500.02235174447,-187500.02235174447,1730411796.5060632,1730411795.5660644,2000
-4725.024667385182,-187500.02235174447,18128.69526489917,-187500.02235174447,-187500.02235174447,-187500.02235174447,-187500.02235174447,-187500.02235174447,1730411796.509833,1730411795.5660644,2000
-4782.42394714641,-187500.02235174447,18147.716599430634,-187500.02235174447,-187500.02235174447,-187500.02235174447,-187500.02235174447,-187500.02235174447,1730411796.51344,1730411795.5660644,2000
-4869.863971455571,-187500.02235174447,18137.6806661702,-187500.02235174447,-187500.02235174447,-187500.02235174447,-187500.02235174447,-187500.02235174447,1730411796.5175765,1730411795.5660644,2000
-4856.877607927037,-187500.02235174447,18188.240312128102,-187500.02235174447,-187500.02235174447,-187500.02235174447,-187500.02235174447,-187500.02235174447,1730411796.5226943,1730411795.5660644,2000
-4796.259676964245,-187500.02235174447,18260.05646706301,-187500.02235174447,-187500.02235174447,-187500.02235174447,-187500.02235174447,-187500.02235174447,1730411796.525584,1730411795.5660644,2000
-4813.492871939287,-187500.02235174447,18212.8495827734,-187500.02235174447,-187500.02235174447,-187500.02235174447,-187500.02235174447,-187500.02235174447,1730411796.5293553,1730411795.5660644,2000
-4766.196580671857,-187500.02235174447,18152.36576227734,-187500.02235174447,-187500.02235174447,-187500.02235174447,-187500.02235174447,-187500.02235174447,1730411796.5333972,1730411795.5660644,2000
-4765.749545782751,-187500.02235174447,18115.641846137267,-187500.02235174447,-187500.02235174447,-187500.02235174447,-187500.02235174447,-187500.02235174447,1730411796.5375466,1730411795.5660644,2000
-4806.250906735767,-187500.02235174447,18150.10823608735,-187500.02235174447,-187500.02235174447,-187500.02235174447,-187500.02235174447,-187500.02235174447,1730411796.5418108,1730411795.5660644,2000
-4784.457955891843,-187500.02235174447,18217.00700724209,-187500.02235174447,-187500.02235174447,-187500.02235174447,-187500.02235174447,-187500.02235174447,1730411796.545411,1730411795.5660644,2000
-4757.65821428993,-187500.02235174447,18196.30929187647,-187500.02235174447,-187500.02235174447,-187500.02235174447,-187500.02235174447,-187500.02235174447,1730411796.5505724,1730411795.5660644,2000
-4783.049795991158,-187500.02235174447,18179.27726260153,-187500.02235174447,-187500.02235174447,-187500.02235174447,-187500.02235174447,-187500.02235174447,1730411796.553379,1730411795.5660644,2000
-4773.639711575474,-187500.02235174447,18191.25779762957,-187500.02235174447,-187500.02235174447,-187500.02235174447,-187500.02235174447,-187500.02235174447,1730411796.556768,1730411795.5660644,2000
-4750.282138619678,-187500.02235174447,18159.36185829185,-187500.02235174447,-187500.02235174447,-187500.02235174447,-187500.02235174447,-187500.02235174447,1730411796.5613508,1730411795.5660644,2000
-4764.3637376265215,-187500.02235174447,18152.72339018862,-187500.02235174447,-187500.02235174447,-187500.02235174447,-187500.02235174447,-187500.02235174447,1730411796.5658476,1730411795.5660644,2000
-4790.068243750125,-187500.02235174447,18135.847823124863,-187500.02235174447,-187500.02235174447,-187500.02235174447,-187500.02235174447,-187500.02235174447,1730411796.5696027,1730411795.5660644,2000
-4845.209997321367,-187500.02235174447,18116.759433360032,-187500.02235174447,-187500.02235174447,-187500.02235174447,-187500.02235174447,-187500.02235174447,1730411796.575589,1730411795.5660644,2000
-4783.89916228046,-187500.02235174447,18153.058666355453,-187500.02235174447,-187500.02235174447,-187500.02235174447,-187500.02235174447,-187500.02235174447,1730411796.5785592,1730411795.5660644,2000
-4662.775059077151,-187500.02235174447,18169.17427410773,-187500.02235174447,-187500.02235174447,-187500.02235174447,-187500.02235174447,-187500.02235174447,1730411796.581596,1730411795.5660644,2000
-4656.047183996104,-187500.02235174447,18220.38212065484,-187500.02235174447,-187500.02235174447,-187500.02235174447,-187500.02235174447,-187500.02235174447,1730411796.584524,1730411795.5660644,2000
-4834.905843127471,-187500.02235174447,18239.69402786422,-187500.02235174447,-187500.02235174447,-187500.02235174447,-187500.02235174447,-187500.02235174447,1730411796.5896213,1730411795.5660644,2000
-4830.413142491954,-187500.02235174447,18211.21790542816,-187500.02235174447,-187500.02235174447,-187500.02235174447,-187500.02235174447,-187500.02235174447,1730411796.5938413,1730411795.5660644,2000
-4774.310263909133,-187500.02235174447,18140.1840615492,-187500.02235174447,-187500.02235174447,-187500.02235174447,-187500.02235174447,-187500.02235174447,1730411796.597633,1730411795.5660644,2000
-4777.730080810796,-187500.02235174447,18153.863329155844,-187500.02235174447,-187500.02235174447,-187500.02235174447,-187500.02235174447,-187500.02235174447,1730411796.601632,1730411795.5660644,2000
-4838.795046662694,-187500.02235174447,18189.000271439585,-187500.02235174447,-187500.02235174447,-187500.02235174447,-187500.02235174447,-187500.02235174447,1730411796.6060207,1730411795.5660644,2000
-4859.984500406325,-187500.02235174447,18147.806006408457,-187500.02235174447,-187500.02235174447,-187500.02235174447,-187500.02235174447,-187500.02235174447,1730411796.610108,1730411795.5660644,2000
-4829.742590158295,-187500.02235174447,18123.59906716336,-187500.02235174447,-187500.02235174447,-187500.02235174447,-187500.02235174447,-187500.02235174447,1730411796.6128027,1730411795.5660644,2000
-4782.200429701857,-187500.02235174447,18151.31523028794,-187500.02235174447,-187500.02235174447,-187500.02235174447,-187500.02235174447,-187500.02235174447,1730411796.6169508,1730411795.5660644,2000
-4781.261656434734,-187500.02235174447,18178.182027123217,-187500.02235174447,-187500.02235174447,-187500.02235174447,-187500.02235174447,-187500.02235174447,1730411796.6221037,1730411795.5660644,2000
-4708.1267485769695,-187500.02235174447,18162.15582634876,-187500.02235174447,-187500.02235174447,-187500.02235174447,-187500.02235174447,-187500.02235174447,1730411796.6261013,1730411795.5660644,2000
-4745.096533906047,-187500.02235174447,18219.488050876625,-187500.02235174447,-187500.02235174447,-187500.02235174447,-187500.02235174447,-187500.02235174447,1730411796.6297824,1730411795.5660644,2000
-4834.6823256829175,-187500.02235174447,18236.765949340577,-187500.02235174447,-187500.02235174447,-187500.02235174447,-187500.02235174447,-187500.02235174447,1730411796.6331975,1730411795.5660644,2000
-4793.085729251591,-187500.02235174447,18200.489068089613,-187500.02235174447,-187500.02235174447,-187500.02235174447,-187500.02235174447,-187500.02235174447,1730411796.6365254,1730411795.5660644,2000
-4800.305342710655,-187500.02235174447,18192.107163918878,-187500.02235174447,-187500.02235174447,-187500.02235174447,-187500.02235174447,-187500.02235174447,1730411796.64115,1730411795.5660644,2000
-4782.647464590963,-187500.02235174447,18155.562061734447,-187500.02235174447,-187500.02235174447,-187500.02235174447,-187500.02235174447,-187500.02235174447,1730411796.644606,1730411795.5660644,2000
-4719.436731271355,-187500.02235174447,18174.40458231027,-187500.02235174447,-187500.02235174447,-187500.02235174447,-187500.02235174447,-187500.02235174447,1730411796.6499288,1730411795.5660644,2000
-4786.111984981535,-187500.02235174447,18177.287957345005,-187500.02235174447,-187500.02235174447,-187500.02235174447,-187500.02235174447,-187500.02235174447,1730411796.6536276,1730411795.5660644,2000
-4767.113002194525,-187500.02235174447,18189.648472028788,-187500.02235174447,-187500.02235174447,-187500.02235174447,-187500.02235174447,-187500.02235174447,1730411796.6580994,1730411795.5660644,2000
-4764.699013793351,-187500.02235174447,18184.909902204265,-187500.02235174447,-187500.02235174447,-187500.02235174447,-187500.02235174447,-187500.02235174447,1730411796.6608827,1730411795.5660644,2000
-4781.4404703903765,-187500.02235174447,18119.285180483483,-187500.02235174447,-187500.02235174447,-187500.02235174447,-187500.02235174447,-187500.02235174447,1730411796.665092,1730411795.5660644,2000
-4858.263416083267,-187500.02235174447,18113.652540880747,-187500.02235174447,-187500.02235174447,-187500.02235174447,-187500.02235174447,-187500.02235174447,1730411796.6689093,1730411795.5660644,2000
-4813.090540539091,-187500.02235174447,18224.785414312533,-187500.02235174447,-187500.02235174447,-187500.02235174447,-187500.02235174447,-187500.02235174447,1730411796.6733832,1730411795.5660644,2000
-4732.132522121969,-187500.02235174447,18228.473452147657,-187500.02235174447,-187500.02235174447,-187500.02235174447,-187500.02235174447,-187500.02235174447,1730411796.6775625,1730411795.5660644,2000
-4717.3133155481,-187500.02235174447,18232.876745805355,-187500.02235174447,-187500.02235174447,-187500.02235174447,-187500.02235174447,-187500.02235174447,1730411796.6819897,1730411795.5660644,2000
-4788.99536001627,-187500.02235174447,18180.97599518013,-187500.02235174447,-187500.02235174447,-187500.02235174447,-187500.02235174447,-187500.02235174447,1730411796.685868,1730411795.5660644,2000
-4774.153801697946,-187500.02235174447,18138.01594233703,-187500.02235174447,-187500.02235174447,-187500.02235174447,-187500.02235174447,-187500.02235174447,1730411796.6886756,1730411795.5660644,2000
-4808.217860247834,-187500.02235174447,18152.611631466345,-187500.02235174447,-187500.02235174447,-187500.02235174447,-187500.02235174447,-187500.02235174447,1730411796.69276,1730411795.5660644,2000
-4784.055624491647,-187500.02235174447,18214.347149651905,-187500.02235174447,-187500.02235174447,-187500.02235174447,-187500.02235174447,-187500.02235174447,1730411796.696773,1730411795.5660644,2000
-4773.013862730725,-187500.02235174447,18204.467678602658,-187500.02235174447,-187500.02235174447,-187500.02235174447,-187500.02235174447,-187500.02235174447,1730411796.7007742,1730411795.5660644,2000
-4783.765051813728,-187500.02235174447,18213.9001147628,-187500.02235174447,-187500.02235174447,-187500.02235174447,-187500.02235174447,-187500.02235174447,1730411796.7056446,1730411795.5660644,2000
-4763.357909126033,-187500.02235174447,18206.546390837,-187500.02235174447,-187500.02235174447,-187500.02235174447,-187500.02235174447,-187500.02235174447,1730411796.7096584,1730411795.5660644,2000
-4751.779705498184,-187500.02235174447,18200.734937278623,-187500.02235174447,-187500.02235174447,-187500.02235174447,-187500.02235174447,-187500.02235174447,1730411796.71277,1730411795.5660644,2000
-4741.8778827044825,-187500.02235174447,18216.917600264263,-187500.02235174447,-187500.02235174447,-187500.02235174447,-187500.02235174447,-187500.02235174447,1730411796.7166812,1730411795.5660644,2000
-4756.406516600432,-187500.02235174447,18214.45890837418,-187500.02235174447,-187500.02235174447,-187500.02235174447,-187500.02235174447,-187500.02235174447,1730411796.7207208,1730411795.5660644,2000
-4813.984610317303,-187500.02235174447,18178.69611724569,-187500.02235174447,-187500.02235174447,-187500.02235174447,-187500.02235174447,-187500.02235174447,1730411796.724806,1730411795.5660644,2000
-4802.406406689454,-187500.02235174447,18216.47056537516,-187500.02235174447,-187500.02235174447,-187500.02235174447,-187500.02235174447,-187500.02235174447,1730411796.7306004,1730411795.5660644,2000
-4752.137333409469,-187500.02235174447,18236.676542362755,-187500.02235174447,-187500.02235174447,-187500.02235174447,-187500.02235174447,-187500.02235174447,1730411796.7335892,1730411795.5660644,2000
-4750.192731641857,-187500.02235174447,18222.70670207819,-187500.02235174447,-187500.02235174447,-187500.02235174447,-187500.02235174447,-187500.02235174447,1730411796.7376552,1730411795.5660644,2000
-4763.983757970781,-187500.02235174447,18198.07507968844,-187500.02235174447,-187500.02235174447,-187500.02235174447,-187500.02235174447,-187500.02235174447,1730411796.7409377,1730411795.5660644,2000
-4798.226630476312,-187500.02235174447,18199.08090818893,-187500.02235174447,-187500.02235174447,-187500.02235174447,-187500.02235174447,-187500.02235174447,1730411796.744664,1730411795.5660644,2000
-4776.947769754859,-187500.02235174447,18203.32773963544,-187500.02235174447,-187500.02235174447,-187500.02235174447,-187500.02235174447,-187500.02235174447,1730411796.749133,1730411795.5660644,2000
-4757.591159056564,-187500.02235174447,18191.928349963237,-187500.02235174447,-187500.02235174447,-187500.02235174447,-187500.02235174447,-187500.02235174447,1730411796.752643,1730411795.5660644,2000
-4772.924455752905,-187500.02235174447,18177.82439921193,-187500.02235174447,-187500.02235174447,-187500.02235174447,-187500.02235174447,-187500.02235174447,1730411796.7571876,1730411795.5660644,2000
-4775.539609854175,-187500.02235174447,18171.588262508903,-187500.02235174447,-187500.02235174447,-187500.02235174447,-187500.02235174447,-187500.02235174447,1730411796.7607412,1730411795.5660644,2000
-4766.531856838687,-187500.02235174447,18150.912898887746,-187500.02235174447,-187500.02235174447,-187500.02235174447,-187500.02235174447,-187500.02235174447,1730411796.766093,1730411795.5660644,2000
-4708.193803810335,-187500.02235174447,18172.482332287116,-187500.02235174447,-187500.02235174447,-187500.02235174447,-187500.02235174447,-187500.02235174447,1730411796.7689192,1730411795.5660644,2000
-4786.42490940391,-187500.02235174447,18172.795256709487,-187500.02235174447,-187500.02235174447,-187500.02235174447,-187500.02235174447,-187500.02235174447,1730411796.7728727,1730411795.5660644,2000
-4781.75339481275,-187500.02235174447,18251.786321614545,-187500.02235174447,-187500.02235174447,-187500.02235174447,-187500.02235174447,-187500.02235174447,1730411796.777234,1730411795.5660644,2000
-4644.021945479149,-187500.02235174447,18289.76193544411,-187500.02235174447,-187500.02235174447,-187500.02235174447,-187500.02235174447,-187500.02235174447,1730411796.781198,1730411795.5660644,2000
-4777.283045921689,-187500.02235174447,18203.97594022464,-187500.02235174447,-187500.02235174447,-187500.02235174447,-187500.02235174447,-187500.02235174447,1730411796.7851183,1730411795.5660644,2000
-4815.057494051158,-187500.02235174447,18224.96422826817,-187500.02235174447,-187500.02235174447,-187500.02235174447,-187500.02235174447,-187500.02235174447,1730411796.789314,1730411795.5660644,2000
-4788.324807682611,-187500.02235174447,18239.44815867521,-187500.02235174447,-187500.02235174447,-187500.02235174447,-187500.02235174447,-187500.02235174447,1730411796.7940044,1730411795.5660644,2000
-4794.4715374078205,-187500.02235174447,18205.54056233651,-187500.02235174447,-187500.02235174447,-187500.02235174447,-187500.02235174447,-187500.02235174447,1730411796.7973113,1730411795.5660644,2000
-4737.809865213617,-187500.02235174447,18175.87979744432,-187500.02235174447,-187500.02235174447,-187500.02235174447,-187500.02235174447,-187500.02235174447,1730411796.800959,1730411795.5660644,2000
-4710.78660616715,-187500.02235174447,18152.142244832783,-187500.02235174447,-187500.02235174447,-187500.02235174447,-187500.02235174447,-187500.02235174447,1730411796.8049524,1730411795.5660644,2000
-4774.757298798239,-187500.02235174447,18197.96332096616,-187500.02235174447,-187500.02235174447,-187500.02235174447,-187500.02235174447,-187500.02235174447,1730411796.808818,1730411795.5660644,2000
-4755.154818910935,-187500.02235174447,18217.252876431096,-187500.02235174447,-187500.02235174447,-187500.02235174447,-187500.02235174447,-187500.02235174447,1730411796.8129551,1730411795.5660644,2000
-4781.060490734636,-187500.02235174447,18182.205341125173,-187500.02235174447,-187500.02235174447,-187500.02235174447,-187500.02235174447,-187500.02235174447,1730411796.8178475,1730411795.5660644,2000
-4744.023650172192,-187500.02235174447,18179.187855623702,-187500.02235174447,-187500.02235174447,-187500.02235174447,-187500.02235174447,-187500.02235174447,1730411796.82084,1730411795.5660644,2000
-4726.321068563589,-187500.02235174447,18278.13902832735,-187500.02235174447,-187500.02235174447,-187500.02235174447,-187500.02235174447,-187500.02235174447,1730411796.8240323,1730411795.5660644,2000
-4763.223798659301,-187500.02235174447,18297.965025659207,-187500.02235174447,-187500.02235174447,-187500.02235174447,-187500.02235174447,-187500.02235174447,1730411796.828792,1730411795.5660644,2000
-4803.18871774539,-187500.02235174447,18243.13619651034,-187500.02235174447,-187500.02235174447,-187500.02235174447,-187500.02235174447,-187500.02235174447,1730411796.8328123,1730411795.5660644,2000
-4771.337481896578,-187500.02235174447,18174.516341032548,-187500.02235174447,-187500.02235174447,-187500.02235174447,-187500.02235174447,-187500.02235174447,1730411796.8368304,1730411795.5660644,2000
-4736.871091946494,-187500.02235174447,18178.40554456777,-187500.02235174447,-187500.02235174447,-187500.02235174447,-187500.02235174447,-187500.02235174447,1730411796.8410254,1730411795.5660644,2000
-4745.029478672681,-187500.02235174447,18177.26560560055,-187500.02235174447,-187500.02235174447,-187500.02235174447,-187500.02235174447,-187500.02235174447,1730411796.8459284,1730411795.5660644,2000
-4750.03626943067,-187500.02235174447,18152.27635529952,-187500.02235174447,-187500.02235174447,-187500.02235174447,-187500.02235174447,-187500.02235174447,1730411796.8490603,1730411795.5660644,2000
-4730.098513376536,-187500.02235174447,18196.957492465677,-187500.02235174447,-187500.02235174447,-187500.02235174447,-187500.02235174447,-187500.02235174447,1730411796.852029,1730411795.5660644,2000
-4764.341385882066,-187500.02235174447,18198.20919015517,-187500.02235174447,-187500.02235174447,-187500.02235174447,-187500.02235174447,-187500.02235174447,1730411796.857045,1730411795.5660644,2000
-4782.759223313239,-187500.02235174447,18222.17026021126,-187500.02235174447,-187500.02235174447,-187500.02235174447,-187500.02235174447,-187500.02235174447,1730411796.8608525,1730411795.5660644,2000
-4727.46100753081,-187500.02235174447,18226.88647829133,-187500.02235174447,-187500.02235174447,-187500.02235174447,-187500.02235174447,-187500.02235174447,1730411796.865061,1730411795.5660644,2000
-4739.88857744796,-187500.02235174447,18196.86808548785,-187500.02235174447,-187500.02235174447,-187500.02235174447,-187500.02235174447,-187500.02235174447,1730411796.8690088,1730411795.5660644,2000
-4807.100273025068,-187500.02235174447,18176.706811989166,-187500.02235174447,-187500.02235174447,-187500.02235174447,-187500.02235174447,-187500.02235174447,1730411796.8730516,1730411795.5660644,2000
-4757.725269523296,-187500.02235174447,18206.926370492743,-187500.02235174447,-187500.02235174447,-187500.02235174447,-187500.02235174447,-187500.02235174447,1730411796.877138,1730411795.5660644,2000
-4753.523141565698,-187500.02235174447,18211.866106017365,-187500.02235174447,-187500.02235174447,-187500.02235174447,-187500.02235174447,-187500.02235174447,1730411796.8800695,1730411795.5660644,2000
-4743.88953970546,-187500.02235174447,18182.451210314182,-187500.02235174447,-187500.02235174447,-187500.02235174447,-187500.02235174447,-187500.02235174447,1730411796.884098,1730411795.5660644,2000
-4745.767086239706,-187500.02235174447,18194.36469010886,-187500.02235174447,-187500.02235174447,-187500.02235174447,-187500.02235174447,-187500.02235174447,1730411796.8891263,1730411795.5660644,2000
-4783.787403558184,-187500.02235174447,18226.484146891136,-187500.02235174447,-187500.02235174447,-187500.02235174447,-187500.02235174447,-187500.02235174447,1730411796.8930895,1730411795.5660644,2000
-4790.291761194678,-187500.02235174447,18212.782527540032,-187500.02235174447,-187500.02235174447,-187500.02235174447,-187500.02235174447,-187500.02235174447,1730411796.8971462,1730411795.5660644,2000
-4737.429885557876,-187500.02235174447,18187.480352816627,-187500.02235174447,-187500.02235174447,-187500.02235174447,-187500.02235174447,-187500.02235174447,1730411796.90095,1730411795.5660644,2000
-4757.479400334287,-187500.02235174447,18173.376402065325,-187500.02235174447,-187500.02235174447,-187500.02235174447,-187500.02235174447,-187500.02235174447,1730411796.905048,1730411795.5660644,2000
-4773.192676686368,-187500.02235174447,18181.93712019171,-187500.02235174447,-187500.02235174447,-187500.02235174447,-187500.02235174447,-187500.02235174447,1730411796.9081469,1730411795.5660644,2000
-4763.626130059496,-187500.02235174447,18200.667882045254,-187500.02235174447,-187500.02235174447,-187500.02235174447,-187500.02235174447,-187500.02235174447,1730411796.9119992,1730411795.5660644,2000
-4762.463839347821,-187500.02235174447,18210.88262926133,-187500.02235174447,-187500.02235174447,-187500.02235174447,-187500.02235174447,-187500.02235174447,1730411796.9170637,1730411795.5660644,2000
-4754.193693899357,-187500.02235174447,18216.8505450309,-187500.02235174447,-187500.02235174447,-187500.02235174447,-187500.02235174447,-187500.02235174447,1730411796.9211123,1730411795.5660644,2000
-4746.057658917625,-187500.02235174447,18224.76306256808,-187500.02235174447,-187500.02235174447,-187500.02235174447,-187500.02235174447,-187500.02235174447,1730411796.9252176,1730411795.5660644,2000
-4763.693185292863,-187500.02235174447,18222.684350333733,-187500.02235174447,-187500.02235174447,-187500.02235174447,-187500.02235174447,-187500.02235174447,1730411796.9291396,1730411795.5660644,2000
-4741.900234448938,-187500.02235174447,18220.337417165927,-187500.02235174447,-187500.02235174447,-187500.02235174447,-187500.02235174447,-187500.02235174447,1730411796.9331422,1730411795.5660644,2000
-4744.358926339022,-187500.02235174447,18147.537785474997,-187500.02235174447,-187500.02235174447,-187500.02235174447,-187500.02235174447,-187500.02235174447,1730411796.9360948,1730411795.5660644,2000
-4749.70099326384,-187500.02235174447,18169.82247469693,-187500.02235174447,-187500.02235174447,-187500.02235174447,-187500.02235174447,-187500.02235174447,1730411796.9401762,1730411795.5660644,2000
-4761.010975958226,-187500.02235174447,18228.205231214197,-187500.02235174447,-187500.02235174447,-187500.02235174447,-187500.02235174447,-187500.02235174447,1730411796.944956,1730411795.5660644,2000
-4739.84387395905,-187500.02235174447,18194.07411743094,-187500.02235174447,-187500.02235174447,-187500.02235174447,-187500.02235174447,-187500.02235174447,1730411796.949267,1730411795.5660644,2000
-4741.2967373486445,-187500.02235174447,18130.68457015569,-187500.02235174447,-187500.02235174447,-187500.02235174447,-187500.02235174447,-187500.02235174447,1730411796.9530349,1730411795.5660644,2000
-4731.5513767661305,-187500.02235174447,18198.41035585527,-187500.02235174447,-187500.02235174447,-187500.02235174447,-187500.02235174447,-187500.02235174447,1730411796.956529,1730411795.5660644,2000
-4766.531856838687,-187500.02235174447,18230.574516126457,-187500.02235174447,-187500.02235174447,-187500.02235174447,-187500.02235174447,-187500.02235174447,1730411796.9605758,1730411795.5660644,2000
-4782.669816335419,-187500.02235174447,18200.801992511988,-187500.02235174447,-187500.02235174447,-187500.02235174447,-187500.02235174447,-187500.02235174447,1730411796.9643383,1730411795.5660644,2000
-4751.757353753728,-187500.02235174447,18194.69996627569,-187500.02235174447,-187500.02235174447,-187500.02235174447,-187500.02235174447,-187500.02235174447,1730411796.9680493,1730411795.5660644,2000
-4761.301548636145,-187500.02235174447,18188.08384991692,-187500.02235174447,-187500.02235174447,-187500.02235174447,-187500.02235174447,-187500.02235174447,1730411796.9732113,1730411795.5660644,2000
-4755.17717065539,-187500.02235174447,18219.488050876625,-187500.02235174447,-187500.02235174447,-187500.02235174447,-187500.02235174447,-187500.02235174447,1730411796.9774172,1730411795.5660644,2000
-4758.619339301507,-187500.02235174447,18187.68151851672,-187500.02235174447,-187500.02235174447,-187500.02235174447,-187500.02235174447,-187500.02235174447,1730411796.9813704,1730411795.5660644,2000
-4744.4036298279325,-187500.02235174447,18136.18309929169,-187500.02235174447,-187500.02235174447,-187500.02235174447,-187500.02235174447,-187500.02235174447,1730411796.9841871,1730411795.5660644,2000
-4757.121772423002,-187500.02235174447,18172.862311942856,-187500.02235174447,-187500.02235174447,-187500.02235174447,-187500.02235174447,-187500.02235174447,1730411796.9882405,1730411795.5660644,2000
-4760.474534091298,-187500.02235174447,18226.12651897985,-187500.02235174447,-187500.02235174447,-187500.02235174447,-187500.02235174447,-187500.02235174447,1730411796.992238,1730411795.5660644,2000
-4770.80104002965,-187500.02235174447,18226.41709165777,-187500.02235174447,-187500.02235174447,-187500.02235174447,-187500.02235174447,-187500.02235174447,1730411796.9964209,1730411795.5660644,2000
-4751.287967120167,-187500.02235174447,18202.32191113495,-187500.02235174447,-187500.02235174447,-187500.02235174447,-187500.02235174447,-187500.02235174447,1730411797.0002077,1730411795.5660644,2000
-4755.981833455781,-187500.02235174447,18155.092675100885,-187500.02235174447,-187500.02235174447,-187500.02235174447,-187500.02235174447,-187500.02235174447,1730411797.005718,1730411795.5660644,2000
-4722.901251661927,-187500.02235174447,18186.519227805045,-187500.02235174447,-187500.02235174447,-187500.02235174447,-187500.02235174447,-187500.02235174447,1730411797.0097444,1730411795.5660644,2000
-4754.372507855,-187500.02235174447,18231.826213815955,-187500.02235174447,-187500.02235174447,-187500.02235174447,-187500.02235174447,-187500.02235174447,1730411797.012102,1730411795.5660644,2000
-4766.08482194958,-187500.02235174447,18217.968132253663,-187500.02235174447,-187500.02235174447,-187500.02235174447,-187500.02235174447,-187500.02235174447,1730411797.0161705,1730411795.5660644,2000
-4730.836120943561,-187500.02235174447,18207.41810887076,-187500.02235174447,-187500.02235174447,-187500.02235174447,-187500.02235174447,-187500.02235174447,1730411797.0202923,1730411795.5660644,2000
-4756.026536944692,-187500.02235174447,18202.65718730178,-187500.02235174447,-187500.02235174447,-187500.02235174447,-187500.02235174447,-187500.02235174447,1730411797.0245442,1730411795.5660644,2000
-4772.879752263993,-187500.02235174447,18179.07609690143,-187500.02235174447,-187500.02235174447,-187500.02235174447,-187500.02235174447,-187500.02235174447,1730411797.0282547,1730411795.5660644,2000
-4753.254920632234,-187500.02235174447,18164.100428116373,-187500.02235174447,-187500.02235174447,-187500.02235174447,-187500.02235174447,-187500.02235174447,1730411797.0333607,1730411795.5660644,2000
-4686.914943088883,-187500.02235174447,18214.83888802992,-187500.02235174447,-187500.02235174447,-187500.02235174447,-187500.02235174447,-187500.02235174447,1730411797.0372243,1730411795.5660644,2000
-4691.653512913408,-187500.02235174447,18211.396719383803,-187500.02235174447,-187500.02235174447,-187500.02235174447,-187500.02235174447,-187500.02235174447,1730411797.0406792,1730411795.5660644,2000
-4758.887560234972,-187500.02235174447,18200.17614366724,-187500.02235174447,-187500.02235174447,-187500.02235174447,-187500.02235174447,-187500.02235174447,1730411797.0441957,1730411795.5660644,2000
-4818.410255719454,-187500.02235174447,18169.487198530103,-187500.02235174447,-187500.02235174447,-187500.02235174447,-187500.02235174447,-187500.02235174447,1730411797.048662,1730411795.5660644,2000
-4768.565865584119,-187500.02235174447,18183.70290800368,-187500.02235174447,-187500.02235174447,-187500.02235174447,-187500.02235174447,-187500.02235174447,1730411797.0521774,1730411795.5660644,2000
-4706.115091575992,-187500.02235174447,18198.18683841072,-187500.02235174447,-187500.02235174447,-187500.02235174447,-187500.02235174447,-187500.02235174447,1730411797.056276,1730411795.5660644,2000
-4741.609661771019,-187500.02235174447,18192.82241974144,-187500.02235174447,-187500.02235174447,-187500.02235174447,-187500.02235174447,-187500.02235174447,1730411797.0611136,1730411795.5660644,2000
-4763.737888781773,-187500.02235174447,18187.43564932772,-187500.02235174447,-187500.02235174447,-187500.02235174447,-187500.02235174447,-187500.02235174447,1730411797.0643313,1730411795.5660644,2000
-4737.116961135503,-187500.02235174447,18182.65237601428,-187500.02235174447,-187500.02235174447,-187500.02235174447,-187500.02235174447,-187500.02235174447,1730411797.0681384,1730411795.5660644,2000
-4732.132522121969,-187500.02235174447,18217.02935898654,-187500.02235174447,-187500.02235174447,-187500.02235174447,-187500.02235174447,-187500.02235174447,1730411797.0722587,1730411795.5660644,2000
-4760.2510166467455,-187500.02235174447,18231.826213815955,-187500.02235174447,-187500.02235174447,-187500.02235174447,-187500.02235174447,-187500.02235174447,1730411797.076759,1730411795.5660644,2000
-4766.956539983337,-187500.02235174447,18179.992518424096,-187500.02235174447,-187500.02235174447,-187500.02235174447,-187500.02235174447,-187500.02235174447,1730411797.0809224,1730411795.5660644,2000
-4734.680620989874,-187500.02235174447,18148.87889014231,-187500.02235174447,-187500.02235174447,-187500.02235174447,-187500.02235174447,-187500.02235174447,1730411797.084313,1730411795.5660644,2000
-4738.815693714106,-187500.02235174447,18202.50072509059,-187500.02235174447,-187500.02235174447,-187500.02235174447,-187500.02235174447,-187500.02235174447,1730411797.0894463,1730411795.5660644,2000
-4757.211179400823,-187500.02235174447,18244.29848722201,-187500.02235174447,-187500.02235174447,-187500.02235174447,-187500.02235174447,-187500.02235174447,1730411797.092354,1730411795.5660644,2000
-4746.03530717317,-187500.02235174447,18211.32966415044,-187500.02235174447,-187500.02235174447,-187500.02235174447,-187500.02235174447,-187500.02235174447,1730411797.0952826,1730411795.5660644,2000
-4707.4114927544,-187500.02235174447,18178.986689923608,-187500.02235174447,-187500.02235174447,-187500.02235174447,-187500.02235174447,-187500.02235174447,1730411797.1003273,1730411795.5660644,2000
-4742.190807126857,-187500.02235174447,18200.533771578524,-187500.02235174447,-187500.02235174447,-187500.02235174447,-187500.02235174447,-187500.02235174447,1730411797.1042595,1730411795.5660644,2000
-4777.059528477136,-187500.02235174447,18206.36757688136,-187500.02235174447,-187500.02235174447,-187500.02235174447,-187500.02235174447,-187500.02235174447,1730411797.1084695,1730411795.5660644,2000
-4752.629071787485,-187500.02235174447,18201.65135880129,-187500.02235174447,-187500.02235174447,-187500.02235174447,-187500.02235174447,-187500.02235174447,1730411797.1123476,1730411795.5660644,2000
-4717.760350437206,-187500.02235174447,18195.25875988707,-187500.02235174447,-187500.02235174447,-187500.02235174447,-187500.02235174447,-187500.02235174447,1730411797.1174655,1730411795.5660644,2000
-4740.290908848156,-187500.02235174447,18176.259777100066,-187500.02235174447,-187500.02235174447,-187500.02235174447,-187500.02235174447,-187500.02235174447,1730411797.120204,1730411795.5660644,2000
-4807.346142214077,-187500.02235174447,18165.59799499488,-187500.02235174447,-187500.02235174447,-187500.02235174447,-187500.02235174447,-187500.02235174447,1730411797.124621,1730411795.5660644,2000
-4739.821522214595,-187500.02235174447,18222.729053822644,-187500.02235174447,-187500.02235174447,-187500.02235174447,-187500.02235174447,-187500.02235174447,1730411797.1284325,1730411795.5660644,2000
-4731.171397110391,-187500.02235174447,18196.421050598747,-187500.02235174447,-187500.02235174447,-187500.02235174447,-187500.02235174447,-187500.02235174447,1730411797.1322887,1730411795.5660644,2000
-4726.857510430516,-187500.02235174447,18188.88851271731,-187500.02235174447,-187500.02235174447,-187500.02235174447,-187500.02235174447,-187500.02235174447,1730411797.1363704,1730411795.5660644,2000
-4732.17722561088,-187500.02235174447,18211.575533339445,-187500.02235174447,-187500.02235174447,-187500.02235174447,-187500.02235174447,-187500.02235174447,1730411797.1407917,1730411795.5660644,2000
-4713.334705035056,-187500.02235174447,18209.27330366055,-187500.02235174447,-187500.02235174447,-187500.02235174447,-187500.02235174447,-187500.02235174447,1730411797.1442869,1730411795.5660644,2000
-4752.7408305097615,-187500.02235174447,18165.30742231696,-187500.02235174447,-187500.02235174447,-187500.02235174447,-187500.02235174447,-187500.02235174447,1730411797.1484463,1730411795.5660644,2000
-4757.680566034385,-187500.02235174447,18159.40656178076,-187500.02235174447,-187500.02235174447,-187500.02235174447,-187500.02235174447,-187500.02235174447,1730411797.1517696,1730411795.5660644,2000
-4715.480472502765,-187500.02235174447,18213.22956242914,-187500.02235174447,-187500.02235174447,-187500.02235174447,-187500.02235174447,-187500.02235174447,1730411797.156754,1730411795.5660644,2000
-4778.110060466535,-187500.02235174447,18197.65039654379,-187500.02235174447,-187500.02235174447,-187500.02235174447,-187500.02235174447,-187500.02235174447,1730411797.160479,1730411795.5660644,2000
-4758.865208490516,-187500.02235174447,18197.73980352161,-187500.02235174447,-187500.02235174447,-187500.02235174447,-187500.02235174447,-187500.02235174447,1730411797.164606,1730411795.5660644,2000
-4731.014934899204,-187500.02235174447,18228.60756261439,-187500.02235174447,-187500.02235174447,-187500.02235174447,-187500.02235174447,-187500.02235174447,1730411797.168471,1730411795.5660644,2000
-4762.575598070097,-187500.02235174447,18182.205341125173,-187500.02235174447,-187500.02235174447,-187500.02235174447,-187500.02235174447,-187500.02235174447,1730411797.172482,1730411795.5660644,2000
-4739.50859779222,-187500.02235174447,18209.161544938277,-187500.02235174447,-187500.02235174447,-187500.02235174447,-187500.02235174447,-187500.02235174447,1730411797.175616,1730411795.5660644,2000
-4720.353152794022,-187500.02235174447,18232.854394060894,-187500.02235174447,-187500.02235174447,-187500.02235174447,-187500.02235174447,-187500.02235174447,1730411797.1795416,1730411795.5660644,2000
-4719.861414416006,-187500.02235174447,18219.08571947643,-187500.02235174447,-187500.02235174447,-187500.02235174447,-187500.02235174447,-187500.02235174447,1730411797.185068,1730411795.5660644,2000
-4741.922586193394,-187500.02235174447,18200.734937278623,-187500.02235174447,-187500.02235174447,-187500.02235174447,-187500.02235174447,-187500.02235174447,1730411797.1889615,1730411795.5660644,2000
-4748.449295574343,-187500.02235174447,18179.67959400172,-187500.02235174447,-187500.02235174447,-187500.02235174447,-187500.02235174447,-187500.02235174447,1730411797.1926372,1730411795.5660644,2000
-4732.132522121969,-187500.02235174447,18203.014815213064,-187500.02235174447,-187500.02235174447,-187500.02235174447,-187500.02235174447,-187500.02235174447,1730411797.196713,1730411795.5660644,2000
-4731.8419494440495,-187500.02235174447,18192.062460429963,-187500.02235174447,-187500.02235174447,-187500.02235174447,-187500.02235174447,-187500.02235174447,1730411797.2006795,1730411795.5660644,2000
-4772.3433103970665,-187500.02235174447,18153.30453554446,-187500.02235174447,-187500.02235174447,-187500.02235174447,-187500.02235174447,-187500.02235174447,1730411797.2034423,1730411795.5660644,2000
-4766.4200981164095,-187500.02235174447,18207.306350148483,-187500.02235174447,-187500.02235174447,-187500.02235174447,-187500.02235174447,-187500.02235174447,1730411797.2077403,1730411795.5660644,2000
-4734.591214012053,-187500.02235174447,18245.550184911517,-187500.02235174447,-187500.02235174447,-187500.02235174447,-187500.02235174447,-187500.02235174447,1730411797.2123702,1730411795.5660644,2000
-4725.091722618548,-187500.02235174447,18185.62515802684,-187500.02235174447,-187500.02235174447,-187500.02235174447,-187500.02235174447,-187500.02235174447,1730411797.2164347,1730411795.5660644,2000
-4749.432772330377,-187500.02235174447,18185.6922132602,-187500.02235174447,-187500.02235174447,-187500.02235174447,-187500.02235174447,-187500.02235174447,1730411797.2204003,1730411795.5660644,2000
-4727.84098718655,-187500.02235174447,18212.447251373203,-187500.02235174447,-187500.02235174447,-187500.02235174447,-187500.02235174447,-187500.02235174447,1730411797.224727,1730411795.5660644,2000
-4708.685542188352,-187500.02235174447,18210.79322228351,-187500.02235174447,-187500.02235174447,-187500.02235174447,-187500.02235174447,-187500.02235174447,1730411797.2274015,1730411795.5660644,2000
-4734.859434945516,-187500.02235174447,18246.734827367643,-187500.02235174447,-187500.02235174447,-187500.02235174447,-187500.02235174447,-187500.02235174447,1730411797.2318351,1730411795.5660644,2000
-4732.423094799888,-187500.02235174447,18227.735844580635,-187500.02235174447,-187500.02235174447,-187500.02235174447,-187500.02235174447,-187500.02235174447,1730411797.235732,1730411795.5660644,2000
-4759.692223035362,-187500.02235174447,18222.79610905601,-187500.02235174447,-187500.02235174447,-187500.02235174447,-187500.02235174447,-187500.02235174447,1730411797.2398572,1730411795.5660644,2000
-4779.89820002296,-187500.02235174447,18222.21496370017,-187500.02235174447,-187500.02235174447,-187500.02235174447,-187500.02235174447,-187500.02235174447,1730411797.2444465,1730411795.5660644,2000
-4775.539609854175,-187500.02235174447,18149.102407586863,-187500.02235174447,-187500.02235174447,-187500.02235174447,-187500.02235174447,-187500.02235174447,1730411797.2489047,1730411795.5660644,2000
-4741.27438560419,-187500.02235174447,18123.15203227425,-187500.02235174447,-187500.02235174447,-187500.02235174447,-187500.02235174447,-187500.02235174447,1730411797.254599,1730411795.5660644,2000
-4690.088890801536,-187500.02235174447,18211.240257172616,-187500.02235174447,-187500.02235174447,-187500.02235174447,-187500.02235174447,-187500.02235174447,1730411797.2580545,1730411795.5660644,2000
-4758.239359645768,-187500.02235174447,18272.841664891443,-187500.02235174447,-187500.02235174447,-187500.02235174447,-187500.02235174447,-187500.02235174447,1730411797.2604904,1730411795.5660644,2000
-4747.309356607122,-187500.02235174447,18251.18282451425,-187500.02235174447,-187500.02235174447,-187500.02235174447,-187500.02235174447,-187500.02235174447,1730411797.2648177,1730411795.5660644,2000
-4727.371600552989,-187500.02235174447,18221.61146659988,-187500.02235174447,-187500.02235174447,-187500.02235174447,-187500.02235174447,-187500.02235174447,1730411797.2680116,1730411795.5660644,2000
-4737.385182068966,-187500.02235174447,18186.049841171487,-187500.02235174447,-187500.02235174447,-187500.02235174447,-187500.02235174447,-187500.02235174447,1730411797.2726965,1730411795.5660644,2000
-4723.281231317667,-187500.02235174447,18168.190797351694,-187500.02235174447,-187500.02235174447,-187500.02235174447,-187500.02235174447,-187500.02235174447,1730411797.2765603,1730411795.5660644,2000
-4746.705859506829,-187500.02235174447,18137.12187255882,-187500.02235174447,-187500.02235174447,-187500.02235174447,-187500.02235174447,-187500.02235174447,1730411797.2797763,1730411795.5660644,2000
-4756.160647411424,-187500.02235174447,18164.12277986083,-187500.02235174447,-187500.02235174447,-187500.02235174447,-187500.02235174447,-187500.02235174447,1730411797.2836318,1730411795.5660644,2000
-4729.293850576145,-187500.02235174447,18248.858243090897,-187500.02235174447,-187500.02235174447,-187500.02235174447,-187500.02235174447,-187500.02235174447,1730411797.2876532,1730411795.5660644,2000
-4758.08289743458,-187500.02235174447,18241.459815676197,-187500.02235174447,-187500.02235174447,-187500.02235174447,-187500.02235174447,-187500.02235174447,1730411797.291858,1730411795.5660644,2000
-4762.79911551465,-187500.02235174447,18213.60954208488,-187500.02235174447,-187500.02235174447,-187500.02235174447,-187500.02235174447,-187500.02235174447,1730411797.295586,1730411795.5660644,2000
-4750.863283975516,-187500.02235174447,18192.46479183016,-187500.02235174447,-187500.02235174447,-187500.02235174447,-187500.02235174447,-187500.02235174447,1730411797.2998428,1730411795.5660644,2000
-4714.519347491187,-187500.02235174447,18221.16443171077,-187500.02235174447,-187500.02235174447,-187500.02235174447,-187500.02235174447,-187500.02235174447,1730411797.304614,1730411795.5660644,2000
-4701.957667107305,-187500.02235174447,18237.972943541165,-187500.02235174447,-187500.02235174447,-187500.02235174447,-187500.02235174447,-187500.02235174447,1730411797.3082683,1730411795.5660644,2000
-4785.396729158965,-187500.02235174447,18226.484146891136,-187500.02235174447,-187500.02235174447,-187500.02235174447,-187500.02235174447,-187500.02235174447,1730411797.3115575,1730411795.5660644,2000
-4764.050813204148,-187500.02235174447,18207.7980885265,-187500.02235174447,-187500.02235174447,-187500.02235174447,-187500.02235174447,-187500.02235174447,1730411797.3157911,1730411795.5660644,2000
-4740.112094892514,-187500.02235174447,18194.07411743094,-187500.02235174447,-187500.02235174447,-187500.02235174447,-187500.02235174447,-187500.02235174447,1730411797.319517,1730411795.5660644,2000
-4755.266577633211,-187500.02235174447,18192.66595753025,-187500.02235174447,-187500.02235174447,-187500.02235174447,-187500.02235174447,-187500.02235174447,1730411797.32363,1730411795.5660644,2000
-4754.394859599454,-187500.02235174447,18209.74269029411,-187500.02235174447,-187500.02235174447,-187500.02235174447,-187500.02235174447,-187500.02235174447,1730411797.32852,1730411795.5660644,2000
-4740.894405948449,-187500.02235174447,18192.55419880798,-187500.02235174447,-187500.02235174447,-187500.02235174447,-187500.02235174447,-187500.02235174447,1730411797.3331857,1730411795.5660644,2000
-4783.318016924622,-187500.02235174447,18133.43383472369,-187500.02235174447,-187500.02235174447,-187500.02235174447,-187500.02235174447,-187500.02235174447,1730411797.3355348,1730411795.5660644,2000
-4773.237380175278,-187500.02235174447,18183.16646613675,-187500.02235174447,-187500.02235174447,-187500.02235174447,-187500.02235174447,-187500.02235174447,1730411797.340099,1730411795.5660644,2000
-4689.26187625669,-187500.02235174447,18289.04667962154,-187500.02235174447,-187500.02235174447,-187500.02235174447,-187500.02235174447,-187500.02235174447,1730411797.3436592,1730411795.5660644,2000
-4715.681638202863,-187500.02235174447,18251.026362303062,-187500.02235174447,-187500.02235174447,-187500.02235174447,-187500.02235174447,-187500.02235174447,1730411797.348058,1730411795.5660644,2000
-4745.364754839511,-187500.02235174447,18201.964283223664,-187500.02235174447,-187500.02235174447,-187500.02235174447,-187500.02235174447,-187500.02235174447,1730411797.3520384,1730411795.5660644,2000
-4744.850664717039,-187500.02235174447,18194.83407674242,-187500.02235174447,-187500.02235174447,-187500.02235174447,-187500.02235174447,-187500.02235174447,1730411797.356258,1730411795.5660644,2000
-4698.247277527724,-187500.02235174447,18215.867068274863,-187500.02235174447,-187500.02235174447,-187500.02235174447,-187500.02235174447,-187500.02235174447,1730411797.3606615,1730411795.5660644,2000
-4719.436731271355,-187500.02235174447,18216.291751419514,-187500.02235174447,-187500.02235174447,-187500.02235174447,-187500.02235174447,-187500.02235174447,1730411797.3637412,1730411795.5660644,2000
-4744.984775183771,-187500.02235174447,18212.60371358439,-187500.02235174447,-187500.02235174447,-187500.02235174447,-187500.02235174447,-187500.02235174447,1730411797.3679008,1730411795.5660644,2000
-4717.201556825824,-187500.02235174447,18209.474469360648,-187500.02235174447,-187500.02235174447,-187500.02235174447,-187500.02235174447,-187500.02235174447,1730411797.3720205,1730411795.5660644,2000
-4758.708746279329,-187500.02235174447,18224.18191721224,-187500.02235174447,-187500.02235174447,-187500.02235174447,-187500.02235174447,-187500.02235174447,1730411797.3759103,1730411795.5660644,2000
-4771.337481896578,-187500.02235174447,18196.286940132017,-187500.02235174447,-187500.02235174447,-187500.02235174447,-187500.02235174447,-187500.02235174447,1730411797.379946,1730411795.5660644,2000
-4745.856493217528,-187500.02235174447,18181.55714053597,-187500.02235174447,-187500.02235174447,-187500.02235174447,-187500.02235174447,-187500.02235174447,1730411797.3837185,1730411795.5660644,2000
-4741.967289682304,-187500.02235174447,18176.88562594481,-187500.02235174447,-187500.02235174447,-187500.02235174447,-187500.02235174447,-187500.02235174447,1730411797.3890543,1730411795.5660644,2000
-4738.189844869357,-187500.02235174447,18181.8924167028,-187500.02235174447,-187500.02235174447,-187500.02235174447,-187500.02235174447,-187500.02235174447,1730411797.3920703,1730411795.5660644,2000
-4735.686449490363,-187500.02235174447,18220.38212065484,-187500.02235174447,-187500.02235174447,-187500.02235174447,-187500.02235174447,-187500.02235174447,1730411797.3946352,1730411795.5660644,2000
-4722.543623750642,-187500.02235174447,18226.1041672354,-187500.02235174447,-187500.02235174447,-187500.02235174447,-187500.02235174447,-187500.02235174447,1730411797.399822,1730411795.5660644,2000
-4736.357001824022,-187500.02235174447,18220.6503415883,-187500.02235174447,-187500.02235174447,-187500.02235174447,-187500.02235174447,-187500.02235174447,1730411797.403662,1730411795.5660644,2000
-4765.593083571564,-187500.02235174447,18216.738786308622,-187500.02235174447,-187500.02235174447,-187500.02235174447,-187500.02235174447,-187500.02235174447,1730411797.4078505,1730411795.5660644,2000
-4769.057603962136,-187500.02235174447,18204.825306513943,-187500.02235174447,-187500.02235174447,-187500.02235174447,-187500.02235174447,-187500.02235174447,1730411797.4116738,1730411795.5660644,2000
-4739.598004770041,-187500.02235174447,18197.40452735478,-187500.02235174447,-187500.02235174447,-187500.02235174447,-187500.02235174447,-187500.02235174447,1730411797.415808,1730411795.5660644,2000
-4738.659231502918,-187500.02235174447,18210.1003182054,-187500.02235174447,-187500.02235174447,-187500.02235174447,-187500.02235174447,-187500.02235174447,1730411797.4188075,1730411795.5660644,2000
-4753.433734587877,-187500.02235174447,18205.18293442523,-187500.02235174447,-187500.02235174447,-187500.02235174447,-187500.02235174447,-187500.02235174447,1730411797.423738,1730411795.5660644,2000
-4741.900234448938,-187500.02235174447,18191.391908096302,-187500.02235174447,-187500.02235174447,-187500.02235174447,-187500.02235174447,-187500.02235174447,1730411797.4276617,1730411795.5660644,2000
-4738.726286736284,-187500.02235174447,18154.69034370069,-187500.02235174447,-187500.02235174447,-187500.02235174447,-187500.02235174447,-187500.02235174447,1730411797.4318612,1730411795.5660644,2000
-4754.41721134391,-187500.02235174447,18215.88942001932,-187500.02235174447,-187500.02235174447,-187500.02235174447,-187500.02235174447,-187500.02235174447,1730411797.4356856,1730411795.5660644,2000
-4721.940126650349,-187500.02235174447,18261.35286824141,-187500.02235174447,-187500.02235174447,-187500.02235174447,-187500.02235174447,-187500.02235174447,1730411797.4399104,1730411795.5660644,2000
-4747.555225796131,-187500.02235174447,18242.3538854544,-187500.02235174447,-187500.02235174447,-187500.02235174447,-187500.02235174447,-187500.02235174447,1730411797.4438236,1730411795.5660644,2000
-4739.396839069944,-187500.02235174447,18211.32966415044,-187500.02235174447,-187500.02235174447,-187500.02235174447,-187500.02235174447,-187500.02235174447,1730411797.4468172,1730411795.5660644,2000
-4734.345344823044,-187500.02235174447,18188.620291783845,-187500.02235174447,-187500.02235174447,-187500.02235174447,-187500.02235174447,-187500.02235174447,1730411797.451095,1730411795.5660644,2000
-4729.763237209706,-187500.02235174447,18211.486126361626,-187500.02235174447,-187500.02235174447,-187500.02235174447,-187500.02235174447,-187500.02235174447,1730411797.456044,1730411795.5660644,2000
-4745.27534786169,-187500.02235174447,18214.7494810521,-187500.02235174447,-187500.02235174447,-187500.02235174447,-187500.02235174447,-187500.02235174447,1730411797.460446,1730411795.5660644,2000
-4749.3210136081,-187500.02235174447,18199.930274478236,-187500.02235174447,-187500.02235174447,-187500.02235174447,-187500.02235174447,-187500.02235174447,1730411797.4639,1730411795.5660644,2000
-4727.796283697639,-187500.02235174447,18183.322928347938,-187500.02235174447,-187500.02235174447,-187500.02235174447,-187500.02235174447,-187500.02235174447,1730411797.4678442,1730411795.5660644,2000
-4745.990603684259,-187500.02235174447,18189.91669296225,-187500.02235174447,-187500.02235174447,-187500.02235174447,-187500.02235174447,-187500.02235174447,1730411797.4722888,1730411795.5660644,2000
-4751.533836309175,-187500.02235174447,18216.425861886248,-187500.02235174447,-187500.02235174447,-187500.02235174447,-187500.02235174447,-187500.02235174447,1730411797.4750547,1730411795.5660644,2000
-4747.577577540586,-187500.02235174447,18182.02652716953,-187500.02235174447,-187500.02235174447,-187500.02235174447,-187500.02235174447,-187500.02235174447,1730411797.4788277,1730411795.5660644,2000
-4711.188937567346,-187500.02235174447,18197.31512037696,-187500.02235174447,-187500.02235174447,-187500.02235174447,-187500.02235174447,-187500.02235174447,1730411797.4839373,1730411795.5660644,2000
-4717.805053926117,-187500.02235174447,18194.968187209157,-187500.02235174447,-187500.02235174447,-187500.02235174447,-187500.02235174447,-187500.02235174447,1730411797.488103,1730411795.5660644,2000
-4773.863229020028,-187500.02235174447,18209.921504249756,-187500.02235174447,-187500.02235174447,-187500.02235174447,-187500.02235174447,-187500.02235174447,1730411797.4922063,1730411795.5660644,2000
-4774.08674646458,-187500.02235174447,18190.98957669611,-187500.02235174447,-187500.02235174447,-187500.02235174447,-187500.02235174447,-187500.02235174447,1730411797.4959488,1730411795.5660644,2000
-4763.402612614944,-187500.02235174447,18159.13834084729,-187500.02235174447,-187500.02235174447,-187500.02235174447,-187500.02235174447,-187500.02235174447,1730411797.4991803,1730411795.5660644,2000
-4679.695329629819,-187500.02235174447,18210.815574027965,-187500.02235174447,-187500.02235174447,-187500.02235174447,-187500.02235174447,-187500.02235174447,1730411797.505571,1730411795.5660644,2000
-4717.246260314734,-187500.02235174447,18236.27421096256,-187500.02235174447,-187500.02235174447,-187500.02235174447,-187500.02235174447,-187500.02235174447,1730411797.5081055,1730411795.5660644,2000
-4733.965365167304,-187500.02235174447,18231.021551015565,-187500.02235174447,-187500.02235174447,-187500.02235174447,-187500.02235174447,-187500.02235174447,1730411797.511923,1730411795.5660644,2000
-4741.855530960028,-187500.02235174447,18198.097431432896,-187500.02235174447,-187500.02235174447,-187500.02235174447,-187500.02235174447,-187500.02235174447,1730411797.5161798,1730411795.5660644,2000
-4743.107228649525,-187500.02235174447,18187.055669671976,-187500.02235174447,-187500.02235174447,-187500.02235174447,-187500.02235174447,-187500.02235174447,1730411797.5199802,1730411795.5660644,2000
-4719.973173138282,-187500.02235174447,18186.7427452496,-187500.02235174447,-187500.02235174447,-187500.02235174447,-187500.02235174447,-187500.02235174447,1730411797.5240147,1730411795.5660644,2000
-4739.933280936871,-187500.02235174447,18227.668789347263,-187500.02235174447,-187500.02235174447,-187500.02235174447,-187500.02235174447,-187500.02235174447,1730411797.5278747,1730411795.5660644,2000
-4721.4483882723325,-187500.02235174447,18228.026417258552,-187500.02235174447,-187500.02235174447,-187500.02235174447,-187500.02235174447,-187500.02235174447,1730411797.531181,1730411795.5660644,2000
-4753.567845054608,-187500.02235174447,18191.25779762957,-187500.02235174447,-187500.02235174447,-187500.02235174447,-187500.02235174447,-187500.02235174447,1730411797.5352583,1730411795.5660644,2000
-4727.528062764176,-187500.02235174447,18181.221864369138,-187500.02235174447,-187500.02235174447,-187500.02235174447,-187500.02235174447,-187500.02235174447,1730411797.5409436,1730411795.5660644,2000
-4728.444484286843,-187500.02235174447,18207.64162631531,-187500.02235174447,-187500.02235174447,-187500.02235174447,-187500.02235174447,-187500.02235174447,1730411797.5449746,1730411795.5660644,2000
-4766.80007777215,-187500.02235174447,18203.193629168705,-187500.02235174447,-187500.02235174447,-187500.02235174447,-187500.02235174447,-187500.02235174447,1730411797.5491908,1730411795.5660644,2000
-4761.010975958226,-187500.02235174447,18193.738841264112,-187500.02235174447,-187500.02235174447,-187500.02235174447,-187500.02235174447,-187500.02235174447,1730411797.5528748,1730411795.5660644,2000
-4753.187865398868,-187500.02235174447,18174.762210221557,-187500.02235174447,-187500.02235174447,-187500.02235174447,-187500.02235174447,-187500.02235174447,1730411797.5560243,1730411795.5660644,2000
-4734.926490178882,-187500.02235174447,18196.35399536538,-187500.02235174447,-187500.02235174447,-187500.02235174447,-187500.02235174447,-187500.02235174447,1730411797.5601337,1730411795.5660644,2000
-4740.670888503896,-187500.02235174447,18193.560027308467,-187500.02235174447,-187500.02235174447,-187500.02235174447,-187500.02235174447,-187500.02235174447,1730411797.5630448,1730411795.5660644,2000
-4750.192731641857,-187500.02235174447,18176.75151547808,-187500.02235174447,-187500.02235174447,-187500.02235174447,-187500.02235174447,-187500.02235174447,1730411797.567516,1730411795.5660644,2000
-4739.665060003407,-187500.02235174447,18146.59901220787,-187500.02235174447,-187500.02235174447,-187500.02235174447,-187500.02235174447,-187500.02235174447,1730411797.572316,1730411795.5660644,2000
-4735.574690768086,-187500.02235174447,18191.146038907296,-187500.02235174447,-187500.02235174447,-187500.02235174447,-187500.02235174447,-187500.02235174447,1730411797.5761716,1730411795.5660644,2000
-4727.550414508631,-187500.02235174447,18212.894286262308,-187500.02235174447,-187500.02235174447,-187500.02235174447,-187500.02235174447,-187500.02235174447,1730411797.5789046,1730411795.5660644,2000
-4715.6369347139525,-187500.02235174447,18198.45505934418,-187500.02235174447,-187500.02235174447,-187500.02235174447,-187500.02235174447,-187500.02235174447,1730411797.5830662,1730411795.5660644,2000
-4743.196635627346,-187500.02235174447,18180.08192540192,-187500.02235174447,-187500.02235174447,-187500.02235174447,-187500.02235174447,-187500.02235174447,1730411797.5869913,1730411795.5660644,2000
-4762.441487603365,-187500.02235174447,18170.64948924178,-187500.02235174447,-187500.02235174447,-187500.02235174447,-187500.02235174447,-187500.02235174447,1730411797.5912082,1730411795.5660644,2000
-4735.753504723729,-187500.02235174447,18169.062515385453,-187500.02235174447,-187500.02235174447,-187500.02235174447,-187500.02235174447,-187500.02235174447,1730411797.595042,1730411795.5660644,2000
-4729.986754654259,-187500.02235174447,18188.240312128102,-187500.02235174447,-187500.02235174447,-187500.02235174447,-187500.02235174447,-187500.02235174447,1730411797.6005745,1730411795.5660644,2000
-4704.639876441941,-187500.02235174447,18189.290844117502,-187500.02235174447,-187500.02235174447,-187500.02235174447,-187500.02235174447,-187500.02235174447,1730411797.6041045,1730411795.5660644,2000
-4756.719441022807,-187500.02235174447,18194.40939359777,-187500.02235174447,-187500.02235174447,-187500.02235174447,-187500.02235174447,-187500.02235174447,1730411797.6072428,1730411795.5660644,2000
-4779.674682578407,-187500.02235174447,18192.6436057858,-187500.02235174447,-187500.02235174447,-187500.02235174447,-187500.02235174447,-187500.02235174447,1730411797.6110616,1730411795.5660644,2000
-4758.954615468338,-187500.02235174447,18168.16844560724,-187500.02235174447,-187500.02235174447,-187500.02235174447,-187500.02235174447,-187500.02235174447,1730411797.6154976,1730411795.5660644,2000
-4743.397801327444,-187500.02235174447,18162.424047282228,-187500.02235174447,-187500.02235174447,-187500.02235174447,-187500.02235174447,-187500.02235174447,1730411797.6190386,1730411795.5660644,2000
-4715.45812075831,-187500.02235174447,18218.661036331778,-187500.02235174447,-187500.02235174447,-187500.02235174447,-187500.02235174447,-187500.02235174447,1730411797.6231625,1730411795.5660644,2000
-4730.545548265642,-187500.02235174447,18220.292713677016,-187500.02235174447,-187500.02235174447,-187500.02235174447,-187500.02235174447,-187500.02235174447,1730411797.6281128,1730411795.5660644,2000
-4735.015897156703,-187500.02235174447,18180.104277146373,-187500.02235174447,-187500.02235174447,-187500.02235174447,-187500.02235174447,-187500.02235174447,1730411797.6313655,1730411795.5660644,2000
-4738.256900102723,-187500.02235174447,18178.83022771242,-187500.02235174447,-187500.02235174447,-187500.02235174447,-187500.02235174447,-187500.02235174447,1730411797.6353295,1730411795.5660644,2000
-4738.502769291731,-187500.02235174447,18185.200474882186,-187500.02235174447,-187500.02235174447,-187500.02235174447,-187500.02235174447,-187500.02235174447,1730411797.6391923,1730411795.5660644,2000
-4754.976004955292,-187500.02235174447,18188.240312128102,-187500.02235174447,-187500.02235174447,-187500.02235174447,-187500.02235174447,-187500.02235174447,1730411797.6431956,1730411795.5660644,2000
-4741.341440837556,-187500.02235174447,18154.846805911875,-187500.02235174447,-187500.02235174447,-187500.02235174447,-187500.02235174447,-187500.02235174447,1730411797.6475673,1730411795.5660644,2000
-4704.6622281863965,-187500.02235174447,18161.32881180392,-187500.02235174447,-187500.02235174447,-187500.02235174447,-187500.02235174447,-187500.02235174447,1730411797.6511228,1730411795.5660644,2000
-4752.584368298575,-187500.02235174447,18182.004175425074,-187500.02235174447,-187500.02235174447,-187500.02235174447,-187500.02235174447,-187500.02235174447,1730411797.6562734,1730411795.5660644,2000
-4771.449240618854,-187500.02235174447,18184.284053359515,-187500.02235174447,-187500.02235174447,-187500.02235174447,-187500.02235174447,-187500.02235174447,1730411797.65965,1730411795.5660644,2000
-4764.341385882066,-187500.02235174447,18197.002195954585,-187500.02235174447,-187500.02235174447,-187500.02235174447,-187500.02235174447,-187500.02235174447,1730411797.6621358,1730411795.5660644,2000
-4732.914833177904,-187500.02235174447,18212.491954862115,-187500.02235174447,-187500.02235174447,-187500.02235174447,-187500.02235174447,-187500.02235174447,1730411797.6677055,1730411795.5660644,2000
-4729.942051165349,-187500.02235174447,18193.358861608373,-187500.02235174447,-187500.02235174447,-187500.02235174447,-187500.02235174447,-187500.02235174447,1730411797.6718297,1730411795.5660644,2000
-4749.186903141368,-187500.02235174447,18186.56393129396,-187500.02235174447,-187500.02235174447,-187500.02235174447,-187500.02235174447,-187500.02235174447,1730411797.675748,1730411795.5660644,2000
-4738.569824525097,-187500.02235174447,18164.01102113855,-187500.02235174447,-187500.02235174447,-187500.02235174447,-187500.02235174447,-187500.02235174447,1730411797.6791234,1730411795.5660644,2000
-4738.614528014008,-187500.02235174447,18170.38126830832,-187500.02235174447,-187500.02235174447,-187500.02235174447,-187500.02235174447,-187500.02235174447,1730411797.684552,1730411795.5660644,2000
-4748.382240340977,-187500.02235174447,18175.566873021948,-187500.02235174447,-187500.02235174447,-187500.02235174447,-187500.02235174447,-187500.02235174447,1730411797.6872647,1730411795.5660644,2000
-4726.298716819134,-187500.02235174447,18199.08090818893,-187500.02235174447,-187500.02235174447,-187500.02235174447,-187500.02235174447,-187500.02235174447,1730411797.690538,1730411795.5660644,2000
-4745.185940883868,-187500.02235174447,18215.442385130213,-187500.02235174447,-187500.02235174447,-187500.02235174447,-187500.02235174447,-187500.02235174447,1730411797.6952136,1730411795.5660644,2000
-4728.98092615377,-187500.02235174447,18192.93417846372,-187500.02235174447,-187500.02235174447,-187500.02235174447,-187500.02235174447,-187500.02235174447,1730411797.6994417,1730411795.5660644,2000
-4726.254013330223,-187500.02235174447,18187.07802141643,-187500.02235174447,-187500.02235174447,-187500.02235174447,-187500.02235174447,-187500.02235174447,1730411797.7031257,1730411795.5660644,2000
-4727.08102787507,-187500.02235174447,18204.91471349177,-187500.02235174447,-187500.02235174447,-187500.02235174447,-187500.02235174447,-187500.02235174447,1730411797.70762,1730411795.5660644,2000
-4751.466781075809,-187500.02235174447,18200.667882045254,-187500.02235174447,-187500.02235174447,-187500.02235174447,-187500.02235174447,-187500.02235174447,1730411797.7111769,1730411795.5660644,2000
-4746.147065895447,-187500.02235174447,18183.948777192687,-187500.02235174447,-187500.02235174447,-187500.02235174447,-187500.02235174447,-187500.02235174447,1730411797.71541,1730411795.5660644,2000
-4752.472609576298,-187500.02235174447,18158.333678046904,-187500.02235174447,-187500.02235174447,-187500.02235174447,-187500.02235174447,-187500.02235174447,1730411797.7183251,1730411795.5660644,2000
-4733.294812833645,-187500.02235174447,18144.78852090699,-187500.02235174447,-187500.02235174447,-187500.02235174447,-187500.02235174447,-187500.02235174447,1730411797.723342,1730411795.5660644,2000
-4681.706986630797,-187500.02235174447,18206.16641118126,-187500.02235174447,-187500.02235174447,-187500.02235174447,-187500.02235174447,-187500.02235174447,1730411797.7272172,1730411795.5660644,2000
-4733.160702366913,-187500.02235174447,18210.547353094506,-187500.02235174447,-187500.02235174447,-187500.02235174447,-187500.02235174447,-187500.02235174447,1730411797.7315204,1730411795.5660644,2000
-4750.840932231061,-187500.02235174447,18179.590187023903,-187500.02235174447,-187500.02235174447,-187500.02235174447,-187500.02235174447,-187500.02235174447,1730411797.7355504,1730411795.5660644,2000
-4722.163644094902,-187500.02235174447,18177.869102700843,-187500.02235174447,-187500.02235174447,-187500.02235174447,-187500.02235174447,-187500.02235174447,1730411797.739388,1730411795.5660644,2000
-4738.055734402626,-187500.02235174447,18174.203416610173,-187500.02235174447,-187500.02235174447,-187500.02235174447,-187500.02235174447,-187500.02235174447,1730411797.743354,1730411795.5660644,2000
-4743.50956004972,-187500.02235174447,18160.993535637088,-187500.02235174447,-187500.02235174447,-187500.02235174447,-187500.02235174447,-187500.02235174447,1730411797.7476854,1730411795.5660644,2000
-4752.807885743128,-187500.02235174447,18188.59794003939,-187500.02235174447,-187500.02235174447,-187500.02235174447,-187500.02235174447,-187500.02235174447,1730411797.7514231,1730411795.5660644,2000
-4743.88953970546,-187500.02235174447,18198.79033551101,-187500.02235174447,-187500.02235174447,-187500.02235174447,-187500.02235174447,-187500.02235174447,1730411797.7553763,1730411795.5660644,2000
-4769.102307451047,-187500.02235174447,18183.054707414474,-187500.02235174447,-187500.02235174447,-187500.02235174447,-187500.02235174447,-187500.02235174447,1730411797.7583988,1730411795.5660644,2000
-4775.472554620809,-187500.02235174447,18175.008079410563,-187500.02235174447,-187500.02235174447,-187500.02235174447,-187500.02235174447,-187500.02235174447,1730411797.7622817,1730411795.5660644,2000
-4732.020763399692,-187500.02235174447,18216.13528920833,-187500.02235174447,-187500.02235174447,-187500.02235174447,-187500.02235174447,-187500.02235174447,1730411797.7673483,1730411795.5660644,2000
-4741.252033859734,-187500.02235174447,18183.099410903385,-187500.02235174447,-187500.02235174447,-187500.02235174447,-187500.02235174447,-187500.02235174447,1730411797.7713373,1730411795.5660644,2000
-4751.735002009274,-187500.02235174447,18159.83124492541,-187500.02235174447,-187500.02235174447,-187500.02235174447,-187500.02235174447,-187500.02235174447,1730411797.775342,1730411795.5660644,2000
-4739.218025114301,-187500.02235174447,18168.41431479625,-187500.02235174447,-187500.02235174447,-187500.02235174447,-187500.02235174447,-187500.02235174447,1730411797.7793648,1730411795.5660644,2000
-4731.171397110391,-187500.02235174447,18178.606710267868,-187500.02235174447,-187500.02235174447,-187500.02235174447,-187500.02235174447,-187500.02235174447,1730411797.7832153,1730411795.5660644,2000
-4765.593083571564,-187500.02235174447,18161.59703273738,-187500.02235174447,-187500.02235174447,-187500.02235174447,-187500.02235174447,-187500.02235174447,1730411797.7861948,1730411795.5660644,2000
-4722.163644094902,-187500.02235174447,18205.80878326998,-187500.02235174447,-187500.02235174447,-187500.02235174447,-187500.02235174447,-187500.02235174447,1730411797.7903843,1730411795.5660644,2000
-4712.775911423673,-187500.02235174447,18220.98561775513,-187500.02235174447,-187500.02235174447,-187500.02235174447,-187500.02235174447,-187500.02235174447,1730411797.7953384,1730411795.5660644,2000
-4732.624260499985,-187500.02235174447,18199.9973297116,-187500.02235174447,-187500.02235174447,-187500.02235174447,-187500.02235174447,-187500.02235174447,1730411797.799388,1730411795.5660644,2000
-4731.3725628104885,-187500.02235174447,18180.528960291023,-187500.02235174447,-187500.02235174447,-187500.02235174447,-187500.02235174447,-187500.02235174447,1730411797.8032193,1730411795.5660644,2000
-4752.204388642835,-187500.02235174447,18170.7388962196,-187500.02235174447,-187500.02235174447,-187500.02235174447,-187500.02235174447,-187500.02235174447,1730411797.8067555,1730411795.5660644,2000
-4722.2754028171785,-187500.02235174447,18182.49591380309,-187500.02235174447,-187500.02235174447,-187500.02235174447,-187500.02235174447,-187500.02235174447,1730411797.810438,1730411795.5660644,2000
-4696.5038414602095,-187500.02235174447,18180.528960291023,-187500.02235174447,-187500.02235174447,-187500.02235174447,-187500.02235174447,-187500.02235174447,1730411797.814754,1730411795.5660644,2000
-4717.246260314734,-187500.02235174447,18157.86429141334,-187500.02235174447,-187500.02235174447,-187500.02235174447,-187500.02235174447,-187500.02235174447,1730411797.8184955,1730411795.5660644,2000
-4742.324917593589,-187500.02235174447,18131.243363767077,-187500.02235174447,-187500.02235174447,-187500.02235174447,-187500.02235174447,-187500.02235174447,1730411797.8233876,1730411795.5660644,2000
-4749.231606630279,-187500.02235174447,18181.154809135773,-187500.02235174447,-187500.02235174447,-187500.02235174447,-187500.02235174447,-187500.02235174447,1730411797.827284,1730411795.5660644,2000
-4763.46966784831,-187500.02235174447,18199.326777377937,-187500.02235174447,-187500.02235174447,-187500.02235174447,-187500.02235174447,-187500.02235174447,1730411797.831746,1730411795.5660644,2000
-4744.314222850111,-187500.02235174447,18186.87685571633,-187500.02235174447,-187500.02235174447,-187500.02235174447,-187500.02235174447,-187500.02235174447,1730411797.834704,1730411795.5660644,2000
-4753.120810165502,-187500.02235174447,18168.682535729717,-187500.02235174447,-187500.02235174447,-187500.02235174447,-187500.02235174447,-187500.02235174447,1730411797.8389933,1730411795.5660644,2000
-4766.151877182946,-187500.02235174447,18145.12379707382,-187500.02235174447,-187500.02235174447,-187500.02235174447,-187500.02235174447,-187500.02235174447,1730411797.8425443,1730411795.5660644,2000
-4725.583460996564,-187500.02235174447,18171.49885553108,-187500.02235174447,-187500.02235174447,-187500.02235174447,-187500.02235174447,-187500.02235174447,1730411797.8470328,1730411795.5660644,2000
-4705.757463664707,-187500.02235174447,18179.858407957367,-187500.02235174447,-187500.02235174447,-187500.02235174447,-187500.02235174447,-187500.02235174447,1730411797.8518996,1730411795.5660644,2000
-4717.045094614637,-187500.02235174447,18178.249082356582,-187500.02235174447,-187500.02235174447,-187500.02235174447,-187500.02235174447,-187500.02235174447,1730411797.8560486,1730411795.5660644,2000
-4741.699068748841,-187500.02235174447,18191.056631929478,-187500.02235174447,-187500.02235174447,-187500.02235174447,-187500.02235174447,-187500.02235174447,1730411797.8598893,1730411795.5660644,2000
-4741.900234448938,-187500.02235174447,18178.02556491203,-187500.02235174447,-187500.02235174447,-187500.02235174447,-187500.02235174447,-187500.02235174447,1730411797.862452,1730411795.5660644,2000
-4736.915795435405,-187500.02235174447,18116.06652928192,-187500.02235174447,-187500.02235174447,-187500.02235174447,-187500.02235174447,-187500.02235174447,1730411797.8668313,1730411795.5660644,2000
-4757.389993356466,-187500.02235174447,18145.72729417411,-187500.02235174447,-187500.02235174447,-187500.02235174447,-187500.02235174447,-187500.02235174447,1730411797.870346,1730411795.5660644,2000
-4737.049905902137,-187500.02235174447,18212.782527540032,-187500.02235174447,-187500.02235174447,-187500.02235174447,-187500.02235174447,-187500.02235174447,1730411797.8748915,1730411795.5660644,2000
-4709.490204988743,-187500.02235174447,18222.349074166905,-187500.02235174447,-187500.02235174447,-187500.02235174447,-187500.02235174447,-187500.02235174447,1730411797.8796616,1730411795.5660644,2000
-4706.763292165196,-187500.02235174447,18192.442440085702,-187500.02235174447,-187500.02235174447,-187500.02235174447,-187500.02235174447,-187500.02235174447,1730411797.8834662,1730411795.5660644,2000
-4709.557260222109,-187500.02235174447,18180.148980635284,-187500.02235174447,-187500.02235174447,-187500.02235174447,-187500.02235174447,-187500.02235174447,1730411797.8876257,1730411795.5660644,2000
-4693.64281816993,-187500.02235174447,18168.146093862782,-187500.02235174447,-187500.02235174447,-187500.02235174447,-187500.02235174447,-187500.02235174447,1730411797.8909757,1730411795.5660644,2000
-4727.975097653281,-187500.02235174447,18176.505646289068,-187500.02235174447,-187500.02235174447,-187500.02235174447,-187500.02235174447,-187500.02235174447,1730411797.894367,1730411795.5660644,2000
-4739.352135581033,-187500.02235174447,18162.87108217133,-187500.02235174447,-187500.02235174447,-187500.02235174447,-187500.02235174447,-187500.02235174447,1730411797.898916,1730411795.5660644,2000
-4750.03626943067,-187500.02235174447,18150.46586399864,-187500.02235174447,-187500.02235174447,-187500.02235174447,-187500.02235174447,-187500.02235174447,1730411797.9026358,1730411795.5660644,2000
-4753.880769476983,-187500.02235174447,18163.11695136034,-187500.02235174447,-187500.02235174447,-187500.02235174447,-187500.02235174447,-187500.02235174447,1730411797.906911,1730411795.5660644,2000
-4742.861359460516,-187500.02235174447,18205.339396636416,-187500.02235174447,-187500.02235174447,-187500.02235174447,-187500.02235174447,-187500.02235174447,1730411797.9114163,1730411795.5660644,2000
-4713.602925968519,-187500.02235174447,18167.11791361784,-187500.02235174447,-187500.02235174447,-187500.02235174447,-187500.02235174447,-187500.02235174447,1730411797.9150505,1730411795.5660644,2000
-4715.525175991676,-187500.02235174447,18155.65146871227,-187500.02235174447,-187500.02235174447,-187500.02235174447,-187500.02235174447,-187500.02235174447,1730411797.918764,1730411795.5660644,2000
-4740.447371059343,-187500.02235174447,18158.35602979136,-187500.02235174447,-187500.02235174447,-187500.02235174447,-187500.02235174447,-187500.02235174447,1730411797.9226916,1730411795.5660644,2000
-4725.806978441117,-187500.02235174447,18169.42014329674,-187500.02235174447,-187500.02235174447,-187500.02235174447,-187500.02235174447,-187500.02235174447,1730411797.9266658,1730411795.5660644,2000
-4719.928469649371,-187500.02235174447,18181.71360274716,-187500.02235174447,-187500.02235174447,-187500.02235174447,-187500.02235174447,-187500.02235174447,1730411797.9309156,1730411795.5660644,2000
-4733.786551211661,-187500.02235174447,18145.30261102946,-187500.02235174447,-187500.02235174447,-187500.02235174447,-187500.02235174447,-187500.02235174447,1730411797.934588,1730411795.5660644,2000
-4730.634955243463,-187500.02235174447,18150.26469829854,-187500.02235174447,-187500.02235174447,-187500.02235174447,-187500.02235174447,-187500.02235174447,1730411797.9397724,1730411795.5660644,2000
-4732.691315733351,-187500.02235174447,18167.341431062392,-187500.02235174447,-187500.02235174447,-187500.02235174447,-187500.02235174447,-187500.02235174447,1730411797.9430292,1730411795.5660644,2000
-4719.101455104525,-187500.02235174447,18179.27726260153,-187500.02235174447,-187500.02235174447,-187500.02235174447,-187500.02235174447,-187500.02235174447,1730411797.94702,1730411795.5660644,2000
-4749.164551396912,-187500.02235174447,18187.346242349893,-187500.02235174447,-187500.02235174447,-187500.02235174447,-187500.02235174447,-187500.02235174447,1730411797.9509504,1730411795.5660644,2000
-4723.12476910648,-187500.02235174447,18180.08192540192,-187500.02235174447,-187500.02235174447,-187500.02235174447,-187500.02235174447,-187500.02235174447,1730411797.9547672,1730411795.5660644,2000
