Fp1,Fp2,C3,C4,P7,P8,O1,O2,time_board,time_marker,marker
3677.621922209493,-105223.94391583728,-519.0522097411406,-187500.02235174447,-187500.02235174447,-187500.02235174447,-187500.02235174447,-187500.02235174447,1730243045.845462,1730243045.843918,2000
3680.8852768999673,-105300.2080679188,-490.39727334943694,-187500.02235174447,-187500.02235174447,-187500.02235174447,-187500.02235174447,-187500.02235174447,1730243045.8484652,1730243045.843918,2000
3672.6821866848695,-105283.19839038832,-460.848267179521,-187500.02235174447,-187500.02235174447,-187500.02235174447,-187500.02235174447,-187500.02235174447,1730243045.852651,1730243045.843918,2000
3686.7190822028015,-105256.28689006412,-476.1368603869511,-187500.02235174447,-187500.02235174447,-187500.02235174447,-187500.02235174447,-187500.02235174447,1730243045.856634,1730243045.843918,2000
3691.703521216336,-105334.98738229123,-511.5420236041575,-187500.02235174447,-187500.02235174447,-187500.02235174447,-187500.02235174447,-187500.02235174447,1730243045.8605092,1730243045.843918,2000
3693.759881706224,-105320.48110013976,-493.5488693176353,-187500.02235174447,-187500.02235174447,-187500.02235174447,-187500.02235174447,-187500.02235174447,1730243045.8645182,1730243045.843918,2000
3690.4518235268383,-105353.27110925569,-448.0854210955407,-187500.02235174447,-187500.02235174447,-187500.02235174447,-187500.02235174447,-187500.02235174447,1730243045.869635,1730243045.843918,2000
3678.5159919877046,-105380.629644469,-466.1232788709735,-187500.02235174447,-187500.02235174447,-187500.02235174447,-187500.02235174447,-187500.02235174447,1730243045.8736694,1730243045.843918,2000
3680.751166433235,-105369.1631995634,-507.74222704675526,-187500.02235174447,-187500.02235174447,-187500.02235174447,-187500.02235174447,-187500.02235174447,1730243045.8766787,1730243045.843918,2000
3690.8988584159447,-105431.27869740472,-495.8063955076213,-187500.02235174447,-187500.02235174447,-187500.02235174447,-187500.02235174447,-187500.02235174447,1730243045.8804903,1730243045.843918,2000
3685.221515324296,-105396.49938303223,-460.53534275714674,-187500.02235174447,-187500.02235174447,-187500.02235174447,-187500.02235174447,-187500.02235174447,1730243045.884495,1730243045.843918,2000
3677.286646042663,-105390.77733645168,-467.7326044717556,-187500.02235174447,-187500.02235174447,-187500.02235174447,-187500.02235174447,-187500.02235174447,1730243045.8885016,1730243045.843918,2000
3680.214724566308,-105416.45949083084,-509.4409596253586,-187500.02235174447,-187500.02235174447,-187500.02235174447,-187500.02235174447,-187500.02235174447,1730243045.8926811,1730243045.843918,2000
3676.4149280089055,-105396.11940337652,-509.619773581001,-187500.02235174447,-187500.02235174447,-187500.02235174447,-187500.02235174447,-187500.02235174447,1730243045.896628,1730243045.843918,2000
3682.181678078375,-105473.5905496586,-464.4692497812808,-187500.02235174447,-187500.02235174447,-187500.02235174447,-187500.02235174447,-187500.02235174447,1730243045.9016972,1730243045.843918,2000
3674.7161954303024,-105472.22709324684,-462.7481654582221,-187500.02235174447,-187500.02235174447,-187500.02235174447,-187500.02235174447,-187500.02235174447,1730243045.9045117,1730243045.843918,2000
3683.0980996010426,-105488.87914286603,-501.14846243243966,-187500.02235174447,-187500.02235174447,-187500.02235174447,-187500.02235174447,-187500.02235174447,1730243045.908626,1730243045.843918,2000
3686.9202479029,-105539.99758243532,-510.0668084701072,-187500.02235174447,-187500.02235174447,-187500.02235174447,-187500.02235174447,-187500.02235174447,1730243045.9125433,1730243045.843918,2000
3684.930942646378,-105489.72850915532,-471.2641800956941,-187500.02235174447,-187500.02235174447,-187500.02235174447,-187500.02235174447,-187500.02235174447,1730243045.916643,1730243045.843918,2000
3682.338140289562,-105557.87897799956,-453.4498397648144,-187500.02235174447,-187500.02235174447,-187500.02235174447,-187500.02235174447,-187500.02235174447,1730243045.920585,1730243045.843918,2000
3670.514067472705,-105505.97822737436,-499.9414682318531,-187500.02235174447,-187500.02235174447,-187500.02235174447,-187500.02235174447,-187500.02235174447,1730243045.9246323,1730243045.843918,2000
3685.4450327688496,-105507.31933204166,-516.4817591287803,-187500.02235174447,-187500.02235174447,-187500.02235174447,-187500.02235174447,-187500.02235174447,1730243045.929655,1730243045.843918,2000
3695.100986373543,-105611.5678681812,-474.95221793081976,-187500.02235174447,-187500.02235174447,-187500.02235174447,-187500.02235174447,-187500.02235174447,1730243045.9327323,1730243045.843918,2000
3681.600532722537,-105590.28900745977,-455.9532351438088,-187500.02235174447,-187500.02235174447,-187500.02235174447,-187500.02235174447,-187500.02235174447,1730243045.936586,1730243045.843918,2000
3685.266218813207,-105613.31130424874,-486.1504419029286,-187500.02235174447,-187500.02235174447,-187500.02235174447,-187500.02235174447,-187500.02235174447,1730243045.9406776,1730243045.843918,2000
3691.144727604953,-105606.20344951194,-517.1746632068948,-187500.02235174447,-187500.02235174447,-187500.02235174447,-187500.02235174447,-187500.02235174447,1730243045.9446516,1730243045.843918,2000
3694.9668759068095,-105654.3938105576,-488.0279884371744,-187500.02235174447,-187500.02235174447,-187500.02235174447,-187500.02235174447,-187500.02235174447,1730243045.9487965,1730243045.843918,2000
3685.556791491126,-105671.40348808808,-456.6461392219233,-187500.02235174447,-187500.02235174447,-187500.02235174447,-187500.02235174447,-187500.02235174447,1730243045.9536066,1730243045.843918,2000
3687.791965936657,-105634.14313008108,-479.2214011217834,-187500.02235174447,-187500.02235174447,-187500.02235174447,-187500.02235174447,-187500.02235174447,1730243045.9568136,1730243045.843918,2000
3689.3118845596177,-105691.92238949804,-503.9647822338084,-187500.02235174447,-187500.02235174447,-187500.02235174447,-187500.02235174447,-187500.02235174447,1730243045.959718,1730243045.843918,2000
3692.686997972369,-105769.39353578014,-489.5702588045906,-187500.02235174447,-187500.02235174447,-187500.02235174447,-187500.02235174447,-187500.02235174447,1730243045.964679,1730243045.843918,2000
3686.875544413989,-105712.1060147412,-460.3788805459596,-187500.02235174447,-187500.02235174447,-187500.02235174447,-187500.02235174447,-187500.02235174447,1730243045.9687057,1730243045.843918,2000
3684.662721712914,-105730.61325915018,-466.7938312046327,-187500.02235174447,-187500.02235174447,-187500.02235174447,-187500.02235174447,-187500.02235174447,1730243045.9727623,1730243045.843918,2000
3682.5840094785694,-105752.04858208282,-511.4749683707915,-187500.02235174447,-187500.02235174447,-187500.02235174447,-187500.02235174447,-187500.02235174447,1730243045.976827,1730243045.843918,2000
3688.082538614576,-105723.43834918004,-502.48956709975806,-187500.02235174447,-187500.02235174447,-187500.02235174447,-187500.02235174447,-187500.02235174447,1730243045.9807627,1730243045.843918,2000
3694.9445241623553,-105834.95120226756,-453.8745229094652,-187500.02235174447,-187500.02235174447,-187500.02235174447,-187500.02235174447,-187500.02235174447,1730243045.9847991,1730243045.843918,2000
3681.980512378277,-105807.54796356536,-462.3234823135713,-187500.02235174447,-187500.02235174447,-187500.02235174447,-187500.02235174447,-187500.02235174447,1730243045.9877295,1730243045.843918,2000
3682.315788545107,-105737.47524469795,-504.7917967786547,-187500.02235174447,-187500.02235174447,-187500.02235174447,-187500.02235174447,-187500.02235174447,1730243045.9928253,1730243045.843918,2000
3695.950352662844,-105812.5771060678,-503.04836071114073,-187500.02235174447,-187500.02235174447,-187500.02235174447,-187500.02235174447,-187500.02235174447,1730243045.9968567,1730243045.843918,2000
3690.273009571196,-105855.87243507772,-464.2904358256383,-187500.02235174447,-187500.02235174447,-187500.02235174447,-187500.02235174447,-187500.02235174447,1730243046.0007665,1730243045.843918,2000
3680.1923728218526,-105818.6791323041,-462.1446683579288,-187500.02235174447,-187500.02235174447,-187500.02235174447,-187500.02235174447,-187500.02235174447,1730243046.0047455,1730243045.843918,2000
3677.666625698402,-105844.20482447204,-501.5954973215458,-187500.02235174447,-187500.02235174447,-187500.02235174447,-187500.02235174447,-187500.02235174447,1730243046.0087705,1730243045.843918,2000
3687.434338025372,-105846.4847024065,-512.3466864045484,-187500.02235174447,-187500.02235174447,-187500.02235174447,-187500.02235174447,-187500.02235174447,1730243046.0127542,1730243045.843918,2000
3690.5859339935705,-105894.51860124095,-476.36037783150414,-187500.02235174447,-187500.02235174447,-187500.02235174447,-187500.02235174447,-187500.02235174447,1730243046.0157804,1730243045.843918,2000
3681.734643189269,-105865.6848508936,-460.3565288015043,-187500.02235174447,-187500.02235174447,-187500.02235174447,-187500.02235174447,-187500.02235174447,1730243046.019762,1730243045.843918,2000
3684.7074252018247,-105906.27561882444,-486.686883769856,-187500.02235174447,-187500.02235174447,-187500.02235174447,-187500.02235174447,-187500.02235174447,1730243046.02491,1730243045.843918,2000
3693.6481229839474,-105969.19577946611,-508.4574828693251,-187500.02235174447,-187500.02235174447,-187500.02235174447,-187500.02235174447,-187500.02235174447,1730243046.028823,1730243045.843918,2000
3692.083500872076,-105932.87419472626,-481.0318924226633,-187500.02235174447,-187500.02235174447,-187500.02235174447,-187500.02235174447,-187500.02235174447,1730243046.032896,1730243045.843918,2000
3686.137936846964,-105957.03643048245,-451.9299211418535,-187500.02235174447,-187500.02235174447,-187500.02235174447,-187500.02235174447,-187500.02235174447,1730243046.0369067,1730243045.843918,2000
3677.174887320386,-105907.68377872511,-486.2845523696605,-187500.02235174447,-187500.02235174447,-187500.02235174447,-187500.02235174447,-187500.02235174447,1730243046.039991,1730243045.843918,2000
3689.3118845596177,-105976.25893071402,-514.9618405058194,-187500.02235174447,-187500.02235174447,-187500.02235174447,-187500.02235174447,-187500.02235174447,1730243046.043937,1730243045.843918,2000
3690.5188787602046,-106016.71558817812,-497.2145554083056,-187500.02235174447,-187500.02235174447,-187500.02235174447,-187500.02235174447,-187500.02235174447,1730243046.0479617,1730243045.843918,2000
3682.2040298228303,-106009.96536135262,-464.849229437021,-187500.02235174447,-187500.02235174447,-187500.02235174447,-187500.02235174447,-187500.02235174447,1730243046.0528986,1730243045.843918,2000
3671.1175645729977,-106033.61350698632,-483.55763954611297,-187500.02235174447,-187500.02235174447,-187500.02235174447,-187500.02235174447,-187500.02235174447,1730243046.0568335,1730243045.843918,2000
3682.360492034017,-106037.81563494392,-522.5167301317132,-187500.02235174447,-187500.02235174447,-187500.02235174447,-187500.02235174447,-187500.02235174447,1730243046.0608332,1730243045.843918,2000
3695.592724751559,-105992.84392509983,-504.009485722719,-187500.02235174447,-187500.02235174447,-187500.02235174447,-187500.02235174447,-187500.02235174447,1730243046.0639665,1730243045.843918,2000
3690.407120037928,-106061.50848406657,-456.4002700329149,-187500.02235174447,-187500.02235174447,-187500.02235174447,-187500.02235174447,-187500.02235174447,1730243046.0678127,1730243045.843918,2000
3676.0125966087103,-106089.85049603588,-470.817145206588,-187500.02235174447,-187500.02235174447,-187500.02235174447,-187500.02235174447,-187500.02235174447,1730243046.0718129,1730243045.843918,2000
3680.01355886621,-106016.31325677792,-518.3816574074814,-187500.02235174447,-187500.02235174447,-187500.02235174447,-187500.02235174447,-187500.02235174447,1730243046.075848,1730243045.843918,2000
3691.6364659829696,-106093.538533871,-509.5974218365457,-187500.02235174447,-187500.02235174447,-187500.02235174447,-187500.02235174447,-187500.02235174447,1730243046.0809543,1730243045.843918,2000
3678.8959716434447,-106121.38880746232,-472.9182091853869,-187500.02235174447,-187500.02235174447,-187500.02235174447,-187500.02235174447,-187500.02235174447,1730243046.0849683,1730243045.843918,2000
3680.706462944325,-106088.37528090183,-470.7053864843114,-187500.02235174447,-187500.02235174447,-187500.02235174447,-187500.02235174447,-187500.02235174447,1730243046.0888824,1730243045.843918,2000
3686.9649513918102,-106104.15561248727,-496.94633447484193,-187500.02235174447,-187500.02235174447,-187500.02235174447,-187500.02235174447,-187500.02235174447,1730243046.0920007,1730243045.843918,2000
3689.4459950263495,-106188.68991001724,-505.976439234786,-187500.02235174447,-187500.02235174447,-187500.02235174447,-187500.02235174447,-187500.02235174447,1730243046.095847,1730243045.843918,2000
3683.567486234604,-106180.93385469126,-473.1640783743952,-187500.02235174447,-187500.02235174447,-187500.02235174447,-187500.02235174447,-187500.02235174447,1730243046.100016,1730243045.843918,2000
3676.817259409101,-106181.85027621393,-458.6801479673562,-187500.02235174447,-187500.02235174447,-187500.02235174447,-187500.02235174447,-187500.02235174447,1730243046.1038904,1730243045.843918,2000
3673.7103669298135,-106217.07662547549,-497.3039623861269,-187500.02235174447,-187500.02235174447,-187500.02235174447,-187500.02235174447,-187500.02235174447,1730243046.1079786,1730243045.843918,2000
3680.2370763107633,-106182.65493901432,-518.5381196186686,-187500.02235174447,-187500.02235174447,-187500.02235174447,-187500.02235174447,-187500.02235174447,1730243046.1129496,1730243045.843918,2000
3688.7754426926895,-106248.95021306876,-479.7131394998002,-187500.02235174447,-187500.02235174447,-187500.02235174447,-187500.02235174447,-187500.02235174447,1730243046.1170404,1730243045.843918,2000
3685.668550213403,-106231.6723146048,-460.6918049683339,-187500.02235174447,-187500.02235174447,-187500.02235174447,-187500.02235174447,-187500.02235174447,1730243046.1199942,1730243045.843918,2000
3678.046605354143,-106245.15041651136,-493.6606280399118,-187500.02235174447,-187500.02235174447,-187500.02235174447,-187500.02235174447,-187500.02235174447,1730243046.123973,1730243045.843918,2000
3681.801698422634,-106242.46820717672,-519.879224285987,-187500.02235174447,-187500.02235174447,-187500.02235174447,-187500.02235174447,-187500.02235174447,1730243046.128016,1730243045.843918,2000
3691.077672371587,-106300.87331543844,-488.072691926085,-187500.02235174447,-187500.02235174447,-187500.02235174447,-187500.02235174447,-187500.02235174447,1730243046.1320522,1730243045.843918,2000
3683.992169379255,-106313.81497547806,-461.0494328796188,-187500.02235174447,-187500.02235174447,-187500.02235174447,-187500.02235174447,-187500.02235174447,1730243046.136026,1730243045.843918,2000
3678.6053989655256,-106264.9764138432,-489.1008721710292,-187500.02235174447,-187500.02235174447,-187500.02235174447,-187500.02235174447,-187500.02235174447,1730243046.1409492,1730243045.843918,2000
3683.813355423613,-106284.64594896388,-520.9074045309311,-187500.02235174447,-187500.02235174447,-187500.02235174447,-187500.02235174447,-187500.02235174447,1730243046.1450706,1730243045.843918,2000
3688.440166525861,-106345.5991560935,-497.7957007641436,-187500.02235174447,-187500.02235174447,-187500.02235174447,-187500.02235174447,-187500.02235174447,1730243046.1481104,1730243045.843918,2000
3684.215686823808,-106339.4077228794,-465.8327061930545,-187500.02235174447,-187500.02235174447,-187500.02235174447,-187500.02235174447,-187500.02235174447,1730243046.1520765,1730243045.843918,2000
3674.53738147466,-106281.22613206222,-486.5527733031241,-187500.02235174447,-187500.02235174447,-187500.02235174447,-187500.02235174447,-187500.02235174447,1730243046.1561377,1730243045.843918,2000
3671.654006439925,-106353.69048758633,-524.1260557324953,-187500.02235174447,-187500.02235174447,-187500.02235174447,-187500.02235174447,-187500.02235174447,1730243046.1600232,1730243045.843918,2000
3691.859983427523,-106401.76908990968,-511.0949887150513,-187500.02235174447,-187500.02235174447,-187500.02235174447,-187500.02235174447,-187500.02235174447,1730243046.1640477,1730243045.843918,2000
3687.836669425568,-106384.44648795684,-466.01152014869695,-187500.02235174447,-187500.02235174447,-187500.02235174447,-187500.02235174447,-187500.02235174447,1730243046.169114,1730243045.843918,2000
3673.48684948526,-106400.80796489812,-472.22530510727233,-187500.02235174447,-187500.02235174447,-187500.02235174447,-187500.02235174447,-187500.02235174447,1730243046.172202,1730243045.843918,2000
3676.258465797719,-106358.4514091553,-513.3972183939479,-187500.02235174447,-187500.02235174447,-187500.02235174447,-187500.02235174447,-187500.02235174447,1730243046.1760185,1730243045.843918,2000
3689.602457237537,-106416.38713078346,-510.5361951036686,-187500.02235174447,-187500.02235174447,-187500.02235174447,-187500.02235174447,-187500.02235174447,1730243046.180156,1730243045.843918,2000
3684.2603903127183,-106467.88555000848,-473.34289233003767,-187500.02235174447,-187500.02235174447,-187500.02235174447,-187500.02235174447,-187500.02235174447,1730243046.1840415,1730243045.843918,2000
3674.53738147466,-106440.23644211728,-465.1174503704847,-187500.02235174447,-187500.02235174447,-187500.02235174447,-187500.02235174447,-187500.02235174447,1730243046.1880584,1730243045.843918,2000
3676.370224519995,-106484.29173043868,-500.9472967323419,-187500.02235174447,-187500.02235174447,-187500.02235174447,-187500.02235174447,-187500.02235174447,1730243046.192231,1730243045.843918,2000
3681.8464019115454,-106490.95255028635,-520.3709626640037,-187500.02235174447,-187500.02235174447,-187500.02235174447,-187500.02235174447,-187500.02235174447,1730243046.1960795,1730243045.843918,2000
3680.5500007331375,-106454.89918647996,-488.6761890263783,-187500.02235174447,-187500.02235174447,-187500.02235174447,-187500.02235174447,-187500.02235174447,1730243046.2002184,1730243045.843918,2000
3676.169058819897,-106547.16718759146,-462.4799445247584,-187500.02235174447,-187500.02235174447,-187500.02235174447,-187500.02235174447,-187500.02235174447,1730243046.2031713,1730243045.843918,2000
3665.753145903724,-106568.44604831292,-497.8627559975095,-187500.02235174447,-187500.02235174447,-187500.02235174447,-187500.02235174447,-187500.02235174447,1730243046.2081487,1730243045.843918,2000
3680.9299803888775,-106549.0000306368,-521.3320876755819,-187500.02235174447,-187500.02235174447,-187500.02235174447,-187500.02235174447,-187500.02235174447,1730243046.2120805,1730243045.843918,2000
3690.675340971392,-106588.69672878942,-483.3117703571046,-187500.02235174447,-187500.02235174447,-187500.02235174447,-187500.02235174447,-187500.02235174447,1730243046.216142,1730243045.843918,2000
3676.3925762644494,-106571.150609392,-459.4177555343813,-187500.02235174447,-187500.02235174447,-187500.02235174447,-187500.02235174447,-187500.02235174447,1730243046.2200396,1730243045.843918,2000
3669.5752942055815,-106583.93580722043,-493.9959042067414,-187500.02235174447,-187500.02235174447,-187500.02235174447,-187500.02235174447,-187500.02235174447,1730243046.2240736,1730243045.843918,2000
3681.421718766895,-106561.24878659831,-524.9754220217969,-187500.02235174447,-187500.02235174447,-187500.02235174447,-187500.02235174447,-187500.02235174447,1730243046.2280695,1730243045.843918,2000
3690.004788637733,-106625.8676798186,-492.654799539423,-187500.02235174447,-187500.02235174447,-187500.02235174447,-187500.02235174447,-187500.02235174447,1730243046.2321277,1730243045.843918,2000
3681.4440705113498,-106633.53432816676,-461.4741160242696,-187500.02235174447,-187500.02235174447,-187500.02235174447,-187500.02235174447,-187500.02235174447,1730243046.2360845,1730243045.843918,2000
3674.179753563375,-106582.99703395332,-485.6810552693672,-187500.02235174447,-187500.02235174447,-187500.02235174447,-187500.02235174447,-187500.02235174447,1730243046.2401593,1730243045.843918,2000
3679.946503632844,-106613.75303432382,-518.9180992744087,-187500.02235174447,-187500.02235174447,-187500.02235174447,-187500.02235174447,-187500.02235174447,1730243046.243216,1730243045.843918,2000
3685.0874048575647,-106701.8859627111,-503.58480257806815,-187500.02235174447,-187500.02235174447,-187500.02235174447,-187500.02235174447,-187500.02235174447,1730243046.2481513,1730243045.843918,2000
3681.354663533528,-106681.54587525676,-468.9843021612528,-187500.02235174447,-187500.02235174447,-187500.02235174447,-187500.02235174447,-187500.02235174447,1730243046.2521353,1730243045.843918,2000
3672.7492419182354,-106681.6799857235,-471.6665114958896,-187500.02235174447,-187500.02235174447,-187500.02235174447,-187500.02235174447,-187500.02235174447,1730243046.2561688,1730243045.843918,2000
3671.072861084088,-106702.55651504477,-515.4088753949255,-187500.02235174447,-187500.02235174447,-187500.02235174447,-187500.02235174447,-187500.02235174447,1730243046.2601428,1730243045.843918,2000
3680.2370763107633,-106673.74511644187,-513.2854596716713,-187500.02235174447,-187500.02235174447,-187500.02235174447,-187500.02235174447,-187500.02235174447,1730243046.26429,1730243045.843918,2000
3683.4110240234168,-106774.86440835768,-468.0902323830405,-187500.02235174447,-187500.02235174447,-187500.02235174447,-187500.02235174447,-187500.02235174447,1730243046.2681549,1730243045.843918,2000
3667.764802904702,-106750.38924817913,-475.555715031113,-187500.02235174447,-187500.02235174447,-187500.02235174447,-187500.02235174447,-187500.02235174447,1730243046.2711835,1730243045.843918,2000
3672.145744817942,-106670.45941000694,-515.3418201615597,-187500.02235174447,-187500.02235174447,-187500.02235174447,-187500.02235174447,-187500.02235174447,1730243046.2762356,1730243045.843918,2000
3691.032968882677,-106707.3844918471,-513.8666050275094,-187500.02235174447,-187500.02235174447,-187500.02235174447,-187500.02235174447,-187500.02235174447,1730243046.280352,1730243045.843918,2000
3692.5752392500926,-106788.09664107522,-469.3866335614483,-187500.02235174447,-187500.02235174447,-187500.02235174447,-187500.02235174447,-187500.02235174447,1730243046.2843652,1730243045.843918,2000
3675.3867477639615,-106836.21994688748,-460.1106596124959,-187500.02235174447,-187500.02235174447,-187500.02235174447,-187500.02235174447,-187500.02235174447,1730243046.2882483,1730243045.843918,2000
3672.637483195959,-106769.94702457752,-513.3525149050373,-187500.02235174447,-187500.02235174447,-187500.02235174447,-187500.02235174447,-187500.02235174447,1730243046.292189,1730243045.843918,2000
3685.48973625776,-106780.22882702696,-523.0531719986406,-187500.02235174447,-187500.02235174447,-187500.02235174447,-187500.02235174447,-187500.02235174447,1730243046.2962294,1730243045.843918,2000
3691.412948538417,-106885.39378468916,-475.8686394534874,-187500.02235174447,-187500.02235174447,-187500.02235174447,-187500.02235174447,-187500.02235174447,1730243046.299314,1730243045.843918,2000
3687.881372914478,-106913.22170653605,-453.4274880203591,-187500.02235174447,-187500.02235174447,-187500.02235174447,-187500.02235174447,-187500.02235174447,1730243046.303481,1730243045.843918,2000
3674.3809192634726,-106919.3460845168,-494.1076629290179,-187500.02235174447,-187500.02235174447,-187500.02235174447,-187500.02235174447,-187500.02235174447,1730243046.3082523,1730243045.843918,2000
3673.308035529618,-106862.99733674496,-523.1202272320065,-187500.02235174447,-187500.02235174447,-187500.02235174447,-187500.02235174447,-187500.02235174447,1730243046.3122163,1730243045.843918,2000
3685.333274046573,-106893.66393013764,-491.91719197239786,-187500.02235174447,-187500.02235174447,-187500.02235174447,-187500.02235174447,-187500.02235174447,1730243046.3162208,1730243045.843918,2000
3678.046605354143,-107003.20982971309,-456.51202875519147,-187500.02235174447,-187500.02235174447,-187500.02235174447,-187500.02235174447,-187500.02235174447,1730243046.320243,1730243045.843918,2000
3665.999015092733,-106942.12251211674,-490.9337152163643,-187500.02235174447,-187500.02235174447,-187500.02235174447,-187500.02235174447,-187500.02235174447,1730243046.3243468,1730243045.843918,2000
3677.845439654045,-106894.75916561596,-521.6450120979563,-187500.02235174447,-187500.02235174447,-187500.02235174447,-187500.02235174447,-187500.02235174447,1730243046.32725,1730243045.843918,2000
3688.2837043146737,-106978.3546898788,-492.0960059280403,-187500.02235174447,-187500.02235174447,-187500.02235174447,-187500.02235174447,-187500.02235174447,1730243046.3313608,1730243045.843918,2000
3674.3362157745614,-106991.3634051518,-460.04360437913,-187500.02235174447,-187500.02235174447,-187500.02235174447,-187500.02235174447,-187500.02235174447,1730243046.3363273,1730243045.843918,2000
3663.2497505247297,-106970.1963031526,-482.3059418566158,-187500.02235174447,-187500.02235174447,-187500.02235174447,-187500.02235174447,-187500.02235174447,1730243046.3403516,1730243045.843918,2000
3681.8464019115454,-106988.61414058378,-518.1134364740177,-187500.02235174447,-187500.02235174447,-187500.02235174447,-187500.02235174447,-187500.02235174447,1730243046.3444216,1730243045.843918,2000
3688.507221759227,-106984.16614343718,-504.3894653784592,-187500.02235174447,-187500.02235174447,-187500.02235174447,-187500.02235174447,-187500.02235174447,1730243046.347354,1730243045.843918,2000
3685.556791491126,-107014.8103850854,-464.73747071474446,-187500.02235174447,-187500.02235174447,-187500.02235174447,-187500.02235174447,-187500.02235174447,1730243046.3515203,1730243045.843918,2000
3670.558770961615,-107056.18346407216,-472.6499882519232,-187500.02235174447,-187500.02235174447,-187500.02235174447,-187500.02235174447,-187500.02235174447,1730243046.355451,1730243045.843918,2000
3670.514067472705,-107035.508100451,-513.5760323495904,-187500.02235174447,-187500.02235174447,-187500.02235174447,-187500.02235174447,-187500.02235174447,1730243046.3594668,1730243045.843918,2000
3685.221515324296,-107110.8334792654,-509.105683458529,-187500.02235174447,-187500.02235174447,-187500.02235174447,-187500.02235174447,-187500.02235174447,1730243046.36452,1730243045.843918,2000
3681.332311789073,-107103.21153440612,-470.7724417176773,-187500.02235174447,-187500.02235174447,-187500.02235174447,-187500.02235174447,-187500.02235174447,1730243046.368513,1730243045.843918,2000
3675.3643960195054,-107108.01715946404,-466.95029341581983,-187500.02235174447,-187500.02235174447,-187500.02235174447,-187500.02235174447,-187500.02235174447,1730243046.3723772,1730243045.843918,2000
3670.558770961615,-107070.01919389,-511.1620439484172,-187500.02235174447,-187500.02235174447,-187500.02235174447,-187500.02235174447,-187500.02235174447,1730243046.3754315,1730243045.843918,2000
3689.6918642153582,-107091.29805461146,-515.3641719060149,-187500.02235174447,-187500.02235174447,-187500.02235174447,-187500.02235174447,-187500.02235174447,1730243046.3793216,1730243045.843918,2000
3691.010617138221,-107173.08308757342,-471.6441597514343,-187500.02235174447,-187500.02235174447,-187500.02235174447,-187500.02235174447,-187500.02235174447,1730243046.383525,1730243045.843918,2000
3671.3634337620074,-107122.74695906008,-462.88227592495394,-187500.02235174447,-187500.02235174447,-187500.02235174447,-187500.02235174447,-187500.02235174447,1730243046.3873916,1730243045.843918,2000
3671.095212828543,-107113.15806068874,-501.17081417689496,-187500.02235174447,-187500.02235174447,-187500.02235174447,-187500.02235174447,-187500.02235174447,1730243046.3915849,1730243045.843918,2000
3678.180715820875,-107097.69065352569,-522.2261574537943,-187500.02235174447,-187500.02235174447,-187500.02235174447,-187500.02235174447,-187500.02235174447,1730243046.39642,1730243045.843918,2000
3684.774480435191,-107185.08597434592,-485.1669651468951,-187500.02235174447,-187500.02235174447,-187500.02235174447,-187500.02235174447,-187500.02235174447,1730243046.4005969,1730243045.843918,2000
3671.139916317453,-107200.3969192978,-467.77730796066623,-187500.02235174447,-187500.02235174447,-187500.02235174447,-187500.02235174447,-187500.02235174447,1730243046.403387,1730243045.843918,2000
3671.4751924842826,-107159.51557868904,-501.394331621448,-187500.02235174447,-187500.02235174447,-187500.02235174447,-187500.02235174447,-187500.02235174447,1730243046.407557,1730243045.843918,2000
3683.63454146797,-107195.23366632864,-520.6615353419227,-187500.02235174447,-187500.02235174447,-187500.02235174447,-187500.02235174447,-187500.02235174447,1730243046.4114606,1730243045.843918,2000
3691.211782838319,-107239.46776860568,-492.0289506946744,-187500.02235174447,-187500.02235174447,-187500.02235174447,-187500.02235174447,-187500.02235174447,1730243046.4155693,1730243045.843918,2000
3677.8677913985007,-107189.556323237,-465.8997614264204,-187500.02235174447,-187500.02235174447,-187500.02235174447,-187500.02235174447,-187500.02235174447,1730243046.4195418,1730243045.843918,2000
3676.593741964548,-107247.64850707632,-484.02702617967446,-187500.02235174447,-187500.02235174447,-187500.02235174447,-187500.02235174447,-187500.02235174447,1730243046.4245417,1730243045.843918,2000
3676.973721620288,-107230.2588498901,-520.0133347527188,-187500.02235174447,-187500.02235174447,-187500.02235174447,-187500.02235174447,-187500.02235174447,1730243046.427461,1730243045.843918,2000
3687.680207214381,-107286.00410056164,-500.2543926542274,-187500.02235174447,-187500.02235174447,-187500.02235174447,-187500.02235174447,-187500.02235174447,1730243046.4315684,1730243045.843918,2000
3683.6792449568807,-107265.6193096184,-471.53240102915777,-187500.02235174447,-187500.02235174447,-187500.02235174447,-187500.02235174447,-187500.02235174447,1730243046.4355187,1730243045.843918,2000
3674.0679948410975,-107247.24617567612,-485.6140000360013,-187500.02235174447,-187500.02235174447,-187500.02235174447,-187500.02235174447,-187500.02235174447,1730243046.4395297,1730243045.843918,2000
3678.672454198892,-107302.4326327363,-514.3583434055262,-187500.02235174447,-187500.02235174447,-187500.02235174447,-187500.02235174447,-187500.02235174447,1730243046.4436245,1730243045.843918,2000
3684.841535668557,-107320.71635970072,-502.5342705886687,-187500.02235174447,-187500.02235174447,-187500.02235174447,-187500.02235174447,-187500.02235174447,1730243046.447636,1730243045.843918,2000
3679.454765254828,-107396.01938677064,-467.35262481601535,-187500.02235174447,-187500.02235174447,-187500.02235174447,-187500.02235174447,-187500.02235174447,1730243046.4526742,1730243045.843918,2000
3674.135050074464,-107357.08264792952,-479.0202354216856,-187500.02235174447,-187500.02235174447,-187500.02235174447,-187500.02235174447,-187500.02235174447,1730243046.4555173,1730243045.843918,2000
3675.945541375344,-107328.7853394491,-514.6936195723557,-187500.02235174447,-187500.02235174447,-187500.02235174447,-187500.02235174447,-187500.02235174447,1730243046.459513,1730243045.843918,2000
3691.3458933050506,-107379.72496506272,-511.944355004353,-187500.02235174447,-187500.02235174447,-187500.02235174447,-187500.02235174447,-187500.02235174447,1730243046.4635017,1730243045.843918,2000
3685.534439746671,-107421.65683766088,-473.7452237302332,-187500.02235174447,-187500.02235174447,-187500.02235174447,-187500.02235174447,-187500.02235174447,1730243046.4675205,1730243045.843918,2000
3675.476154741783,-107391.3925756684,-470.9289039288645,-187500.02235174447,-187500.02235174447,-187500.02235174447,-187500.02235174447,-187500.02235174447,1730243046.4716384,1730243045.843918,2000
3676.884314642467,-107433.8608901335,-509.7091805588223,-187500.02235174447,-187500.02235174447,-187500.02235174447,-187500.02235174447,-187500.02235174447,1730243046.475603,1730243045.843918,2000
3685.914419402411,-107406.2564857312,-523.3213929321042,-187500.02235174447,-187500.02235174447,-187500.02235174447,-187500.02235174447,-187500.02235174447,1730243046.4806838,1730243045.843918,2000
3687.657855469925,-107478.2738063662,-476.9415231873421,-187500.02235174447,-187500.02235174447,-187500.02235174447,-187500.02235174447,-187500.02235174447,1730243046.483612,1730243045.843918,2000
3673.4421459963496,-107437.83950064654,-464.4916015257361,-187500.02235174447,-187500.02235174447,-187500.02235174447,-187500.02235174447,-187500.02235174447,1730243046.4875383,1730243045.843918,2000
3674.58208496357,-107404.6024566415,-500.3214478875933,-187500.02235174447,-187500.02235174447,-187500.02235174447,-187500.02235174447,-187500.02235174447,1730243046.4917507,1730243045.843918,2000
3689.244829326252,-107474.60812027552,-520.7062388308333,-187500.02235174447,-187500.02235174447,-187500.02235174447,-187500.02235174447,-187500.02235174447,1730243046.4955404,1730243045.843918,2000
3684.461556012816,-107511.10851897104,-487.1786221478727,-187500.02235174447,-187500.02235174447,-187500.02235174447,-187500.02235174447,-187500.02235174447,1730243046.4997067,1730243045.843918,2000
3674.4479744968394,-107501.13964094396,-461.3847090464484,-187500.02235174447,-187500.02235174447,-187500.02235174447,-187500.02235174447,-187500.02235174447,1730243046.5035336,1730243045.843918,2000
3668.502410471727,-107555.633193926,-488.2962093706381,-187500.02235174447,-187500.02235174447,-187500.02235174447,-187500.02235174447,-187500.02235174447,1730243046.506666,1730243045.843918,2000
3677.0407768536543,-107523.82666156613,-525.7577330777327,-187500.02235174447,-187500.02235174447,-187500.02235174447,-187500.02235174447,-187500.02235174447,1730243046.5107372,1730243045.843918,2000
3693.1563846059303,-107503.79949853416,-497.8404042530542,-187500.02235174447,-187500.02235174447,-187500.02235174447,-187500.02235174447,-187500.02235174447,1730243046.514737,1730243045.843918,2000
3687.9037246589337,-107600.35903458108,-457.6072642335015,-187500.02235174447,-187500.02235174447,-187500.02235174447,-187500.02235174447,-187500.02235174447,1730243046.5197456,1730243045.843918,2000
3672.525724473682,-107603.93531369392,-484.8987442134314,-187500.02235174447,-187500.02235174447,-187500.02235174447,-187500.02235174447,-187500.02235174447,1730243046.5237684,1730243045.843918,2000
3676.034948353165,-107576.42031626945,-521.6450120979563,-187500.02235174447,-187500.02235174447,-187500.02235174447,-187500.02235174447,-187500.02235174447,1730243046.5276418,1730243045.843918,2000
3683.880410656978,-107614.53004056576,-505.6635148124117,-187500.02235174447,-187500.02235174447,-187500.02235174447,-187500.02235174447,-187500.02235174447,1730243046.53167,1730243045.843918,2000
3681.511125744716,-107632.16556694098,-468.17963936086176,-187500.02235174447,-187500.02235174447,-187500.02235174447,-187500.02235174447,-187500.02235174447,1730243046.53463,1730243045.843918,2000
3669.463535483305,-107653.42207591796,-479.8248982220768,-187500.02235174447,-187500.02235174447,-187500.02235174447,-187500.02235174447,-187500.02235174447,1730243046.5387511,1730243045.843918,2000
3667.183657548864,-107599.15204038048,-521.3544394200372,-187500.02235174447,-187500.02235174447,-187500.02235174447,-187500.02235174447,-187500.02235174447,1730243046.542762,1730243045.843918,2000
3685.4226810243945,-107651.18690147244,-515.2300614392831,-187500.02235174447,-187500.02235174447,-187500.02235174447,-187500.02235174447,-187500.02235174447,1730243046.5477493,1730243045.843918,2000
3685.579143235581,-107682.99343383237,-480.0260639221745,-187500.02235174447,-187500.02235174447,-187500.02235174447,-187500.02235174447,-187500.02235174447,1730243046.5517547,1730243045.843918,2000
3685.4450327688496,-107621.28026739124,-486.7092355143113,-187500.02235174447,-187500.02235174447,-187500.02235174447,-187500.02235174447,-187500.02235174447,1730243046.555776,1730243045.843918,2000
3701.4265300543934,-107674.7679918728,-519.3874859079702,-187500.02235174447,-187500.02235174447,-187500.02235174447,-187500.02235174447,-187500.02235174447,1730243046.559794,1730243045.843918,2000
3706.2545068567406,-107738.1351874036,-517.1523114624395,-187500.02235174447,-187500.02235174447,-187500.02235174447,-187500.02235174447,-187500.02235174447,1730243046.5626628,1730243045.843918,2000
3693.2681433282073,-107695.10807932712,-480.3613400890041,-187500.02235174447,-187500.02235174447,-187500.02235174447,-187500.02235174447,-187500.02235174447,1730243046.5666797,1730243045.843918,2000
3649.3469654735286,-107743.16432990604,-462.6811102248562,-187500.02235174447,-187500.02235174447,-187500.02235174447,-187500.02235174447,-187500.02235174447,1730243046.5706894,1730243045.843918,2000
3658.667642911392,-107751.21095790996,-509.4409596253586,-187500.02235174447,-187500.02235174447,-187500.02235174447,-187500.02235174447,-187500.02235174447,1730243046.5758555,1730243045.843918,2000
3707.394445823961,-107720.23144009488,-530.7421720912662,-187500.02235174447,-187500.02235174447,-187500.02235174447,-187500.02235174447,-187500.02235174447,1730243046.5797472,1730243045.843918,2000
3700.711274231825,-107793.05342353028,-484.9434477023421,-187500.02235174447,-187500.02235174447,-187500.02235174447,-187500.02235174447,-187500.02235174447,1730243046.5838418,1730243045.843918,2000
3638.238148479241,-107744.75130376236,-462.92697941386456,-187500.02235174447,-187500.02235174447,-187500.02235174447,-187500.02235174447,-187500.02235174447,1730243046.5877316,1730243045.843918,2000
3646.932977072356,-107754.49666434489,-497.4827763417693,-187500.02235174447,-187500.02235174447,-187500.02235174447,-187500.02235174447,-187500.02235174447,1730243046.5908184,1730243045.843918,2000
3670.692881428347,-107785.02914727082,-524.7295528327886,-187500.02235174447,-187500.02235174447,-187500.02235174447,-187500.02235174447,-187500.02235174447,1730243046.5949826,1730243045.843918,2000
3682.9416373898553,-107811.33715049471,-492.364226861504,-187500.02235174447,-187500.02235174447,-187500.02235174447,-187500.02235174447,-187500.02235174447,1730243046.5988843,1730243045.843918,2000
3680.1700210773975,-107896.09496546924,-465.40802304840366,-187500.02235174447,-187500.02235174447,-187500.02235174447,-187500.02235174447,-187500.02235174447,1730243046.6027691,1730243045.843918,2000
3668.435355238361,-107841.73552295394,-495.22525015178326,-187500.02235174447,-187500.02235174447,-187500.02235174447,-187500.02235174447,-187500.02235174447,1730243046.6078076,1730243045.843918,2000
3675.923189630889,-107852.46436029248,-521.4885498867691,-187500.02235174447,-187500.02235174447,-187500.02235174447,-187500.02235174447,-187500.02235174447,1730243046.6117718,1730243045.843918,2000
3687.791965936657,-107890.10469795522,-498.041569953152,-187500.02235174447,-187500.02235174447,-187500.02235174447,-187500.02235174447,-187500.02235174447,1730243046.6148765,1730243045.843918,2000
3683.4110240234168,-107864.62370927616,-466.01152014869695,-187500.02235174447,-187500.02235174447,-187500.02235174447,-187500.02235174447,-187500.02235174447,1730243046.618885,1730243045.843918,2000
3679.9018001439335,-107911.85294531024,-479.9366569443533,-187500.02235174447,-187500.02235174447,-187500.02235174447,-187500.02235174447,-187500.02235174447,1730243046.6229036,1730243045.843918,2000
3676.72785243128,-107887.69070955404,-518.0463812406518,-187500.02235174447,-187500.02235174447,-187500.02235174447,-187500.02235174447,-187500.02235174447,1730243046.6270056,1730243045.843918,2000
3660.3216720010846,-107922.1794512486,-501.0367037101631,-187500.02235174447,-187500.02235174447,-187500.02235174447,-187500.02235174447,-187500.02235174447,1730243046.630969,1730243045.843918,2000
3662.601549935526,-107959.01512611091,-462.6140549914903,-187500.02235174447,-187500.02235174447,-187500.02235174447,-187500.02235174447,-187500.02235174447,1730243046.635813,1730243045.843918,2000
3664.143820302942,-107895.40206139113,-472.4488225518254,-187500.02235174447,-187500.02235174447,-187500.02235174447,-187500.02235174447,-187500.02235174447,1730243046.6399384,1730243045.843918,2000
3676.72785243128,-107927.72268387352,-513.039590482663,-187500.02235174447,-187500.02235174447,-187500.02235174447,-187500.02235174447,-187500.02235174447,1730243046.6429887,1730243045.843918,2000
3670.290550028152,-107948.06277132784,-520.3709626640037,-187500.02235174447,-187500.02235174447,-187500.02235174447,-187500.02235174447,-187500.02235174447,1730243046.6468985,1730243045.843918,2000
3660.478134212272,-107977.32120481983,-476.0698051535852,-187500.02235174447,-187500.02235174447,-187500.02235174447,-187500.02235174447,-187500.02235174447,1730243046.651175,1730243045.843918,2000
3659.181733033864,-108004.07624293285,-465.96681665978633,-187500.02235174447,-187500.02235174447,-187500.02235174447,-187500.02235174447,-187500.02235174447,1730243046.6549115,1730243045.843918,2000
3667.675395926881,-107987.15597238016,-513.1513492049395,-187500.02235174447,-187500.02235174447,-187500.02235174447,-187500.02235174447,-187500.02235174447,1730243046.6588428,1730243045.843918,2000
3681.734643189269,-107983.22206535604,-513.9560120053306,-187500.02235174447,-187500.02235174447,-187500.02235174447,-187500.02235174447,-187500.02235174447,1730243046.6628723,1730243045.843918,2000
3682.762823434213,-108072.6066914328,-471.3088835846047,-187500.02235174447,-187500.02235174447,-187500.02235174447,-187500.02235174447,-187500.02235174447,1730243046.6679049,1730243045.843918,2000
3691.189431093864,-108117.4219390657,-450.8570374079988,-187500.02235174447,-187500.02235174447,-187500.02235174447,-187500.02235174447,-187500.02235174447,1730243046.6709929,1730243045.843918,2000
3711.261297614729,-108040.44253116162,-500.3214478875933,-187500.02235174447,-187500.02235174447,-187500.02235174447,-187500.02235174447,-187500.02235174447,1730243046.674964,1730243045.843918,2000
3698.3866928084726,-108057.74278137002,-525.9588987778305,-187500.02235174447,-187500.02235174447,-187500.02235174447,-187500.02235174447,-187500.02235174447,1730243046.6788695,1730243045.843918,2000
3662.512142957705,-108126.8767269703,-474.5498865306242,-187500.02235174447,-187500.02235174447,-187500.02235174447,-187500.02235174447,-187500.02235174447,1730243046.682922,1730243045.843918,2000
3677.800736165135,-108090.04105210796,-467.5761422605684,-187500.02235174447,-187500.02235174447,-187500.02235174447,-187500.02235174447,-187500.02235174447,1730243046.6869352,1730243045.843918,2000
3693.6034194950366,-108061.09554303832,-496.7898722636548,-187500.02235174447,-187500.02235174447,-187500.02235174447,-187500.02235174447,-187500.02235174447,1730243046.6910107,1730243045.843918,2000
3677.510163487216,-108127.9719624486,-513.8442532830541,-187500.02235174447,-187500.02235174447,-187500.02235174447,-187500.02235174447,-187500.02235174447,1730243046.6959484,1730243045.843918,2000
3643.803732848613,-108140.86891899932,-495.1581949184173,-187500.02235174447,-187500.02235174447,-187500.02235174447,-187500.02235174447,-187500.02235174447,1730243046.6991165,1730243045.843918,2000
3632.694915854325,-108151.46364587112,-459.1942380898283,-187500.02235174447,-187500.02235174447,-187500.02235174447,-187500.02235174447,-187500.02235174447,1730243046.7031348,1730243045.843918,2000
3623.374238416462,-108193.10494579136,-477.1426888874399,-187500.02235174447,-187500.02235174447,-187500.02235174447,-187500.02235174447,-187500.02235174447,1730243046.7070224,1730243045.843918,2000
3646.821218350079,-108158.41503839674,-518.5157678742132,-187500.02235174447,-187500.02235174447,-187500.02235174447,-187500.02235174447,-187500.02235174447,1730243046.711146,1730243045.843918,2000
3694.2516200842406,-108174.26242521554,-500.9920002212525,-187500.02235174447,-187500.02235174447,-187500.02235174447,-187500.02235174447,-187500.02235174447,1730243046.7153032,1730243045.843918,2000
3740.8773590180112,-108242.81522545996,-464.1786771033618,-187500.02235174447,-187500.02235174447,-187500.02235174447,-187500.02235174447,-187500.02235174447,1730243046.7191453,1730243045.843918,2000
3705.718064989813,-108192.25557950206,-474.8851626974538,-187500.02235174447,-187500.02235174447,-187500.02235174447,-187500.02235174447,-187500.02235174447,1730243046.7231505,1730243045.843918,2000
3631.130293742453,-108215.90372513578,-508.3680758915039,-187500.02235174447,-187500.02235174447,-187500.02235174447,-187500.02235174447,-187500.02235174447,1730243046.726132,1730243045.843918,2000
3635.9806222892553,-108238.88131843584,-504.6800380563782,-187500.02235174447,-187500.02235174447,-187500.02235174447,-187500.02235174447,-187500.02235174447,1730243046.7302148,1730243045.843918,2000
3731.780199024701,-108219.21178331516,-473.2087818633058,-187500.02235174447,-187500.02235174447,-187500.02235174447,-187500.02235174447,-187500.02235174447,1730243046.735034,1730243045.843918,2000
3824.182310602941,-108203.74437615208,-470.0795376395628,-187500.02235174447,-187500.02235174447,-187500.02235174447,-187500.02235174447,-187500.02235174447,1730243046.7391548,1730243045.843918,2000
3690.742396204757,-108287.54106611504,-494.1300146734732,-187500.02235174447,-187500.02235174447,-187500.02235174447,-187500.02235174447,-187500.02235174447,1730243046.7430496,1730243045.843918,2000
3528.9828215817,-108291.67613883926,-496.3204856300933,-187500.02235174447,-187500.02235174447,-187500.02235174447,-187500.02235174447,-187500.02235174447,1730243046.7470937,1730243045.843918,2000
3566.80197320008,-108254.01344943208,-448.9124356403871,-187500.02235174447,-187500.02235174447,-187500.02235174447,-187500.02235174447,-187500.02235174447,1730243046.751011,1730243045.843918,2000
3614.14296795642,-108334.569136449,-454.1203920984736,-187500.02235174447,-187500.02235174447,-187500.02235174447,-187500.02235174447,-187500.02235174447,1730243046.7540476,1730243045.843918,2000
3622.6813343383474,-108282.73544105714,-507.4069508799256,-187500.02235174447,-187500.02235174447,-187500.02235174447,-187500.02235174447,-187500.02235174447,1730243046.7580607,1730243045.843918,2000
3659.0923260560426,-108304.0143017786,-496.5663548191017,-187500.02235174447,-187500.02235174447,-187500.02235174447,-187500.02235174447,-187500.02235174447,1730243046.7631738,1730243045.843918,2000
3687.434338025372,-108356.3844390374,-415.2954119796052,-187500.02235174447,-187500.02235174447,-187500.02235174447,-187500.02235174447,-187500.02235174447,1730243046.7671971,1730243045.843918,2000
3649.525779429171,-108301.64501686631,-440.0611448360855,-187500.02235174447,-187500.02235174447,-187500.02235174447,-187500.02235174447,-187500.02235174447,1730243046.7711322,1730243045.843918,2000
3665.529628459171,-108316.8665548404,-473.1417266299399,-187500.02235174447,-187500.02235174447,-187500.02235174447,-187500.02235174447,-187500.02235174447,1730243046.775174,1730243045.843918,2000
3693.2681433282073,-108402.2949221486,-495.4040641074257,-187500.02235174447,-187500.02235174447,-187500.02235174447,-187500.02235174447,-187500.02235174447,1730243046.778194,1730243045.843918,2000
3619.3509244145066,-108425.83130906004,-484.36230234650407,-187500.02235174447,-187500.02235174447,-187500.02235174447,-187500.02235174447,-187500.02235174447,1730243046.7821176,1730243045.843918,2000
3603.928220740345,-108416.35416941096,-432.6180139324682,-187500.02235174447,-187500.02235174447,-187500.02235174447,-187500.02235174447,-187500.02235174447,1730243046.7862916,1730243045.843918,2000
3635.488883911239,-108473.37346951646,-487.2233256367833,-187500.02235174447,-187500.02235174447,-187500.02235174447,-187500.02235174447,-187500.02235174447,1730243046.791263,1730243045.843918,2000
3756.858856303556,-108421.22684970225,-554.3232624916152,-187500.02235174447,-187500.02235174447,-187500.02235174447,-187500.02235174447,-187500.02235174447,1730243046.7951398,1730243045.843918,2000
4001.5881063447127,-108390.47084933172,-533.1338087479841,-187500.02235174447,-187500.02235174447,-187500.02235174447,-187500.02235174447,-187500.02235174447,1730243046.7992709,1730243045.843918,2000
3878.608808351613,-108456.11792279696,-478.6402557659454,-187500.02235174447,-187500.02235174447,-187500.02235174447,-187500.02235174447,-187500.02235174447,1730243046.8033302,1730243045.843918,2000
3479.652521568837,-108511.72906300177,-423.07381905005207,-187500.02235174447,-187500.02235174447,-187500.02235174447,-187500.02235174447,-187500.02235174447,1730243046.8072314,1730243045.843918,2000
3491.7448153191585,-108452.76516112869,-457.83078167805456,-187500.02235174447,-187500.02235174447,-187500.02235174447,-187500.02235174447,-187500.02235174447,1730243046.8104875,1730243045.843918,2000
3568.5230575231385,-108458.35309724248,-408.8581095764768,-187500.02235174447,-187500.02235174447,-187500.02235174447,-187500.02235174447,-187500.02235174447,1730243046.8143525,1730243045.843918,2000
3544.830208400513,-108542.32860116108,-424.4819789507365,-187500.02235174447,-187500.02235174447,-187500.02235174447,-187500.02235174447,-187500.02235174447,1730243046.8193188,1730243045.843918,2000
3602.2294881617413,-108523.15080441844,-497.1922036638503,-187500.02235174447,-187500.02235174447,-187500.02235174447,-187500.02235174447,-187500.02235174447,1730243046.8232348,1730243045.843918,2000
3663.093288313543,-108489.98081564676,-505.19412817885024,-187500.02235174447,-187500.02235174447,-187500.02235174447,-187500.02235174447,-187500.02235174447,1730243046.8273656,1730243045.843918,2000
3662.020404579688,-108554.53265363368,-464.5810085035573,-187500.02235174447,-187500.02235174447,-187500.02235174447,-187500.02235174447,-187500.02235174447,1730243046.8302777,1730243045.843918,2000
3708.042646413165,-108564.30036596063,-450.1194298409736,-187500.02235174447,-187500.02235174447,-187500.02235174447,-187500.02235174447,-187500.02235174447,1730243046.8342955,1730243045.843918,2000
3768.7052808648687,-108558.44420891337,-481.7694999896884,-187500.02235174447,-187500.02235174447,-187500.02235174447,-187500.02235174447,-187500.02235174447,1730243046.838298,1730243045.843918,2000
3765.106650007564,-108561.86402581504,-527.232948211783,-187500.02235174447,-187500.02235174447,-187500.02235174447,-187500.02235174447,-187500.02235174447,1730243046.842708,1730243045.843918,2000
3767.7441558532905,-108554.6220606115,-536.5089221607354,-187500.02235174447,-187500.02235174447,-187500.02235174447,-187500.02235174447,-187500.02235174447,1730243046.8475175,1730243045.843918,2000
3704.6675330004136,-108630.7968057152,-478.975531932775,-187500.02235174447,-187500.02235174447,-187500.02235174447,-187500.02235174447,-187500.02235174447,1730243046.8514369,1730243045.843918,2000
3696.0621113851207,-108620.13502361,-480.2719331111829,-187500.02235174447,-187500.02235174447,-187500.02235174447,-187500.02235174447,-187500.02235174447,1730243046.8553011,1730243045.843918,2000
3677.644273953948,-108625.99118065728,-500.6120205655123,-187500.02235174447,-187500.02235174447,-187500.02235174447,-187500.02235174447,-187500.02235174447,1730243046.8587008,1730243045.843918,2000
3629.76683733068,-108650.28752688022,-480.54015404464656,-187500.02235174447,-187500.02235174447,-187500.02235174447,-187500.02235174447,-187500.02235174447,1730243046.862216,1730243045.843918,2000
3696.2856288296734,-108621.16320385494,-464.558656759102,-187500.02235174447,-187500.02235174447,-187500.02235174447,-187500.02235174447,-187500.02235174447,1730243046.866272,1730243045.843918,2000
3791.3252462536393,-108656.43425660544,-434.8308366335436,-187500.02235174447,-187500.02235174447,-187500.02235174447,-187500.02235174447,-187500.02235174447,1730243046.8702474,1730243045.843918,2000
3729.433265856894,-108638.61991627456,-476.8074127206103,-187500.02235174447,-187500.02235174447,-187500.02235174447,-187500.02235174447,-187500.02235174447,1730243046.874349,1730243045.843918,2000
3681.868753656001,-108642.86674772104,-537.5818058945902,-187500.02235174447,-187500.02235174447,-187500.02235174447,-187500.02235174447,-187500.02235174447,1730243046.8792882,1730243045.843918,2000
3900.267648728806,-108681.37880341757,-618.1374929115168,-187500.02235174447,-187500.02235174447,-187500.02235174447,-187500.02235174447,-187500.02235174447,1730243046.883404,1730243045.843918,2000
3754.891902791489,-108695.43805067994,-443.9279966268536,-187500.02235174447,-187500.02235174447,-187500.02235174447,-187500.02235174447,-187500.02235174447,1730243046.8864255,1730243045.843918,2000
3489.911972273824,-108694.8122018352,-324.0108876241312,-187500.02235174447,-187500.02235174447,-187500.02235174447,-187500.02235174447,-187500.02235174447,1730243046.8905632,1730243045.843918,2000
3652.5432649306376,-108731.08908308616,-409.238089232217,-187500.02235174447,-187500.02235174447,-187500.02235174447,-187500.02235174447,-187500.02235174447,1730243046.894431,1730243045.843918,2000
3626.928165784856,-108728.33981851814,-377.7891847836,-187500.02235174447,-187500.02235174447,-187500.02235174447,-187500.02235174447,-187500.02235174447,1730243046.89848,1730243045.843918,2000
3699.7725009647015,-108777.51365631982,-427.16418828537326,-187500.02235174447,-187500.02235174447,-187500.02235174447,-187500.02235174447,-187500.02235174447,1730243046.9025457,1730243045.843918,2000
3822.528281513248,-108759.20757761093,-543.7955908531655,-187500.02235174447,-187500.02235174447,-187500.02235174447,-187500.02235174447,-187500.02235174447,1730243046.907792,1730243045.843918,2000
3762.491495906293,-108713.67707415546,-530.138674990973,-187500.02235174447,-187500.02235174447,-187500.02235174447,-187500.02235174447,-187500.02235174447,1730243046.911584,1730243045.843918,2000
3722.0348384421873,-108786.61081631311,-501.77431127718825,-187500.02235174447,-187500.02235174447,-187500.02235174447,-187500.02235174447,-187500.02235174447,1730243046.914502,1730243045.843918,2000
3769.264074476251,-108797.85374377416,-527.6576313564339,-187500.02235174447,-187500.02235174447,-187500.02235174447,-187500.02235174447,-187500.02235174447,1730243046.9187171,1730243045.843918,2000
3711.64127727047,-108780.55349356576,-568.8518963875647,-187500.02235174447,-187500.02235174447,-187500.02235174447,-187500.02235174447,-187500.02235174447,1730243046.9226637,1730243045.843918,2000
3636.964099045289,-108815.51162189383,-488.45267158182526,-187500.02235174447,-187500.02235174447,-187500.02235174447,-187500.02235174447,-187500.02235174447,1730243046.926564,1730243045.843918,2000
3679.5218204881935,-108863.63492770612,-532.8879395589756,-187500.02235174447,-187500.02235174447,-187500.02235174447,-187500.02235174447,-187500.02235174447,1730243046.930595,1730243045.843918,2000
3653.9290730868665,-108811.66712184754,-409.9533450547869,-187500.02235174447,-187500.02235174447,-187500.02235174447,-187500.02235174447,-187500.02235174447,1730243046.9356651,1730243045.843918,2000
3726.59459431107,-108802.34644440968,-420.7045341377896,-187500.02235174447,-187500.02235174447,-187500.02235174447,-187500.02235174447,-187500.02235174447,1730243046.9383984,1730243045.843918,2000
3796.399092244994,-108887.26072159538,-534.9219483044086,-187500.02235174447,-187500.02235174447,-187500.02235174447,-187500.02235174447,-187500.02235174447,1730243046.9429846,1730243045.843918,2000
3620.110883725987,-108935.33932391874,-446.9901856172306,-187500.02235174447,-187500.02235174447,-187500.02235174447,-187500.02235174447,-187500.02235174447,1730243046.9463656,1730243045.843918,2000
3686.696730458347,-108873.96143364448,-440.463476236281,-187500.02235174447,-187500.02235174447,-187500.02235174447,-187500.02235174447,-187500.02235174447,1730243046.9509444,1730243045.843918,2000
3660.858113868012,-108891.64166350862,-446.5878542170351,-187500.02235174447,-187500.02235174447,-187500.02235174447,-187500.02235174447,-187500.02235174447,1730243046.9544537,1730243045.843918,2000
3669.955273861322,-108874.5425790003,-542.4544861858471,-187500.02235174447,-187500.02235174447,-187500.02235174447,-187500.02235174447,-187500.02235174447,1730243046.9590816,1730243045.843918,2000
3704.801643467146,-108890.76994547488,-538.5652826506237,-187500.02235174447,-187500.02235174447,-187500.02235174447,-187500.02235174447,-187500.02235174447,1730243046.9624207,1730243045.843918,2000
3706.723893490302,-108960.52973991988,-458.0542991226076,-187500.02235174447,-187500.02235174447,-187500.02235174447,-187500.02235174447,-187500.02235174447,1730243046.9668176,1730243045.843918,2000
3649.548131173626,-108950.38204793716,-576.0938615910842,-187500.02235174447,-187500.02235174447,-187500.02235174447,-187500.02235174447,-187500.02235174447,1730243046.970392,1730243045.843918,2000
3763.2291034733184,-108975.95244359404,-567.8907713759866,-187500.02235174447,-187500.02235174447,-187500.02235174447,-187500.02235174447,-187500.02235174447,1730243046.9745655,1730243045.843918,2000
3722.750094264757,-108913.27815214136,-403.9407257963092,-187500.02235174447,-187500.02235174447,-187500.02235174447,-187500.02235174447,-187500.02235174447,1730243046.978408,1730243045.843918,2000
3719.173815151908,-108916.94383823202,-406.3770659419377,-187500.02235174447,-187500.02235174447,-187500.02235174447,-187500.02235174447,-187500.02235174447,1730243046.9828997,1730243045.843918,2000
3805.697417938402,-108970.43156271358,-477.4779650542695,-187500.02235174447,-187500.02235174447,-187500.02235174447,-187500.02235174447,-187500.02235174447,1730243046.9865084,1730243045.843918,2000
3664.34498600304,-108957.8698823297,-535.0337070266852,-187500.02235174447,-187500.02235174447,-187500.02235174447,-187500.02235174447,-187500.02235174447,1730243046.9906814,1730243045.843918,2000
3579.386005328418,-108972.84555111476,-583.9169721504417,-187500.02235174447,-187500.02235174447,-187500.02235174447,-187500.02235174447,-187500.02235174447,1730243046.9946249,1730243045.843918,2000
3658.421773722384,-108944.54824263434,-440.64229019192345,-187500.02235174447,-187500.02235174447,-187500.02235174447,-187500.02235174447,-187500.02235174447,1730243046.998141,1730243045.843918,2000
3689.177774092886,-108988.89410363366,-414.3566387124823,-187500.02235174447,-187500.02235174447,-187500.02235174447,-187500.02235174447,-187500.02235174447,1730243047.002707,1730243045.843918,2000
3689.669512470903,-108973.58315868178,-381.6783883188234,-187500.02235174447,-187500.02235174447,-187500.02235174447,-187500.02235174447,-187500.02235174447,1730243047.007048,1730243045.843918,2000
3648.274081739674,-108945.50936764592,-355.23627462819513,-187500.02235174447,-187500.02235174447,-187500.02235174447,-187500.02235174447,-187500.02235174447,1730243047.0110643,1730243045.843918,2000
3640.272157224674,-109037.66561003514,-422.6714876498565,-187500.02235174447,-187500.02235174447,-187500.02235174447,-187500.02235174447,-187500.02235174447,1730243047.0146573,1730243045.843918,2000
3709.696675502858,-109056.57518584433,-450.8123339190881,-187500.02235174447,-187500.02235174447,-187500.02235174447,-187500.02235174447,-187500.02235174447,1730243047.0178456,1730243045.843918,2000
3785.55849618417,-108985.18371405407,-439.79292390262174,-187500.02235174447,-187500.02235174447,-187500.02235174447,-187500.02235174447,-187500.02235174447,1730243047.021551,1730243045.843918,2000
3763.117344751042,-108986.45776348804,-522.2708609427049,-187500.02235174447,-187500.02235174447,-187500.02235174447,-187500.02235174447,-187500.02235174447,1730243047.0255587,1730243045.843918,2000
3726.795760011168,-109049.82495901884,-534.1172855040176,-187500.02235174447,-187500.02235174447,-187500.02235174447,-187500.02235174447,-187500.02235174447,1730243047.0306816,1730243045.843918,2000
3841.124932900064,-109033.19526114408,-406.399417686393,-187500.02235174447,-187500.02235174447,-187500.02235174447,-187500.02235174447,-187500.02235174447,1730243047.0346966,1730243045.843918,2000
3734.797684526168,-109087.66646238166,-401.1467577393959,-187500.02235174447,-187500.02235174447,-187500.02235174447,-187500.02235174447,-187500.02235174447,1730243047.0385902,1730243045.843918,2000
3695.592724751559,-109070.20974996209,-461.9435026578311,-187500.02235174447,-187500.02235174447,-187500.02235174447,-187500.02235174447,-187500.02235174447,1730243047.0427165,1730243045.843918,2000
3643.8484363375233,-109061.87254928023,-557.6089689265453,-187500.02235174447,-187500.02235174447,-187500.02235174447,-187500.02235174447,-187500.02235174447,1730243047.045529,1730243045.843918,2000
3634.9747937887664,-109190.43978338716,-599.7420072247991,-187500.02235174447,-187500.02235174447,-187500.02235174447,-187500.02235174447,-187500.02235174447,1730243047.0496888,1730243045.843918,2000
3653.392631219939,-109143.23289909757,-364.5793038105135,-187500.02235174447,-187500.02235174447,-187500.02235174447,-187500.02235174447,-187500.02235174447,1730243047.0535831,1730243045.843918,2000
3678.985378621266,-109121.12702383126,-382.9747894972312,-187500.02235174447,-187500.02235174447,-187500.02235174447,-187500.02235174447,-187500.02235174447,1730243047.0587814,1730243045.843918,2000
3709.629620269492,-109182.8178385279,-436.7307349122447,-187500.02235174447,-187500.02235174447,-187500.02235174447,-187500.02235174447,-187500.02235174447,1730243047.0625815,1730243045.843918,2000
3736.4517136158606,-109166.18814065316,-423.9008335948984,-187500.02235174447,-187500.02235174447,-187500.02235174447,-187500.02235174447,-187500.02235174447,1730243047.0667417,1730243045.843918,2000
3687.9931316367542,-109192.38438515476,-459.5965694900238,-187500.02235174447,-187500.02235174447,-187500.02235174447,-187500.02235174447,-187500.02235174447,1730243047.0705783,1730243045.843918,2000
3668.748279660736,-109207.53886789548,-504.85885201202063,-187500.02235174447,-187500.02235174447,-187500.02235174447,-187500.02235174447,-187500.02235174447,1730243047.0737536,1730243045.843918,2000
3710.9260214479,-109171.3737453668,-439.0776680800519,-187500.02235174447,-187500.02235174447,-187500.02235174447,-187500.02235174447,-187500.02235174447,1730243047.077752,1730243045.843918,2000
3766.157181996964,-109248.30844978197,-491.40310184992575,-187500.02235174447,-187500.02235174447,-187500.02235174447,-187500.02235174447,-187500.02235174447,1730243047.0817206,1730243045.843918,2000
3702.655875999437,-109238.42897873271,-436.19429304531735,-187500.02235174447,-187500.02235174447,-187500.02235174447,-187500.02235174447,-187500.02235174447,1730243047.0855808,1730243045.843918,2000
3600.1731276718533,-109236.05969382044,-408.1875572428176,-187500.02235174447,-187500.02235174447,-187500.02235174447,-187500.02235174447,-187500.02235174447,1730243047.0907445,1730243045.843918,2000
3670.670529683892,-109286.5969880339,-509.75388404773287,-187500.02235174447,-187500.02235174447,-187500.02235174447,-187500.02235174447,-187500.02235174447,1730243047.094623,1730243045.843918,2000
3723.1524256649527,-109241.96055435664,-525.2883464441712,-187500.02235174447,-187500.02235174447,-187500.02235174447,-187500.02235174447,-187500.02235174447,1730243047.0988283,1730243045.843918,2000
3686.003826380233,-109299.27042714006,-393.07777799103,-187500.02235174447,-187500.02235174447,-187500.02235174447,-187500.02235174447,-187500.02235174447,1730243047.1016104,1730243045.843918,2000
3685.310922302118,-109312.12268020186,-392.6530948463792,-187500.02235174447,-187500.02235174447,-187500.02235174447,-187500.02235174447,-187500.02235174447,1730243047.1058123,1730243045.843918,2000
3737.703411305358,-109280.56201703096,-510.42443638139207,-187500.02235174447,-187500.02235174447,-187500.02235174447,-187500.02235174447,-187500.02235174447,1730243047.1097972,1730243045.843918,2000
3777.981254813821,-109315.58720059245,-514.2912881721602,-187500.02235174447,-187500.02235174447,-187500.02235174447,-187500.02235174447,-187500.02235174447,1730243047.1146858,1730243045.843918,2000
3679.678282699381,-109337.78248283656,-459.1942380898283,-187500.02235174447,-187500.02235174447,-187500.02235174447,-187500.02235174447,-187500.02235174447,1730243047.118848,1730243045.843918,2000
3687.501393258738,-109291.96140670317,-367.1050509339632,-187500.02235174447,-187500.02235174447,-187500.02235174447,-187500.02235174447,-187500.02235174447,1730243047.122825,1730243045.843918,2000
3671.162268061909,-109315.0507587255,-398.3751414269378,-187500.02235174447,-187500.02235174447,-187500.02235174447,-187500.02235174447,-187500.02235174447,1730243047.1258192,1730243045.843918,2000
3644.429581693361,-109330.4064071663,-448.5771594735575,-187500.02235174447,-187500.02235174447,-187500.02235174447,-187500.02235174447,-187500.02235174447,1730243047.1297011,1730243045.843918,2000
3724.1359024209855,-109350.59003240944,-433.2438627772168,-187500.02235174447,-187500.02235174447,-187500.02235174447,-187500.02235174447,-187500.02235174447,1730243047.1339412,1730243045.843918,2000
3794.387435244016,-109277.3433658294,-368.982597468209,-187500.02235174447,-187500.02235174447,-187500.02235174447,-187500.02235174447,-187500.02235174447,1730243047.1376517,1730243045.843918,2000
3617.741598813725,-109340.53174740456,-443.57036871556863,-187500.02235174447,-187500.02235174447,-187500.02235174447,-187500.02235174447,-187500.02235174447,1730243047.1418655,1730243045.843918,2000
3729.254451901252,-109377.63564320037,-531.9268145473975,-187500.02235174447,-187500.02235174447,-187500.02235174447,-187500.02235174447,-187500.02235174447,1730243047.146954,1730243045.843918,2000
3710.814262725624,-109394.6229689864,-462.524648013669,-187500.02235174447,-187500.02235174447,-187500.02235174447,-187500.02235174447,-187500.02235174447,1730243047.151103,1730243045.843918,2000
3673.464497740805,-109419.4781088207,-470.3254068285712,-187500.02235174447,-187500.02235174447,-187500.02235174447,-187500.02235174447,-187500.02235174447,1730243047.1536608,1730243045.843918,2000
3658.265311511196,-109396.1205358649,-417.46353119177,-187500.02235174447,-187500.02235174447,-187500.02235174447,-187500.02235174447,-187500.02235174447,1730243047.1581745,1730243045.843918,2000
3704.846346956056,-109463.578100631,-402.1972897287953,-187500.02235174447,-187500.02235174447,-187500.02235174447,-187500.02235174447,-187500.02235174447,1730243047.1617584,1730243045.843918,2000
3694.9221724179,-109453.8327400485,-418.7375806257225,-187500.02235174447,-187500.02235174447,-187500.02235174447,-187500.02235174447,-187500.02235174447,1730243047.1659849,1730243045.843918,2000
3669.888218627956,-109425.0213414456,-423.2749847501498,-187500.02235174447,-187500.02235174447,-187500.02235174447,-187500.02235174447,-187500.02235174447,1730243047.1698115,1730243045.843918,2000
3671.184619806364,-109457.07374299451,-455.9532351438088,-187500.02235174447,-187500.02235174447,-187500.02235174447,-187500.02235174447,-187500.02235174447,1730243047.1747885,1730243045.843918,2000
3766.693623863891,-109463.4886936532,-542.9015210749533,-187500.02235174447,-187500.02235174447,-187500.02235174447,-187500.02235174447,-187500.02235174447,1730243047.1787848,1730243045.843918,2000
3698.274934086196,-109404.61419875792,-479.6907877553449,-187500.02235174447,-187500.02235174447,-187500.02235174447,-187500.02235174447,-187500.02235174447,1730243047.1820033,1730243045.843918,2000
3648.6764131398695,-109458.6383651064,-387.33337966601607,-187500.02235174447,-187500.02235174447,-187500.02235174447,-187500.02235174447,-187500.02235174447,1730243047.1864364,1730243045.843918,2000
3743.604271841559,-109477.59264440447,-424.6607929063789,-187500.02235174447,-187500.02235174447,-187500.02235174447,-187500.02235174447,-187500.02235174447,1730243047.1902254,1730243045.843918,2000
3645.368354960484,-109436.80071077356,-422.4926736942141,-187500.02235174447,-187500.02235174447,-187500.02235174447,-187500.02235174447,-187500.02235174447,1730243047.194106,1730243045.843918,2000
3619.216813947775,-109532.06384564209,-430.7628191426777,-187500.02235174447,-187500.02235174447,-187500.02235174447,-187500.02235174447,-187500.02235174447,1730243047.198047,1730243045.843918,2000
3653.4149829643943,-109523.01138913768,-407.1817287423288,-187500.02235174447,-187500.02235174447,-187500.02235174447,-187500.02235174447,-187500.02235174447,1730243047.2029674,1730243045.843918,2000
3712.647105770958,-109544.44671207032,-428.99703133070847,-187500.02235174447,-187500.02235174447,-187500.02235174447,-187500.02235174447,-187500.02235174447,1730243047.2070332,1730243045.843918,2000
3747.784048054701,-109550.7052005178,-456.4002700329149,-187500.02235174447,-187500.02235174447,-187500.02235174447,-187500.02235174447,-187500.02235174447,1730243047.210472,1730243045.843918,2000
3748.879283533011,-109521.603229237,-474.90751444190914,-187500.02235174447,-187500.02235174447,-187500.02235174447,-187500.02235174447,-187500.02235174447,1730243047.2141387,1730243045.843918,2000
3761.731536594813,-109589.30666319212,-468.3361015720489,-187500.02235174447,-187500.02235174447,-187500.02235174447,-187500.02235174447,-187500.02235174447,1730243047.2183323,1730243045.843918,2000
3719.576146552104,-109592.3241486936,-405.2594787191724,-187500.02235174447,-187500.02235174447,-187500.02235174447,-187500.02235174447,-187500.02235174447,1730243047.221904,1730243045.843918,2000
3595.121633424954,-109543.03855216964,-522.6955440873556,-187500.02235174447,-187500.02235174447,-187500.02235174447,-187500.02235174447,-187500.02235174447,1730243047.22625,1730243045.843918,2000
3630.9961832757217,-109574.6662705739,-528.2387767122718,-187500.02235174447,-187500.02235174447,-187500.02235174447,-187500.02235174447,-187500.02235174447,1730243047.2298372,1730243045.843918,2000
3667.004843593221,-109623.3260182531,-365.4286700998152,-187500.02235174447,-187500.02235174447,-187500.02235174447,-187500.02235174447,-187500.02235174447,1730243047.234275,1730243045.843918,2000
3656.633634165959,-109579.91893052089,-368.759080023656,-187500.02235174447,-187500.02235174447,-187500.02235174447,-187500.02235174447,-187500.02235174447,1730243047.2368703,1730243045.843918,2000
3691.703521216336,-109586.55739862412,-410.8250630885438,-187500.02235174447,-187500.02235174447,-187500.02235174447,-187500.02235174447,-187500.02235174447,1730243047.2423437,1730243045.843918,2000
3652.5432649306376,-109678.06544042416,-392.4072256573708,-187500.02235174447,-187500.02235174447,-187500.02235174447,-187500.02235174447,-187500.02235174447,1730243047.2458992,1730243045.843918,2000
3764.2796354627176,-109667.3813065745,-474.8851626974538,-187500.02235174447,-187500.02235174447,-187500.02235174447,-187500.02235174447,-187500.02235174447,1730243047.2502556,1730243045.843918,2000
3776.6625018909576,-109684.01100444926,-454.4556682653032,-187500.02235174447,-187500.02235174447,-187500.02235174447,-187500.02235174447,-187500.02235174447,1730243047.2538795,1730243045.843918,2000
3583.275208863641,-109744.4054179675,-465.69859572632265,-187500.02235174447,-187500.02235174447,-187500.02235174447,-187500.02235174447,-187500.02235174447,1730243047.2583303,1730243045.843918,2000
3637.4558374233056,-109661.05576289364,-388.1827459553178,-187500.02235174447,-187500.02235174447,-187500.02235174447,-187500.02235174447,-187500.02235174447,1730243047.261922,1730243045.843918,2000
3742.7102020633465,-109639.82160566113,-419.58694691502416,-187500.02235174447,-187500.02235174447,-187500.02235174447,-187500.02235174447,-187500.02235174447,1730243047.2671833,1730243045.843918,2000
3682.427547267384,-109724.02062702426,-375.6657690603458,-187500.02235174447,-187500.02235174447,-187500.02235174447,-187500.02235174447,-187500.02235174447,1730243047.269977,1730243045.843918,2000
3681.622884466992,-109701.11008895756,-397.4810716487255,-187500.02235174447,-187500.02235174447,-187500.02235174447,-187500.02235174447,-187500.02235174447,1730243047.274328,1730243045.843918,2000
3661.3498522460286,-109764.03024959924,-452.8016391756105,-187500.02235174447,-187500.02235174447,-187500.02235174447,-187500.02235174447,-187500.02235174447,1730243047.2781527,1730243045.843918,2000
3680.952332133333,-109767.18184556744,-449.2477118072167,-187500.02235174447,-187500.02235174447,-187500.02235174447,-187500.02235174447,-187500.02235174447,1730243047.282202,1730243045.843918,2000
3720.760789008235,-109757.57059545167,-476.76270923169966,-187500.02235174447,-187500.02235174447,-187500.02235174447,-187500.02235174447,-187500.02235174447,1730243047.286304,1730243045.843918,2000
3564.432688287817,-109811.14772691103,-431.5898336875241,-187500.02235174447,-187500.02235174447,-187500.02235174447,-187500.02235174447,-187500.02235174447,1730243047.2903547,1730243045.843918,2000
3566.46669703325,-109751.46856921536,-499.3603228760151,-187500.02235174447,-187500.02235174447,-187500.02235174447,-187500.02235174447,-187500.02235174447,1730243047.29344,1730243045.843918,2000
3691.68116947188,-109768.88057814604,-425.8901388514208,-187500.02235174447,-187500.02235174447,-187500.02235174447,-187500.02235174447,-187500.02235174447,1730243047.297036,1730243045.843918,2000
3685.534439746671,-109836.181680701,-356.73384150670074,-187500.02235174447,-187500.02235174447,-187500.02235174447,-187500.02235174447,-187500.02235174447,1730243047.302434,1730243045.843918,2000
3727.086332689087,-109777.15072359452,-418.60347015899066,-187500.02235174447,-187500.02235174447,-187500.02235174447,-187500.02235174447,-187500.02235174447,1730243047.3064735,1730243045.843918,2000
3858.8945697420327,-109742.3043539887,-501.5731455770905,-187500.02235174447,-187500.02235174447,-187500.02235174447,-187500.02235174447,-187500.02235174447,1730243047.3103244,1730243045.843918,2000
3628.3810291744503,-109869.35166947266,-434.204987788795,-187500.02235174447,-187500.02235174447,-187500.02235174447,-187500.02235174447,-187500.02235174447,1730243047.3146126,1730243045.843918,2000
3530.748609393669,-109906.05323386828,-403.4266356738372,-187500.02235174447,-187500.02235174447,-187500.02235174447,-187500.02235174447,-187500.02235174447,1730243047.318244,1730243045.843918,2000
3652.498561441727,-109821.8765642496,-399.7833013276221,-187500.02235174447,-187500.02235174447,-187500.02235174447,-187500.02235174447,-187500.02235174447,1730243047.3210013,1730243045.843918,2000
3689.557753748626,-109862.91436706952,-442.65394719290106,-187500.02235174447,-187500.02235174447,-187500.02235174447,-187500.02235174447,-187500.02235174447,1730243047.3261628,1730243045.843918,2000
3792.934571854421,-109867.76469561634,-480.8307267225656,-187500.02235174447,-187500.02235174447,-187500.02235174447,-187500.02235174447,-187500.02235174447,1730243047.3300505,1730243045.843918,2000
3689.401291537439,-109844.89886103856,-356.0856409174968,-187500.02235174447,-187500.02235174447,-187500.02235174447,-187500.02235174447,-187500.02235174447,1730243047.3340244,1730243045.843918,2000
3620.870843037468,-109926.46037655596,-359.9077892193543,-187500.02235174447,-187500.02235174447,-187500.02235174447,-187500.02235174447,-187500.02235174447,1730243047.3380623,1730243045.843918,2000
3650.464552696294,-109863.94254731448,-456.2438078217278,-187500.02235174447,-187500.02235174447,-187500.02235174447,-187500.02235174447,-187500.02235174447,1730243047.3413184,1730243045.843918,2000
3624.871805294968,-109881.75688764536,-471.7112149848003,-187500.02235174447,-187500.02235174447,-187500.02235174447,-187500.02235174447,-187500.02235174447,1730243047.3449707,1730243045.843918,2000
3681.466422255805,-109932.60710628118,-460.2671218236831,-187500.02235174447,-187500.02235174447,-187500.02235174447,-187500.02235174447,-187500.02235174447,1730243047.3493176,1730243045.843918,2000
3677.5548669761274,-109934.05996967078,-414.73661836822254,-187500.02235174447,-187500.02235174447,-187500.02235174447,-187500.02235174447,-187500.02235174447,1730243047.3530624,1730243045.843918,2000
3706.723893490302,-109946.53224307684,-424.2808132506387,-187500.02235174447,-187500.02235174447,-187500.02235174447,-187500.02235174447,-187500.02235174447,1730243047.3583164,1730243045.843918,2000
3687.434338025372,-109927.37679807864,-440.5975867030128,-187500.02235174447,-187500.02235174447,-187500.02235174447,-187500.02235174447,-187500.02235174447,1730243047.3620892,1730243045.843918,2000
3673.464497740805,-110007.68661590655,-492.7665582616995,-187500.02235174447,-187500.02235174447,-187500.02235174447,-187500.02235174447,-187500.02235174447,1730243047.3666563,1730243045.843918,2000
3586.404453087384,-109994.90141807812,-428.6841069083342,-187500.02235174447,-187500.02235174447,-187500.02235174447,-187500.02235174447,-187500.02235174447,1730243047.3692925,1730243045.843918,2000
3617.562784858082,-109936.07162667176,-398.7327693382227,-187500.02235174447,-187500.02235174447,-187500.02235174447,-187500.02235174447,-187500.02235174447,1730243047.3734562,1730243045.843918,2000
3696.39738755195,-109980.75276383793,-440.01644134717486,-187500.02235174447,-187500.02235174447,-187500.02235174447,-187500.02235174447,-187500.02235174447,1730243047.3773923,1730243045.843918,2000
3687.881372914478,-109980.97628128246,-416.4577026912812,-187500.02235174447,-187500.02235174447,-187500.02235174447,-187500.02235174447,-187500.02235174447,1730243047.3814545,1730243045.843918,2000
3689.9600851488217,-109960.79265603932,-425.4431039623146,-187500.02235174447,-187500.02235174447,-187500.02235174447,-187500.02235174447,-187500.02235174447,1730243047.3863325,1730243045.843918,2000
3639.288680468641,-110010.48058396346,-447.6607379508898,-187500.02235174447,-187500.02235174447,-187500.02235174447,-187500.02235174447,-187500.02235174447,1730243047.3903356,1730243045.843918,2000
3661.506314457216,-109981.3562609382,-385.1652604538513,-187500.02235174447,-187500.02235174447,-187500.02235174447,-187500.02235174447,-187500.02235174447,1730243047.3944924,1730243045.843918,2000
3748.78987655519,-109969.53218812136,-358.07494617401915,-187500.02235174447,-187500.02235174447,-187500.02235174447,-187500.02235174447,-187500.02235174447,1730243047.3973544,1730243045.843918,2000
3638.3275554570623,-110041.14717735616,-386.1710889543401,-187500.02235174447,-187500.02235174447,-187500.02235174447,-187500.02235174447,-187500.02235174447,1730243047.4016268,1730243045.843918,2000
3617.987468002733,-110004.82559261628,-424.9737173287532,-187500.02235174447,-187500.02235174447,-187500.02235174447,-187500.02235174447,-187500.02235174447,1730243047.4051716,1730243045.843918,2000
3631.018535020177,-110073.71366902754,-457.4508020223144,-187500.02235174447,-187500.02235174447,-187500.02235174447,-187500.02235174447,-187500.02235174447,1730243047.4093163,1730243045.843918,2000
3681.511125744716,-110101.69805308558,-457.5178572556802,-187500.02235174447,-187500.02235174447,-187500.02235174447,-187500.02235174447,-187500.02235174447,1730243047.4142635,1730243045.843918,2000
3698.8337276975785,-110060.10145665426,-422.850301605499,-187500.02235174447,-187500.02235174447,-187500.02235174447,-187500.02235174447,-187500.02235174447,1730243047.4183223,1730243045.843918,2000
3613.561822600582,-110040.20840408903,-422.4703219497588,-187500.02235174447,-187500.02235174447,-187500.02235174447,-187500.02235174447,-187500.02235174447,1730243047.4228718,1730243045.843918,2000
3634.371296688473,-110079.36866037472,-465.29626432612713,-187500.02235174447,-187500.02235174447,-187500.02235174447,-187500.02235174447,-187500.02235174447,1730243047.425289,1730243045.843918,2000
3687.926076403389,-110114.1926782361,-463.4634212807919,-187500.02235174447,-187500.02235174447,-187500.02235174447,-187500.02235174447,-187500.02235174447,1730243047.429108,1730243045.843918,2000
3658.488828955749,-110126.8437655978,-451.97462463076414,-187500.02235174447,-187500.02235174447,-187500.02235174447,-187500.02235174447,-187500.02235174447,1730243047.4336095,1730243045.843918,2000
3710.635448769981,-110122.90985857366,-366.143925922385,-187500.02235174447,-187500.02235174447,-187500.02235174447,-187500.02235174447,-187500.02235174447,1730243047.4370978,1730243045.843918,2000
3685.48973625776,-110087.12471570072,-384.6064668424687,-187500.02235174447,-187500.02235174447,-187500.02235174447,-187500.02235174447,-187500.02235174447,1730243047.4423432,1730243045.843918,2000
3641.5238549141714,-110134.08573080132,-438.4071157463927,-187500.02235174447,-187500.02235174447,-187500.02235174447,-187500.02235174447,-187500.02235174447,1730243047.4461472,1730243045.843918,2000
3641.1885787473416,-110202.83969674584,-439.882330880443,-187500.02235174447,-187500.02235174447,-187500.02235174447,-187500.02235174447,-187500.02235174447,1730243047.449324,1730243045.843918,2000
3640.406267691406,-110172.77660045344,-408.1205020094517,-187500.02235174447,-187500.02235174447,-187500.02235174447,-187500.02235174447,-187500.02235174447,1730243047.45318,1730243045.843918,2000
3689.6918642153582,-110120.0935387723,-425.2642900066722,-187500.02235174447,-187500.02235174447,-187500.02235174447,-187500.02235174447,-187500.02235174447,1730243047.4574418,1730243045.843918,2000
3699.4595765423273,-110171.43549578614,-430.56165344258,-187500.02235174447,-187500.02235174447,-187500.02235174447,-187500.02235174447,-187500.02235174447,1730243047.4614923,1730243045.843918,2000
3629.1633402303855,-110226.44313889064,-399.1351007384182,-187500.02235174447,-187500.02235174447,-187500.02235174447,-187500.02235174447,-187500.02235174447,1730243047.4654489,1730243045.843918,2000
3654.666680653892,-110173.11187662029,-386.528716865625,-187500.02235174447,-187500.02235174447,-187500.02235174447,-187500.02235174447,-187500.02235174447,1730243047.4702232,1730243045.843918,2000
3653.079706797565,-110197.60938854332,-433.6014906885017,-187500.02235174447,-187500.02235174447,-187500.02235174447,-187500.02235174447,-187500.02235174447,1730243047.4744475,1730243045.843918,2000
3606.208098674786,-110170.51907426347,-483.22236337928337,-187500.02235174447,-187500.02235174447,-187500.02235174447,-187500.02235174447,-187500.02235174447,1730243047.477352,1730243045.843918,2000
3681.399367022439,-110235.78616807295,-496.7675205191995,-187500.02235174447,-187500.02235174447,-187500.02235174447,-187500.02235174447,-187500.02235174447,1730243047.4817648,1730243045.843918,2000
3745.571225353626,-110249.80071184644,-447.2807582951496,-187500.02235174447,-187500.02235174447,-187500.02235174447,-187500.02235174447,-187500.02235174447,1730243047.4854443,1730243045.843918,2000
3627.554014629605,-110176.03995514392,-320.72518118920107,-187500.02235174447,-187500.02235174447,-187500.02235174447,-187500.02235174447,-187500.02235174447,1730243047.489876,1730243045.843918,2000
3621.9660785157776,-110241.17293848668,-393.86008904696575,-187500.02235174447,-187500.02235174447,-187500.02235174447,-187500.02235174447,-187500.02235174447,1730243047.4935176,1730243045.843918,2000
3649.414020706895,-110257.64617415026,-397.4810716487255,-187500.02235174447,-187500.02235174447,-187500.02235174447,-187500.02235174447,-187500.02235174447,1730243047.4979289,1730243045.843918,2000
3650.643366651937,-110296.3817472913,-390.5967343564909,-187500.02235174447,-187500.02235174447,-187500.02235174447,-187500.02235174447,-187500.02235174447,1730243047.502821,1730243045.843918,2000
3679.63357921047,-110271.25838652354,-377.2750946611279,-187500.02235174447,-187500.02235174447,-187500.02235174447,-187500.02235174447,-187500.02235174447,1730243047.5054965,1730243045.843918,2000
3639.668660124381,-110265.33517424288,-435.8366651340324,-187500.02235174447,-187500.02235174447,-187500.02235174447,-187500.02235174447,-187500.02235174447,1730243047.509801,1730243045.843918,2000
3638.372258945973,-110302.6849392277,-473.365244074493,-187500.02235174447,-187500.02235174447,-187500.02235174447,-187500.02235174447,-187500.02235174447,1730243047.5133488,1730243045.843918,2000
3684.528611246182,-110317.79471847948,-435.9037203673984,-187500.02235174447,-187500.02235174447,-187500.02235174447,-187500.02235174447,-187500.02235174447,1730243047.5177608,1730243045.843918,2000
3679.9688553772994,-110351.25527992909,-372.29065564759446,-187500.02235174447,-187500.02235174447,-187500.02235174447,-187500.02235174447,-187500.02235174447,1730243047.5213745,1730243045.843918,2000
3699.236059097774,-110327.51772731757,-432.75212439920006,-187500.02235174447,-187500.02235174447,-187500.02235174447,-187500.02235174447,-187500.02235174447,1730243047.5257008,1730243045.843918,2000
3722.526576820205,-110387.12982977983,-497.2592588972162,-187500.02235174447,-187500.02235174447,-187500.02235174447,-187500.02235174447,-187500.02235174447,1730243047.5292232,1730243045.843918,2000
3588.527868810638,-110388.2027135137,-461.429412535359,-187500.02235174447,-187500.02235174447,-187500.02235174447,-187500.02235174447,-187500.02235174447,1730243047.5327573,1730243045.843918,2000
3660.0087475787104,-110330.80343375247,-382.81832728604405,-187500.02235174447,-187500.02235174447,-187500.02235174447,-187500.02235174447,-187500.02235174447,1730243047.5372932,1730243045.843918,2000
3686.58497173607,-110347.12020720485,-394.754158825178,-187500.02235174447,-187500.02235174447,-187500.02235174447,-187500.02235174447,-187500.02235174447,1730243047.5414505,1730243045.843918,2000
3696.375035807495,-110383.1065157779,-462.1446683579288,-187500.02235174447,-187500.02235174447,-187500.02235174447,-187500.02235174447,-187500.02235174447,1730243047.5452511,1730243045.843918,2000
3652.9008928419225,-110423.0043796306,-401.07970250603,-187500.02235174447,-187500.02235174447,-187500.02235174447,-187500.02235174447,-187500.02235174447,1730243047.549813,1730243045.843918,2000
3617.540433113627,-110425.39601628734,-343.3674983224271,-187500.02235174447,-187500.02235174447,-187500.02235174447,-187500.02235174447,-187500.02235174447,1730243047.553336,1730243045.843918,2000
3637.589947890037,-110345.98026823765,-361.0030246976644,-187500.02235174447,-187500.02235174447,-187500.02235174447,-187500.02235174447,-187500.02235174447,1730243047.557767,1730243045.843918,2000
3697.8055474526345,-110355.92679452024,-463.2175520917836,-187500.02235174447,-187500.02235174447,-187500.02235174447,-187500.02235174447,-187500.02235174447,1730243047.5608714,1730243045.843918,2000
3746.465295131838,-110437.17538561528,-477.9249999433756,-187500.02235174447,-187500.02235174447,-187500.02235174447,-187500.02235174447,-187500.02235174447,1730243047.564488,1730243045.843918,2000
3679.834744910568,-110450.94406019976,-407.0476182755969,-187500.02235174447,-187500.02235174447,-187500.02235174447,-187500.02235174447,-187500.02235174447,1730243047.569477,1730243045.843918,2000
3622.837796549535,-110397.92572235176,-345.177989623307,-187500.02235174447,-187500.02235174447,-187500.02235174447,-187500.02235174447,-187500.02235174447,1730243047.5733328,1730243045.843918,2000
3694.721006717802,-110438.78471121608,-443.7491826712111,-187500.02235174447,-187500.02235174447,-187500.02235174447,-187500.02235174447,-187500.02235174447,1730243047.5773623,1730243045.843918,2000
3752.835542301601,-110461.7176010272,-461.6752817243674,-187500.02235174447,-187500.02235174447,-187500.02235174447,-187500.02235174447,-187500.02235174447,1730243047.5814753,1730243045.843918,2000
3594.339322369018,-110481.58830184798,-407.22643223123936,-187500.02235174447,-187500.02235174447,-187500.02235174447,-187500.02235174447,-187500.02235174447,1730243047.5853577,1730243045.843918,2000
3566.2655313331525,-110511.29377022908,-411.0038770441863,-187500.02235174447,-187500.02235174447,-187500.02235174447,-187500.02235174447,-187500.02235174447,1730243047.5884302,1730243045.843918,2000
3668.3906517494506,-110447.23367062016,-379.97965574022,-187500.02235174447,-187500.02235174447,-187500.02235174447,-187500.02235174447,-187500.02235174447,1730243047.592415,1730243045.843918,2000
3683.746300190247,-110501.0343195241,-446.11846758347366,-187500.02235174447,-187500.02235174447,-187500.02235174447,-187500.02235174447,-187500.02235174447,1730243047.5974395,1730243045.843918,2000
3656.432468465861,-110512.76898536312,-392.0719494905412,-187500.02235174447,-187500.02235174447,-187500.02235174447,-187500.02235174447,-187500.02235174447,1730243047.6014085,1730243045.843918,2000
3638.618128134981,-110467.43964760777,-389.8814785339211,-187500.02235174447,-187500.02235174447,-187500.02235174447,-187500.02235174447,-187500.02235174447,1730243047.605327,1730243045.843918,2000
3688.3954630369503,-110492.69711884226,-468.2466945942277,-187500.02235174447,-187500.02235174447,-187500.02235174447,-187500.02235174447,-187500.02235174447,1730243047.6093245,1730243045.843918,2000
3693.82693693959,-110578.48311406172,-470.9736074177751,-187500.02235174447,-187500.02235174447,-187500.02235174447,-187500.02235174447,-187500.02235174447,1730243047.6123245,1730243045.843918,2000
3674.8056024081234,-110570.36943082446,-357.1585246513516,-187500.02235174447,-187500.02235174447,-187500.02235174447,-187500.02235174447,-187500.02235174447,1730243047.6163602,1730243045.843918,2000
3710.009599925232,-110541.93801187733,-356.73384150670074,-187500.02235174447,-187500.02235174447,-187500.02235174447,-187500.02235174447,-187500.02235174447,1730243047.620332,1730243045.843918,2000
3719.956126207844,-110508.29863647209,-402.979600784731,-187500.02235174447,-187500.02235174447,-187500.02235174447,-187500.02235174447,-187500.02235174447,1730243047.6253228,1730243045.843918,2000
3638.394610690428,-110567.26253834517,-468.85019169452096,-187500.02235174447,-187500.02235174447,-187500.02235174447,-187500.02235174447,-187500.02235174447,1730243047.629384,1730243045.843918,2000
3658.600587678026,-110608.32269290955,-462.88227592495394,-187500.02235174447,-187500.02235174447,-187500.02235174447,-187500.02235174447,-187500.02235174447,1730243047.6333504,1730243045.843918,2000
3704.3099050891287,-110560.98169815323,-445.9620053722865,-187500.02235174447,-187500.02235174447,-187500.02235174447,-187500.02235174447,-187500.02235174447,1730243047.6373672,1730243045.843918,2000
3608.890308009423,-110598.42087011586,-350.81062922604434,-187500.02235174447,-187500.02235174447,-187500.02235174447,-187500.02235174447,-187500.02235174447,1730243047.640352,1730243045.843918,2000
3630.884424553445,-110528.05757857056,-398.0622170045635,-187500.02235174447,-187500.02235174447,-187500.02235174447,-187500.02235174447,-187500.02235174447,1730243047.64445,1730243045.843918,2000
3690.295361315652,-110600.76780328368,-387.2886761771055,-187500.02235174447,-187500.02235174447,-187500.02235174447,-187500.02235174447,-187500.02235174447,1730243047.6484013,1730243045.843918,2000
3668.2341895382633,-110600.56663758356,-383.6229900864351,-187500.02235174447,-187500.02235174447,-187500.02235174447,-187500.02235174447,-187500.02235174447,1730243047.6524315,1730243045.843918,2000
3630.14681698642,-110551.23633757072,-410.06510377706337,-187500.02235174447,-187500.02235174447,-187500.02235174447,-187500.02235174447,-187500.02235174447,1730243047.6574156,1730243045.843918,2000
3672.078689584576,-110595.02340495866,-456.1991043328172,-187500.02235174447,-187500.02235174447,-187500.02235174447,-187500.02235174447,-187500.02235174447,1730243047.6614175,1730243045.843918,2000
3794.879173622033,-110630.47327166478,-427.52181619665816,-187500.02235174447,-187500.02235174447,-187500.02235174447,-187500.02235174447,-187500.02235174447,1730243047.6644616,1730243045.843918,2000
3724.3817716099943,-110590.5977595565,-329.3306028044943,-187500.02235174447,-187500.02235174447,-187500.02235174447,-187500.02235174447,-187500.02235174447,1730243047.6684706,1730243045.843918,2000
3728.2262716563073,-110670.84052215106,-394.9776762697311,-187500.02235174447,-187500.02235174447,-187500.02235174447,-187500.02235174447,-187500.02235174447,1730243047.672458,1730243045.843918,2000
3575.340339582008,-110673.5227314857,-436.7754384011553,-187500.02235174447,-187500.02235174447,-187500.02235174447,-187500.02235174447,-187500.02235174447,1730243047.6764584,1730243045.843918,2000
3618.5909651030265,-110639.95041131382,-455.3050345546048,-187500.02235174447,-187500.02235174447,-187500.02235174447,-187500.02235174447,-187500.02235174447,1730243047.680548,1730243045.843918,2000
3663.316805758096,-110695.874475941,-433.1768075438509,-187500.02235174447,-187500.02235174447,-187500.02235174447,-187500.02235174447,-187500.02235174447,1730243047.6854444,1730243045.843918,2000
3695.525669518194,-110689.37011830452,-440.64229019192345,-187500.02235174447,-187500.02235174447,-187500.02235174447,-187500.02235174447,-187500.02235174447,1730243047.68949,1730243045.843918,2000
3679.454765254828,-110635.6588763784,-443.9279966268536,-187500.02235174447,-187500.02235174447,-187500.02235174447,-187500.02235174447,-187500.02235174447,1730243047.692515,1730243045.843918,2000
3641.233282236252,-110715.81223199514,-437.9824326017419,-187500.02235174447,-187500.02235174447,-187500.02235174447,-187500.02235174447,-187500.02235174447,1730243047.6964736,1730243045.843918,2000
3667.8765616269775,-110723.76945302125,-416.3235922245494,-187500.02235174447,-187500.02235174447,-187500.02235174447,-187500.02235174447,-187500.02235174447,1730243047.7005084,1730243045.843918,2000
3695.391559051461,-110653.47321670927,-375.1516789378737,-187500.02235174447,-187500.02235174447,-187500.02235174447,-187500.02235174447,-187500.02235174447,1730243047.7046144,1730243045.843918,2000
3649.05639279561,-110713.75587150526,-437.043659334619,-187500.02235174447,-187500.02235174447,-187500.02235174447,-187500.02235174447,-187500.02235174447,1730243047.7086017,1730243045.843918,2000
3725.007620454743,-110675.06500185312,-423.4761504502476,-187500.02235174447,-187500.02235174447,-187500.02235174447,-187500.02235174447,-187500.02235174447,1730243047.712548,1730243045.843918,2000
3656.3207097435848,-110752.24557545727,-381.85720227446586,-187500.02235174447,-187500.02235174447,-187500.02235174447,-187500.02235174447,-187500.02235174447,1730243047.7175937,1730243045.843918,2000
3605.7834155301352,-110797.19493355692,-369.80961201305536,-187500.02235174447,-187500.02235174447,-187500.02235174447,-187500.02235174447,-187500.02235174447,1730243047.7205105,1730243045.843918,2000
3660.142858045442,-110749.22808995582,-340.372364565416,-187500.02235174447,-187500.02235174447,-187500.02235174447,-187500.02235174447,-187500.02235174447,1730243047.724586,1730243045.843918,2000
3634.795979833124,-110795.18327655594,-399.1351007384182,-187500.02235174447,-187500.02235174447,-187500.02235174447,-187500.02235174447,-187500.02235174447,1730243047.7289095,1730243045.843918,2000
3782.317493238151,-110796.77025041226,-438.4518192353033,-187500.02235174447,-187500.02235174447,-187500.02235174447,-187500.02235174447,-187500.02235174447,1730243047.7327824,1730243045.843918,2000
3795.393263744505,-110809.48839300733,-412.2779264781388,-187500.02235174447,-187500.02235174447,-187500.02235174447,-187500.02235174447,-187500.02235174447,1730243047.7365668,1730243045.843918,2000
3561.7281272087253,-110848.93922197096,-389.7026645782786,-187500.02235174447,-187500.02235174447,-187500.02235174447,-187500.02235174447,-187500.02235174447,1730243047.740738,1730243045.843918,2000
3623.418941905373,-110790.02002358677,-436.2166447897727,-187500.02235174447,-187500.02235174447,-187500.02235174447,-187500.02235174447,-187500.02235174447,1730243047.744582,1730243045.843918,2000
3674.984416363766,-110848.76040801533,-469.2972265836271,-187500.02235174447,-187500.02235174447,-187500.02235174447,-187500.02235174447,-187500.02235174447,1730243047.7477918,1730243045.843918,2000
3666.8930848709447,-110826.8556984491,-515.3865236504703,-187500.02235174447,-187500.02235174447,-187500.02235174447,-187500.02235174447,-187500.02235174447,1730243047.752942,1730243045.843918,2000
3694.2516200842406,-110809.80131742972,-359.39369909688224,-187500.02235174447,-187500.02235174447,-187500.02235174447,-187500.02235174447,-187500.02235174447,1730243047.7568822,1730243045.843918,2000
3600.28488639413,-110797.3513957681,-382.3712923969379,-187500.02235174447,-187500.02235174447,-187500.02235174447,-187500.02235174447,-187500.02235174447,1730243047.761048,1730243045.843918,2000
3717.251565128752,-110811.36593954156,-403.8736705629433,-187500.02235174447,-187500.02235174447,-187500.02235174447,-187500.02235174447,-187500.02235174447,1730243047.7646897,1730243045.843918,2000
3694.810413695624,-110868.7205158139,-349.44717281427063,-187500.02235174447,-187500.02235174447,-187500.02235174447,-187500.02235174447,-187500.02235174447,1730243047.7691529,1730243045.843918,2000
3652.967948075288,-110835.0140851753,-365.4957253331811,-187500.02235174447,-187500.02235174447,-187500.02235174447,-187500.02235174447,-187500.02235174447,1730243047.7732112,1730243045.843918,2000
3675.9678931198,-110849.16273941552,-412.09911252249634,-187500.02235174447,-187500.02235174447,-187500.02235174447,-187500.02235174447,-187500.02235174447,1730243047.7764049,1730243045.843918,2000
3712.8035679821455,-110952.85248194369,-440.8881593809318,-187500.02235174447,-187500.02235174447,-187500.02235174447,-187500.02235174447,-187500.02235174447,1730243047.781402,1730243045.843918,2000
3705.896878945456,-110954.0371243998,-422.6938393943119,-187500.02235174447,-187500.02235174447,-187500.02235174447,-187500.02235174447,-187500.02235174447,1730243047.7848673,1730243045.843918,2000
3670.5811227060703,-110936.60276372466,-422.6938393943119,-187500.02235174447,-187500.02235174447,-187500.02235174447,-187500.02235174447,-187500.02235174447,1730243047.7890005,1730243045.843918,2000
3638.752238601713,-110922.56586820672,-428.8629208639766,-187500.02235174447,-187500.02235174447,-187500.02235174447,-187500.02235174447,-187500.02235174447,1730243047.7930088,1730243045.843918,2000
3624.3577151724953,-110881.43865840897,-391.1555279678736,-187500.02235174447,-187500.02235174447,-187500.02235174447,-187500.02235174447,-187500.02235174447,1730243047.7967744,1730243045.843918,2000
3668.994148849744,-110940.40256028206,-412.5908509005131,-187500.02235174447,-187500.02235174447,-187500.02235174447,-187500.02235174447,-187500.02235174447,1730243047.8009331,1730243045.843918,2000
3731.8696060025222,-110990.58222658424,-428.34883074150457,-187500.02235174447,-187500.02235174447,-187500.02235174447,-187500.02235174447,-187500.02235174447,1730243047.8037782,1730243045.843918,2000
3705.159271378431,-110959.98268842492,-380.6949115627899,-187500.02235174447,-187500.02235174447,-187500.02235174447,-187500.02235174447,-187500.02235174447,1730243047.8091807,1730243045.843918,2000
3655.314881243096,-110995.23138943092,-444.3303280270491,-187500.02235174447,-187500.02235174447,-187500.02235174447,-187500.02235174447,-187500.02235174447,1730243047.812744,1730243045.843918,2000
3680.684111199869,-110980.88156949062,-376.2469144161838,-187500.02235174447,-187500.02235174447,-187500.02235174447,-187500.02235174447,-187500.02235174447,1730243047.817211,1730243045.843918,2000
3612.891270266923,-111007.41309015908,-363.1934956542845,-187500.02235174447,-187500.02235174447,-187500.02235174447,-187500.02235174447,-187500.02235174447,1730243047.8207128,1730243045.843918,2000
3701.582992265581,-110946.14695860707,-437.5577494570911,-187500.02235174447,-187500.02235174447,-187500.02235174447,-187500.02235174447,-187500.02235174447,1730243047.8247392,1730243045.843918,2000
3784.1279845390304,-110930.65719969956,-483.6693982683896,-187500.02235174447,-187500.02235174447,-187500.02235174447,-187500.02235174447,-187500.02235174447,1730243047.8287797,1730243045.843918,2000
3669.240018038752,-110984.43549685902,-407.3158392090606,-187500.02235174447,-187500.02235174447,-187500.02235174447,-187500.02235174447,-187500.02235174447,1730243047.8318388,1730243045.843918,2000
3647.7152881282914,-111003.79210755732,-373.4752981037257,-187500.02235174447,-187500.02235174447,-187500.02235174447,-187500.02235174447,-187500.02235174447,1730243047.8366537,1730243045.843918,2000
3585.219810631253,-111002.80863080129,-411.4732636777477,-187500.02235174447,-187500.02235174447,-187500.02235174447,-187500.02235174447,-187500.02235174447,1730243047.8406527,1730243045.843918,2000
3625.609412861993,-111081.88910268416,-401.6161443729573,-187500.02235174447,-187500.02235174447,-187500.02235174447,-187500.02235174447,-187500.02235174447,1730243047.8447058,1730243045.843918,2000
3690.362416549017,-111072.5684252463,-364.8251729995219,-187500.02235174447,-187500.02235174447,-187500.02235174447,-187500.02235174447,-187500.02235174447,1730243047.8487227,1730243045.843918,2000
3665.82020113709,-111038.37025622968,-446.5207989836692,-187500.02235174447,-187500.02235174447,-187500.02235174447,-187500.02235174447,-187500.02235174447,1730243047.8517108,1730243045.843918,2000
3662.243922024241,-111054.2623465374,-407.3828944424265,-187500.02235174447,-187500.02235174447,-187500.02235174447,-187500.02235174447,-187500.02235174447,1730243047.855724,1730243045.843918,2000
3700.085425387076,-111107.3700913632,-361.9641497092426,-187500.02235174447,-187500.02235174447,-187500.02235174447,-187500.02235174447,-187500.02235174447,1730243047.8597293,1730243045.843918,2000
3735.825864771112,-111082.20202710654,-409.014571787664,-187500.02235174447,-187500.02235174447,-187500.02235174447,-187500.02235174447,-187500.02235174447,1730243047.8637428,1730243045.843918,2000
3684.170983334897,-111131.9346585196,-387.400434899382,-187500.02235174447,-187500.02235174447,-187500.02235174447,-187500.02235174447,-187500.02235174447,1730243047.8687923,1730243045.843918,2000
3697.626733496992,-111132.1805277086,-372.2012486697733,-187500.02235174447,-187500.02235174447,-187500.02235174447,-187500.02235174447,-187500.02235174447,1730243047.87283,1730243045.843918,2000
3816.448607021404,-111054.2623465374,-448.3089385400938,-187500.02235174447,-187500.02235174447,-187500.02235174447,-187500.02235174447,-187500.02235174447,1730243047.8767853,1730243045.843918,2000
3682.248733311741,-111101.64804478265,-465.5644852595908,-187500.02235174447,-187500.02235174447,-187500.02235174447,-187500.02235174447,-187500.02235174447,1730243047.8797543,1730243045.843918,2000
3550.9769381257224,-111142.37292318024,-422.5373771831247,-187500.02235174447,-187500.02235174447,-187500.02235174447,-187500.02235174447,-187500.02235174447,1730243047.8837712,1730243045.843918,2000
3635.57829088906,-111111.3263501318,-341.3558413214495,-187500.02235174447,-187500.02235174447,-187500.02235174447,-187500.02235174447,-187500.02235174447,1730243047.8877754,1730243045.843918,2000
3678.270122798696,-111164.61290891324,-372.2459521586839,-187500.02235174447,-187500.02235174447,-187500.02235174447,-187500.02235174447,-187500.02235174447,1730243047.892789,1730243045.843918,2000
3711.015428425721,-111144.51869064794,-449.9182641408759,-187500.02235174447,-187500.02235174447,-187500.02235174447,-187500.02235174447,-187500.02235174447,1730243047.8967955,1730243045.843918,2000
3691.770576449702,-111170.13378979372,-357.2479316291728,-187500.02235174447,-187500.02235174447,-187500.02235174447,-187500.02235174447,-187500.02235174447,1730243047.900777,1730243045.843918,2000
3627.531662885149,-111192.57494122683,-361.0030246976644,-187500.02235174447,-187500.02235174447,-187500.02235174447,-187500.02235174447,-187500.02235174447,1730243047.9048233,1730243045.843918,2000
3670.983454106266,-111140.16010047914,-457.0261188776635,-187500.02235174447,-187500.02235174447,-187500.02235174447,-187500.02235174447,-187500.02235174447,1730243047.907806,1730243045.843918,2000
3748.991042255288,-111176.72755440803,-418.24584224770575,-187500.02235174447,-187500.02235174447,-187500.02235174447,-187500.02235174447,-187500.02235174447,1730243047.911808,1730243045.843918,2000
3725.9016902329554,-111230.48349982304,-404.27600196313887,-187500.02235174447,-187500.02235174447,-187500.02235174447,-187500.02235174447,-187500.02235174447,1730243047.915805,1730243045.843918,2000
3644.809561349101,-111202.18619134264,-378.303274906072,-187500.02235174447,-187500.02235174447,-187500.02235174447,-187500.02235174447,-187500.02235174447,1730243047.9198296,1730243045.843918,2000
3587.969075199256,-111240.8100057614,-413.5966794010019,-187500.02235174447,-187500.02235174447,-187500.02235174447,-187500.02235174447,-187500.02235174447,1730243047.9248252,1730243045.843918,2000
3663.339157502551,-111257.0150204915,-483.8929157129426,-187500.02235174447,-187500.02235174447,-187500.02235174447,-187500.02235174447,-187500.02235174447,1730243047.9289265,1730243045.843918,2000
3688.0378351256654,-111220.53697354042,-396.2740774481389,-187500.02235174447,-187500.02235174447,-187500.02235174447,-187500.02235174447,-187500.02235174447,1730243047.9329495,1730243045.843918,2000
3660.500485956727,-111264.23463395056,-372.2459521586839,-187500.02235174447,-187500.02235174447,-187500.02235174447,-187500.02235174447,-187500.02235174447,1730243047.9358728,1730243045.843918,2000
3673.911532629911,-111250.42125587715,-341.1099721324411,-187500.02235174447,-187500.02235174447,-187500.02235174447,-187500.02235174447,-187500.02235174447,1730243047.9398618,1730243045.843918,2000
3698.7666724642127,-111260.25602343753,-403.9854292852198,-187500.02235174447,-187500.02235174447,-187500.02235174447,-187500.02235174447,-187500.02235174447,1730243047.9438272,1730243045.843918,2000
3638.372258945973,-111257.19383444711,-416.8153306025661,-187500.02235174447,-187500.02235174447,-187500.02235174447,-187500.02235174447,-187500.02235174447,1730243047.947944,1730243045.843918,2000
3673.755070418724,-111220.67108400716,-388.40626339987085,-187500.02235174447,-187500.02235174447,-187500.02235174447,-187500.02235174447,-187500.02235174447,1730243047.9519432,1730243045.843918,2000
3705.539251034171,-111288.84390459584,-358.6337397854018,-187500.02235174447,-187500.02235174447,-187500.02235174447,-187500.02235174447,-187500.02235174447,1730243047.9569016,1730243045.843918,2000
3683.992169379255,-111261.28420368246,-432.08157206554085,-187500.02235174447,-187500.02235174447,-187500.02235174447,-187500.02235174447,-187500.02235174447,1730243047.9598975,1730243045.843918,2000
3660.791058634646,-111300.33270124588,-386.1934406987954,-187500.02235174447,-187500.02235174447,-187500.02235174447,-187500.02235174447,-187500.02235174447,1730243047.9639027,1730243045.843918,2000
3650.8445323520345,-111321.8797829008,-395.9835047702199,-187500.02235174447,-187500.02235174447,-187500.02235174447,-187500.02235174447,-187500.02235174447,1730243047.967898,1730243045.843918,2000
3687.791965936657,-111290.40852670772,-342.0710971440193,-187500.02235174447,-187500.02235174447,-187500.02235174447,-187500.02235174447,-187500.02235174447,1730243047.9719408,1730243045.843918,2000
3647.603529406015,-111333.05565512844,-398.6433623604015,-187500.02235174447,-187500.02235174447,-187500.02235174447,-187500.02235174447,-187500.02235174447,1730243047.97601,1730243045.843918,2000
3606.543374841616,-111356.0779519174,-430.00285983119727,-187500.02235174447,-187500.02235174447,-187500.02235174447,-187500.02235174447,-187500.02235174447,1730243047.9800527,1730243045.843918,2000
3668.5247622161824,-111346.779626224,-424.7054963952895,-187500.02235174447,-187500.02235174447,-187500.02235174447,-187500.02235174447,-187500.02235174447,1730243047.9850688,1730243045.843918,2000
3772.303911722173,-111335.89432667429,-406.8688043199545,-187500.02235174447,-187500.02235174447,-187500.02235174447,-187500.02235174447,-187500.02235174447,1730243047.988065,1730243045.843918,2000
3711.261297614729,-111279.03148877996,-387.89217327739874,-187500.02235174447,-187500.02235174447,-187500.02235174447,-187500.02235174447,-187500.02235174447,1730243047.9920127,1730243045.843918,2000
3666.9154366154,-111349.8418152144,-395.84939430348805,-187500.02235174447,-187500.02235174447,-187500.02235174447,-187500.02235174447,-187500.02235174447,1730243047.9961915,1730243045.843918,2000
3585.3539210979848,-111431.87271736536,-432.9532900992978,-187500.02235174447,-187500.02235174447,-187500.02235174447,-187500.02235174447,-187500.02235174447,1730243048.0001838,1730243045.843918,2000
3628.604546619004,-111414.48306017912,-460.4682875237808,-187500.02235174447,-187500.02235174447,-187500.02235174447,-187500.02235174447,-187500.02235174447,1730243048.004058,1730243045.843918,2000
3691.9270386608887,-111384.2411499311,-372.3353591365051,-187500.02235174447,-187500.02235174447,-187500.02235174447,-187500.02235174447,-187500.02235174447,1730243048.0082943,1730243045.843918,2000
3762.826772073123,-111396.86988554837,-408.5451851541025,-187500.02235174447,-187500.02235174447,-187500.02235174447,-187500.02235174447,-187500.02235174447,1730243048.0131457,1730243045.843918,2000
3790.364121242061,-111364.68337353272,-408.8581095764768,-187500.02235174447,-187500.02235174447,-187500.02235174447,-187500.02235174447,-187500.02235174447,1730243048.016431,1730243045.843918,2000
3586.024473431644,-111445.86490939438,-334.42680054030427,-187500.02235174447,-187500.02235174447,-187500.02235174447,-187500.02235174447,-187500.02235174447,1730243048.020023,1730243045.843918,2000
3558.8224004295357,-111472.59759576293,-352.95639669375385,-187500.02235174447,-187500.02235174447,-187500.02235174447,-187500.02235174447,-187500.02235174447,1730243048.0242522,1730243045.843918,2000
3656.432468465861,-111415.0418537905,-422.3809149719376,-187500.02235174447,-187500.02235174447,-187500.02235174447,-187500.02235174447,-187500.02235174447,1730243048.0280993,1730243045.843918,2000
3706.9474109348553,-111446.78133091705,-404.7006851077897,-187500.02235174447,-187500.02235174447,-187500.02235174447,-187500.02235174447,-187500.02235174447,1730243048.0323377,1730243045.843918,2000
3699.683093986881,-111472.8658166964,-324.8379021689776,-187500.02235174447,-187500.02235174447,-187500.02235174447,-187500.02235174447,-187500.02235174447,1730243048.0361865,1730243045.843918,2000
3690.697692715847,-111431.51508945409,-361.0700799310303,-187500.02235174447,-187500.02235174447,-187500.02235174447,-187500.02235174447,-187500.02235174447,1730243048.0404048,1730243045.843918,2000
3676.370224519995,-111509.47797411418,-409.4392549323148,-187500.02235174447,-187500.02235174447,-187500.02235174447,-187500.02235174447,-187500.02235174447,1730243048.043332,1730243045.843918,2000
3704.6675330004136,-111486.74625000314,-421.1962725158063,-187500.02235174447,-187500.02235174447,-187500.02235174447,-187500.02235174447,-187500.02235174447,1730243048.0484085,1730243045.843918,2000
3681.868753656001,-111465.64620323732,-411.8755950779432,-187500.02235174447,-187500.02235174447,-187500.02235174447,-187500.02235174447,-187500.02235174447,1730243048.0521924,1730243045.843918,2000
3702.633524254981,-111472.28467134056,-474.7734039751773,-187500.02235174447,-187500.02235174447,-187500.02235174447,-187500.02235174447,-187500.02235174447,1730243048.0566509,1730243045.843918,2000
3692.150556105442,-111531.04740751356,-395.9611530257646,-187500.02235174447,-187500.02235174447,-187500.02235174447,-187500.02235174447,-187500.02235174447,1730243048.0606873,1730243045.843918,2000
3686.160288591419,-111506.9745787352,-372.0224347141307,-187500.02235174447,-187500.02235174447,-187500.02235174447,-187500.02235174447,-187500.02235174447,1730243048.0642693,1730243045.843918,2000
3544.7184496782365,-111516.6752358288,-349.7600972366449,-187500.02235174447,-187500.02235174447,-187500.02235174447,-187500.02235174447,-187500.02235174447,1730243048.0682392,1730243045.843918,2000
3642.395572947929,-111580.46711450424,-347.01083266864214,-187500.02235174447,-187500.02235174447,-187500.02235174447,-187500.02235174447,-187500.02235174447,1730243048.0711806,1730243045.843918,2000
3656.477171954772,-111536.34477094946,-411.6297258889349,-187500.02235174447,-187500.02235174447,-187500.02235174447,-187500.02235174447,-187500.02235174447,1730243048.07519,1730243045.843918,2000
3634.684221110848,-111507.17574443528,-503.7412647892553,-187500.02235174447,-187500.02235174447,-187500.02235174447,-187500.02235174447,-187500.02235174447,1730243048.080444,1730243045.843918,2000
3720.4478645858608,-111581.40588777135,-373.5870568260023,-187500.02235174447,-187500.02235174447,-187500.02235174447,-187500.02235174447,-187500.02235174447,1730243048.0843656,1730243045.843918,2000
3701.180660865386,-111575.77324816864,-303.8943176143548,-187500.02235174447,-187500.02235174447,-187500.02235174447,-187500.02235174447,-187500.02235174447,1730243048.0881834,1730243045.843918,2000
3718.056227929143,-111543.07264603052,-417.0835515360298,-187500.02235174447,-187500.02235174447,-187500.02235174447,-187500.02235174447,-187500.02235174447,1730243048.0925393,1730243045.843918,2000
3696.956181163333,-111603.60117001548,-438.4741709797586,-187500.02235174447,-187500.02235174447,-187500.02235174447,-187500.02235174447,-187500.02235174447,1730243048.0952475,1730243045.843918,2000
3628.045753007621,-111670.9022725704,-368.7814317681113,-187500.02235174447,-187500.02235174447,-187500.02235174447,-187500.02235174447,-187500.02235174447,1730243048.099434,1730243045.843918,2000
3656.365413232495,-111630.98205697324,-380.6502080738793,-187500.02235174447,-187500.02235174447,-187500.02235174447,-187500.02235174447,-187500.02235174447,1730243048.1031847,1730243045.843918,2000
3710.233117369785,-111631.8984784959,-441.8045809035994,-187500.02235174447,-187500.02235174447,-187500.02235174447,-187500.02235174447,-187500.02235174447,1730243048.1082036,1730243045.843918,2000
3745.235949186796,-111654.51844388468,-424.9960690732085,-187500.02235174447,-187500.02235174447,-187500.02235174447,-187500.02235174447,-187500.02235174447,1730243048.1121893,1730243045.843918,2000
3718.235041884785,-111603.80233571558,-337.80191395305565,-187500.02235174447,-187500.02235174447,-187500.02235174447,-187500.02235174447,-187500.02235174447,1730243048.1163895,1730243045.843918,2000
3671.7434134177465,-111699.95954036232,-351.2353123706952,-187500.02235174447,-187500.02235174447,-187500.02235174447,-187500.02235174447,-187500.02235174447,1730243048.120231,1730243045.843918,2000
3616.579308102049,-111703.84874389751,-394.8435658029993,-187500.02235174447,-187500.02235174447,-187500.02235174447,-187500.02235174447,-187500.02235174447,1730243048.1234014,1730243045.843918,2000
3606.5210230971607,-111653.02087700616,-375.5987138269799,-187500.02235174447,-187500.02235174447,-187500.02235174447,-187500.02235174447,-187500.02235174447,1730243048.1274047,1730243045.843918,2000
3655.024308565177,-111714.91285740292,-375.3528446379715,-187500.02235174447,-187500.02235174447,-187500.02235174447,-187500.02235174447,-187500.02235174447,1730243048.131412,1730243045.843918,2000
3642.216758992286,-111733.44245355636,-365.5851323110023,-187500.02235174447,-187500.02235174447,-187500.02235174447,-187500.02235174447,-187500.02235174447,1730243048.1361873,1730243045.843918,2000
3737.457542116349,-111679.0606592966,-380.6725598183346,-187500.02235174447,-187500.02235174447,-187500.02235174447,-187500.02235174447,-187500.02235174447,1730243048.140406,1730243045.843918,2000
3814.526356998248,-111680.62528140847,-435.5460924561134,-187500.02235174447,-187500.02235174447,-187500.02235174447,-187500.02235174447,-187500.02235174447,1730243048.1443553,1730243045.843918,2000
3686.942599647355,-111722.55715400664,-405.0583130190746,-187500.02235174447,-187500.02235174447,-187500.02235174447,-187500.02235174447,-187500.02235174447,1730243048.147414,1730243045.843918,2000
3544.3831735114068,-111698.28315952816,-362.7911642540889,-187500.02235174447,-187500.02235174447,-187500.02235174447,-187500.02235174447,-187500.02235174447,1730243048.1513796,1730243045.843918,2000
3591.701816523292,-111758.40935211294,-398.57630712703553,-187500.02235174447,-187500.02235174447,-187500.02235174447,-187500.02235174447,-187500.02235174447,1730243048.1554227,1730243045.843918,2000
3617.3169156690738,-111790.77467808424,-520.1697969639059,-187500.02235174447,-187500.02235174447,-187500.02235174447,-187500.02235174447,-187500.02235174447,1730243048.1594107,1730243045.843918,2000
3716.5810127950926,-111718.62324698248,-445.6267292054569,-187500.02235174447,-187500.02235174447,-187500.02235174447,-187500.02235174447,-187500.02235174447,1730243048.1644397,1730243045.843918,2000
3712.088312159576,-111704.16166831992,-356.42091708432645,-187500.02235174447,-187500.02235174447,-187500.02235174447,-187500.02235174447,-187500.02235174447,1730243048.1683228,1730243045.843918,2000
3697.984361408277,-111760.9798027253,-285.90116332783265,-187500.02235174447,-187500.02235174447,-187500.02235174447,-187500.02235174447,-187500.02235174447,1730243048.1723945,1730243045.843918,2000
3631.085590253543,-111783.28684369168,-383.9359145088094,-187500.02235174447,-187500.02235174447,-187500.02235174447,-187500.02235174447,-187500.02235174447,1730243048.1754725,1730243045.843918,2000
3621.9660785157776,-111766.85831151703,-448.3536420290044,-187500.02235174447,-187500.02235174447,-187500.02235174447,-187500.02235174447,-187500.02235174447,1730243048.179551,1730243045.843918,2000
3713.898803460456,-111829.4878994808,-345.5132657901366,-187500.02235174447,-187500.02235174447,-187500.02235174447,-187500.02235174447,-187500.02235174447,1730243048.1834416,1730243045.843918,2000
3687.9037246589337,-111784.73970708127,-332.63866098387973,-187500.02235174447,-187500.02235174447,-187500.02235174447,-187500.02235174447,-187500.02235174447,1730243048.187364,1730243045.843918,2000
3706.54507953466,-111790.4841054063,-385.0311499871195,-187500.02235174447,-187500.02235174447,-187500.02235174447,-187500.02235174447,-187500.02235174447,1730243048.1919348,1730243045.843918,2000
3727.712181533836,-111834.82996640564,-430.3157842535716,-187500.02235174447,-187500.02235174447,-187500.02235174447,-187500.02235174447,-187500.02235174447,1730243048.196576,1730243045.843918,2000
3629.9680030307777,-111870.92803370095,-337.0419546415752,-187500.02235174447,-187500.02235174447,-187500.02235174447,-187500.02235174447,-187500.02235174447,1730243048.2005205,1730243045.843918,2000
3604.4199591183615,-111895.82787702416,-326.9389661477764,-187500.02235174447,-187500.02235174447,-187500.02235174447,-187500.02235174447,-187500.02235174447,1730243048.2034557,1730243045.843918,2000
3618.702723825303,-111839.83675716362,-436.5742727010576,-187500.02235174447,-187500.02235174447,-187500.02235174447,-187500.02235174447,-187500.02235174447,1730243048.2077708,1730243045.843918,2000
3658.041794066643,-111820.07781506512,-467.4643835382919,-187500.02235174447,-187500.02235174447,-187500.02235174447,-187500.02235174447,-187500.02235174447,1730243048.2113893,1730243045.843918,2000
3739.960937495344,-111882.68505128444,-402.46551066225896,-187500.02235174447,-187500.02235174447,-187500.02235174447,-187500.02235174447,-187500.02235174447,1730243048.215618,1730243045.843918,2000
3638.282851968152,-111882.08155418416,-404.94655429679807,-187500.02235174447,-187500.02235174447,-187500.02235174447,-187500.02235174447,-187500.02235174447,1730243048.219496,1730243045.843918,2000
3618.8144825475792,-111867.5082167993,-455.170924087873,-187500.02235174447,-187500.02235174447,-187500.02235174447,-187500.02235174447,-187500.02235174447,1730243048.224435,1730243045.843918,2000
3751.136809722997,-111905.2156096954,-428.34883074150457,-187500.02235174447,-187500.02235174447,-187500.02235174447,-187500.02235174447,-187500.02235174447,1730243048.2284367,1730243045.843918,2000
3657.483000455261,-111910.35651092012,-416.4577026912812,-187500.02235174447,-187500.02235174447,-187500.02235174447,-187500.02235174447,-187500.02235174447,1730243048.2316835,1730243045.843918,2000
3619.149758714409,-111964.00069761284,-338.9865564091869,-187500.02235174447,-187500.02235174447,-187500.02235174447,-187500.02235174447,-187500.02235174447,1730243048.2355776,1730243045.843918,2000
3647.067087539088,-111940.9784008239,-315.8748526423994,-187500.02235174447,-187500.02235174447,-187500.02235174447,-187500.02235174447,-187500.02235174447,1730243048.2394807,1730243045.843918,2000
3675.58791346406,-111904.90268527302,-385.2323156872173,-187500.02235174447,-187500.02235174447,-187500.02235174447,-187500.02235174447,-187500.02235174447,1730243048.2436128,1730243045.843918,2000
3709.49550980276,-111982.68675597748,-411.2497462331946,-187500.02235174447,-187500.02235174447,-187500.02235174447,-187500.02235174447,-187500.02235174447,1730243048.2474823,1730243045.843918,2000
