Fp1,Fp2,C3,C4,P7,P8,O1,O2,time_board,time_marker,marker
-10457.59891958224,-37646.126764551016,9570.949920529118,-187500.02235174447,-187500.02235174447,-187500.02235174447,-187500.02235174447,-187500.02235174447,1730986666.1111343,1730986666.107968,2000
-10445.216053154,-37667.87501190604,9579.734156100054,-187500.02235174447,-187500.02235174447,-187500.02235174447,-187500.02235174447,-187500.02235174447,1730986666.1151748,1730986666.107968,2000
-10450.334602634264,-37725.810733534185,9595.670949896688,-187500.02235174447,-187500.02235174447,-187500.02235174447,-187500.02235174447,-187500.02235174447,1730986666.1191487,1730986666.107968,2000
-10452.726239290982,-37681.37546555704,9586.059699780906,-187500.02235174447,-187500.02235174447,-187500.02235174447,-187500.02235174447,-187500.02235174447,1730986666.1231537,1730986666.107968,2000
-10452.659184057617,-37648.60780818556,9574.995586275529,-187500.02235174447,-187500.02235174447,-187500.02235174447,-187500.02235174447,-187500.02235174447,1730986666.1282787,1730986666.107968,2000
-10455.16257943661,-37659.58251471311,9576.202580476116,-187500.02235174447,-187500.02235174447,-187500.02235174447,-187500.02235174447,-187500.02235174447,1730986666.1311607,1730986666.107968,2000
-10451.87687300168,-37732.51625687078,9586.75260385902,-187500.02235174447,-187500.02235174447,-187500.02235174447,-187500.02235174447,-187500.02235174447,1730986666.1341436,1730986666.107968,2000
-10448.68057354457,-37694.585346530126,9581.879923567763,-187500.02235174447,-187500.02235174447,-187500.02235174447,-187500.02235174447,-187500.02235174447,1730986666.1392612,1730986666.107968,2000
-10450.15578867862,-37611.14628447846,9576.202580476116,-187500.02235174447,-187500.02235174447,-187500.02235174447,-187500.02235174447,-187500.02235174447,1730986666.14332,1730986666.107968,2000
-10452.569777079794,-37629.38530795399,9577.32016769888,-187500.02235174447,-187500.02235174447,-187500.02235174447,-187500.02235174447,-187500.02235174447,1730986666.147477,1730986666.107968,2000
-10453.128570691177,-37738.59593136262,9587.579618403866,-187500.02235174447,-187500.02235174447,-187500.02235174447,-187500.02235174447,-187500.02235174447,1730986666.15117,1730986666.107968,2000
-10460.862274272711,-37724.3578701446,9579.309472955403,-187500.02235174447,-187500.02235174447,-187500.02235174447,-187500.02235174447,-187500.02235174447,1730986666.15624,1730986666.107968,2000
-10458.425934127084,-37671.89832590799,9567.41834490518,-187500.02235174447,-187500.02235174447,-187500.02235174447,-187500.02235174447,-187500.02235174447,1730986666.159268,1730986666.107968,2000
-10445.10429443172,-37640.15884878145,9567.463048394093,-187500.02235174447,-187500.02235174447,-187500.02235174447,-187500.02235174447,-187500.02235174447,1730986666.1622963,1730986666.107968,2000
-10437.795273994836,-37660.9906746138,9583.176324746171,-187500.02235174447,-187500.02235174447,-187500.02235174447,-187500.02235174447,-187500.02235174447,1730986666.1672847,1730986666.107968,2000
-10449.351125878233,-37697.98281168733,9582.438717179146,-187500.02235174447,-187500.02235174447,-187500.02235174447,-187500.02235174447,-187500.02235174447,1730986666.1714573,1730986666.107968,2000
-10462.605710340227,-37634.57091266762,9568.021842005472,-187500.02235174447,-187500.02235174447,-187500.02235174447,-187500.02235174447,-187500.02235174447,1730986666.1753902,1730986666.107968,2000
-10458.02360272689,-37611.660374600935,9566.27840593796,-187500.02235174447,-187500.02235174447,-187500.02235174447,-187500.02235174447,-187500.02235174447,1730986666.1793427,1730986666.107968,2000
-10453.106218946725,-37661.75063392528,9580.047080522429,-187500.02235174447,-187500.02235174447,-187500.02235174447,-187500.02235174447,-187500.02235174447,1730986666.184368,1730986666.107968,2000
-10457.867140515702,-37669.55139274018,9585.120926513782,-187500.02235174447,-187500.02235174447,-187500.02235174447,-187500.02235174447,-187500.02235174447,1730986666.1873856,1730986666.107968,2000
-10454.939061992058,-37609.06757224412,9570.681699595654,-187500.02235174447,-187500.02235174447,-187500.02235174447,-187500.02235174447,-187500.02235174447,1730986666.190242,1730986666.107968,2000
-10448.390000866651,-37585.70999928832,9564.400859403711,-187500.02235174447,-187500.02235174447,-187500.02235174447,-187500.02235174447,-187500.02235174447,1730986666.1953895,1730986666.107968,2000
-10442.958526964012,-37654.4416134884,9574.503847897511,-187500.02235174447,-187500.02235174447,-187500.02235174447,-187500.02235174447,-187500.02235174447,1730986666.1992764,1730986666.107968,2000
-10441.952698463523,-37718.92639624195,9581.388185189746,-187500.02235174447,-187500.02235174447,-187500.02235174447,-187500.02235174447,-187500.02235174447,1730986666.2034144,1730986666.107968,2000
-10456.011945725912,-37648.42899422992,9573.676833352663,-187500.02235174447,-187500.02235174447,-187500.02235174447,-187500.02235174447,-187500.02235174447,1730986666.2072985,1730986666.107968,2000
-10448.345297377742,-37603.70315357485,9568.044193749927,-187500.02235174447,-187500.02235174447,-187500.02235174447,-187500.02235174447,-187500.02235174447,1730986666.2103968,1730986666.107968,2000
-10433.816663481792,-37663.49406999279,9576.247283965024,-187500.02235174447,-187500.02235174447,-187500.02235174447,-187500.02235174447,-187500.02235174447,1730986666.2143848,1730986666.107968,2000
-10429.480425057463,-37765.395672964536,9587.736080615054,-187500.02235174447,-187500.02235174447,-187500.02235174447,-187500.02235174447,-187500.02235174447,1730986666.2183998,1730986666.107968,2000
-10442.53384381936,-37698.18397738743,9577.297815954424,-187500.02235174447,-187500.02235174447,-187500.02235174447,-187500.02235174447,-187500.02235174447,1730986666.222293,1730986666.107968,2000
-10449.529939833874,-37603.50198787475,9570.860513551295,-187500.02235174447,-187500.02235174447,-187500.02235174447,-187500.02235174447,-187500.02235174447,1730986666.227285,1730986666.107968,2000
-10449.038201455856,-37602.429104140894,9576.068470009384,-187500.02235174447,-187500.02235174447,-187500.02235174447,-187500.02235174447,-187500.02235174447,1730986666.231295,1730986666.107968,2000
-10441.50566357442,-37683.63299174702,9585.970292803084,-187500.02235174447,-187500.02235174447,-187500.02235174447,-187500.02235174447,-187500.02235174447,1730986666.2353213,1730986666.107968,2000
-10449.68640204506,-37708.33166937013,9579.46593516659,-187500.02235174447,-187500.02235174447,-187500.02235174447,-187500.02235174447,-187500.02235174447,1730986666.23831,1730986666.107968,2000
-10453.843826513748,-37610.11810423352,9565.27257743747,-187500.02235174447,-187500.02235174447,-187500.02235174447,-187500.02235174447,-187500.02235174447,1730986666.242313,1730986666.107968,2000
-10445.461922343007,-37608.19585421036,9567.016013504985,-187500.02235174447,-187500.02235174447,-187500.02235174447,-187500.02235174447,-187500.02235174447,1730986666.246333,1730986666.107968,2000
-10441.818587996791,-37682.336590568615,9578.6612723662,-187500.02235174447,-187500.02235174447,-187500.02235174447,-187500.02235174447,-187500.02235174447,1730986666.250342,1730986666.107968,2000
-10448.50175958893,-37705.403590846494,9577.454278165613,-187500.02235174447,-187500.02235174447,-187500.02235174447,-187500.02235174447,-187500.02235174447,1730986666.2553828,1730986666.107968,2000
-10451.653355557128,-37634.794430112175,9564.89259778173,-187500.02235174447,-187500.02235174447,-187500.02235174447,-187500.02235174447,-187500.02235174447,1730986666.2593963,1730986666.107968,2000
-10450.82634101228,-37623.37268869551,9561.808057046896,-187500.02235174447,-187500.02235174447,-187500.02235174447,-187500.02235174447,-187500.02235174447,1730986666.2633877,1730986666.107968,2000
-10444.836073498258,-37691.9478406844,9573.341557185837,-187500.02235174447,-187500.02235174447,-187500.02235174447,-187500.02235174447,-187500.02235174447,1730986666.2663715,1730986666.107968,2000
-10450.803989267826,-37685.622297003545,9579.823563077874,-187500.02235174447,-187500.02235174447,-187500.02235174447,-187500.02235174447,-187500.02235174447,1730986666.2705617,1730986666.107968,2000
-10452.815646268804,-37634.97324406782,9570.927568784664,-187500.02235174447,-187500.02235174447,-187500.02235174447,-187500.02235174447,-187500.02235174447,1730986666.2744043,1730986666.107968,2000
-10444.701963031526,-37587.408731866926,9564.065583236885,-187500.02235174447,-187500.02235174447,-187500.02235174447,-187500.02235174447,-187500.02235174447,1730986666.278571,1730986666.107968,2000
-10435.82832048277,-37678.20151784438,9576.604911876311,-187500.02235174447,-187500.02235174447,-187500.02235174447,-187500.02235174447,-187500.02235174447,1730986666.283676,1730986666.107968,2000
-10438.756399006415,-37696.44054131991,9579.689452611145,-187500.02235174447,-187500.02235174447,-187500.02235174447,-187500.02235174447,-187500.02235174447,1730986666.2876232,1730986666.107968,2000
-10441.572718807784,-37652.54171520969,9570.905217040208,-187500.02235174447,-187500.02235174447,-187500.02235174447,-187500.02235174447,-187500.02235174447,1730986666.29165,1730986666.107968,2000
-10442.757361263915,-37629.58647365409,9569.18413271715,-187500.02235174447,-187500.02235174447,-187500.02235174447,-187500.02235174447,-187500.02235174447,1730986666.294642,1730986666.107968,2000
-10443.1149891752,-37699.256861121285,9577.923664799177,-187500.02235174447,-187500.02235174447,-187500.02235174447,-187500.02235174447,-187500.02235174447,1730986666.2985888,1730986666.107968,2000
-10458.78356203837,-37733.29856792672,9581.835220078852,-187500.02235174447,-187500.02235174447,-187500.02235174447,-187500.02235174447,-187500.02235174447,1730986666.3025453,1730986666.107968,2000
-10463.16450395161,-37663.56112522616,9575.7108420981,-187500.02235174447,-187500.02235174447,-187500.02235174447,-187500.02235174447,-187500.02235174447,1730986666.3065605,1730986666.107968,2000
-10452.234500912966,-37614.8790258025,9565.339632670835,-187500.02235174447,-187500.02235174447,-187500.02235174447,-187500.02235174447,-187500.02235174447,1730986666.3115568,1730986666.107968,2000
-10442.466788585996,-37635.710851634845,9575.509676398002,-187500.02235174447,-187500.02235174447,-187500.02235174447,-187500.02235174447,-187500.02235174447,1730986666.3154967,1730986666.107968,2000
-10444.07611418678,-37701.67084952246,9586.640845136744,-187500.02235174447,-187500.02235174447,-187500.02235174447,-187500.02235174447,-187500.02235174447,1730986666.3195603,1730986666.107968,2000
-10451.228672412475,-37660.16366006895,9574.392089175237,-187500.02235174447,-187500.02235174447,-187500.02235174447,-187500.02235174447,-187500.02235174447,1730986666.322574,1730986666.107968,2000
-10452.994460224443,-37611.19098796738,9565.22787394856,-187500.02235174447,-187500.02235174447,-187500.02235174447,-187500.02235174447,-187500.02235174447,1730986666.326506,1730986666.107968,2000
-10446.64656479914,-37631.03933704369,9572.64865310772,-187500.02235174447,-187500.02235174447,-187500.02235174447,-187500.02235174447,-187500.02235174447,1730986666.3305,1730986666.107968,2000
-10446.333640376764,-37704.53187281274,9583.533952657455,-187500.02235174447,-187500.02235174447,-187500.02235174447,-187500.02235174447,-187500.02235174447,1730986666.3345904,1730986666.107968,2000
-10446.579509565772,-37709.11398042608,9576.403746176213,-187500.02235174447,-187500.02235174447,-187500.02235174447,-187500.02235174447,-187500.02235174447,1730986666.3386035,1730986666.107968,2000
-10447.004192710425,-37607.30178443215,9569.31824318388,-187500.02235174447,-187500.02235174447,-187500.02235174447,-187500.02235174447,-187500.02235174447,1730986666.3435392,1730986666.107968,2000
-10436.96825944999,-37604.3737059085,9575.576731631369,-187500.02235174447,-187500.02235174447,-187500.02235174447,-187500.02235174447,-187500.02235174447,1730986666.3465176,1730986666.107968,2000
-10445.059590942812,-37646.19381978439,9582.6622346237,-187500.02235174447,-187500.02235174447,-187500.02235174447,-187500.02235174447,-187500.02235174447,1730986666.3505895,1730986666.107968,2000
-10466.539617364362,-37681.10724462357,9580.94115030064,-187500.02235174447,-187500.02235174447,-187500.02235174447,-187500.02235174447,-187500.02235174447,1730986666.3546312,1730986666.107968,2000
-10464.1703324521,-37597.42231338291,9569.809981561895,-187500.02235174447,-187500.02235174447,-187500.02235174447,-187500.02235174447,-187500.02235174447,1730986666.358617,1730986666.107968,2000
-10447.272413643886,-37588.459263856326,9569.56411237289,-187500.02235174447,-187500.02235174447,-187500.02235174447,-187500.02235174447,-187500.02235174447,1730986666.3626337,1730986666.107968,2000
-10428.854576212714,-37681.19665160139,9581.32112995638,-187500.02235174447,-187500.02235174447,-187500.02235174447,-187500.02235174447,-187500.02235174447,1730986666.366558,1730986666.107968,2000
-10445.327811876276,-37685.622297003545,9582.617531134789,-187500.02235174447,-187500.02235174447,-187500.02235174447,-187500.02235174447,-187500.02235174447,1730986666.3719163,1730986666.107968,2000
-10460.281128916877,-37601.78090355169,9572.514542640987,-187500.02235174447,-187500.02235174447,-187500.02235174447,-187500.02235174447,-187500.02235174447,1730986666.374719,1730986666.107968,2000
-10448.859387500212,-37593.91308950342,9570.502885640011,-187500.02235174447,-187500.02235174447,-187500.02235174447,-187500.02235174447,-187500.02235174447,1730986666.3786073,1730986666.107968,2000
-10442.153864163622,-37676.41337828796,9585.076223024873,-187500.02235174447,-187500.02235174447,-187500.02235174447,-187500.02235174447,-187500.02235174447,1730986666.3825345,1730986666.107968,2000
-10448.814684011304,-37753.23632398085,9591.938208572652,-187500.02235174447,-187500.02235174447,-187500.02235174447,-187500.02235174447,-187500.02235174447,1730986666.3865955,1730986666.107968,2000
-10454.000288724934,-37679.25204983378,9580.650577622722,-187500.02235174447,-187500.02235174447,-187500.02235174447,-187500.02235174447,-187500.02235174447,1730986666.390726,1730986666.107968,2000
-10444.59020430925,-37619.30467120465,9574.906179297708,-187500.02235174447,-187500.02235174447,-187500.02235174447,-187500.02235174447,-187500.02235174447,1730986666.3945875,1730986666.107968,2000
-10438.510529817406,-37640.15884878145,9579.75650784451,-187500.02235174447,-187500.02235174447,-187500.02235174447,-187500.02235174447,-187500.02235174447,1730986666.399576,1730986666.107968,2000
-10439.06932342879,-37692.327820340135,9589.792441104944,-187500.02235174447,-187500.02235174447,-187500.02235174447,-187500.02235174447,-187500.02235174447,1730986666.402595,1730986666.107968,2000
-10443.047933941834,-37714.925433984456,9583.869228824286,-187500.02235174447,-187500.02235174447,-187500.02235174447,-187500.02235174447,-187500.02235174447,1730986666.406741,1730986666.107968,2000
-10442.287974630352,-37657.72731992333,9573.766240330488,-187500.02235174447,-187500.02235174447,-187500.02235174447,-187500.02235174447,-187500.02235174447,1730986666.410647,1730986666.107968,2000
-10436.744742005438,-37696.55230004219,9579.868266566786,-187500.02235174447,-187500.02235174447,-187500.02235174447,-187500.02235174447,-187500.02235174447,1730986666.4146528,1730986666.107968,2000
-10444.97018396499,-37771.85532711212,9591.692339383644,-187500.02235174447,-187500.02235174447,-187500.02235174447,-187500.02235174447,-187500.02235174447,1730986666.4187171,1730986666.107968,2000
-10455.49785560344,-37734.7067278274,9590.485345183057,-187500.02235174447,-187500.02235174447,-187500.02235174447,-187500.02235174447,-187500.02235174447,1730986666.4227357,1730986666.107968,2000
-10445.774846765382,-37653.16756405444,9580.538818900444,-187500.02235174447,-187500.02235174447,-187500.02235174447,-187500.02235174447,-187500.02235174447,1730986666.4277637,1730986666.107968,2000
-10441.326849618776,-37648.25018027427,9580.94115030064,-187500.02235174447,-187500.02235174447,-187500.02235174447,-187500.02235174447,-187500.02235174447,1730986666.4307616,1730986666.107968,2000
-10445.618384554196,-37736.56192261719,9584.94211255814,-187500.02235174447,-187500.02235174447,-187500.02235174447,-187500.02235174447,-187500.02235174447,1730986666.433754,1730986666.107968,2000
-10452.59212882425,-37712.95848047239,9576.962539787595,-187500.02235174447,-187500.02235174447,-187500.02235174447,-187500.02235174447,-187500.02235174447,1730986666.4387767,1730986666.107968,2000
-10450.558120078817,-37667.249163061286,9574.056813008408,-187500.02235174447,-187500.02235174447,-187500.02235174447,-187500.02235174447,-187500.02235174447,1730986666.442804,1730986666.107968,2000
-10440.20926239601,-37661.03537810271,9577.968368288084,-187500.02235174447,-187500.02235174447,-187500.02235174447,-187500.02235174447,-187500.02235174447,1730986666.4467444,1730986666.107968,2000
-10443.338506619752,-37736.65132959501,9583.913932313197,-187500.02235174447,-187500.02235174447,-187500.02235174447,-187500.02235174447,-187500.02235174447,1730986666.450786,1730986666.107968,2000
-10451.295727645842,-37730.45989638089,9576.783725831954,-187500.02235174447,-187500.02235174447,-187500.02235174447,-187500.02235174447,-187500.02235174447,1730986666.4557889,1730986666.107968,2000
-10451.027506712378,-37664.61165721556,9566.121943726772,-187500.02235174447,-187500.02235174447,-187500.02235174447,-187500.02235174447,-187500.02235174447,1730986666.458953,1730986666.107968,2000
-10443.897300231136,-37645.05388081716,9565.026708248462,-187500.02235174447,-187500.02235174447,-187500.02235174447,-187500.02235174447,-187500.02235174447,1730986666.461906,1730986666.107968,2000
-10437.728218761473,-37706.521178069255,9578.996548533029,-187500.02235174447,-187500.02235174447,-187500.02235174447,-187500.02235174447,-187500.02235174447,1730986666.4668145,1730986666.107968,2000
-10439.58341355126,-37706.32001236916,9576.247283965024,-187500.02235174447,-187500.02235174447,-187500.02235174447,-187500.02235174447,-187500.02235174447,1730986666.470794,1730986666.107968,2000
-10440.030448440368,-37637.34252898008,9567.08306873835,-187500.02235174447,-187500.02235174447,-187500.02235174447,-187500.02235174447,-187500.02235174447,1730986666.4748766,1730986666.107968,2000
-10439.002268195423,-37627.105430019554,9649.605709267344,-187500.02235174447,-187500.02235174447,-187500.02235174447,-187500.02235174447,-187500.02235174447,1730986666.4788632,1730986666.107968,2000
-10462.87393127369,-37715.21600666237,9740.420846989256,-187500.02235174447,-187500.02235174447,-187500.02235174447,-187500.02235174447,-187500.02235174447,1730986666.4818015,1730986666.107968,2000
-10538.579289743817,-37721.18392243194,9746.16524531427,-187500.02235174447,-187500.02235174447,-187500.02235174447,-187500.02235174447,-187500.02235174447,1730986666.4857435,1730986666.107968,2000
-10531.85141466277,-37665.97511362733,9746.813445903474,-187500.02235174447,-187500.02235174447,-187500.02235174447,-187500.02235174447,-187500.02235174447,1730986666.4897337,1730986666.107968,2000
-10486.186800740576,-37600.70801981784,9731.301335251492,-187500.02235174447,-187500.02235174447,-187500.02235174447,-187500.02235174447,-187500.02235174447,1730986666.4947302,1730986666.107968,2000
-10519.155623812154,-37612.75561007924,10006.943047874338,-187500.02235174447,-187500.02235174447,-187500.02235174447,-187500.02235174447,-187500.02235174447,1730986666.4988365,1730986666.107968,2000
-10645.01829683999,-37726.01189923428,9959.266776951168,-187500.02235174447,-187500.02235174447,-187500.02235174447,-187500.02235174447,-187500.02235174447,1730986666.5029385,1730986666.107968,2000
-10652.595538210338,-37672.77004394175,10080.502638876753,-187500.02235174447,-187500.02235174447,-187500.02235174447,-187500.02235174447,-187500.02235174447,1730986666.5068347,1730986666.107968,2000
-10628.72387513207,-37622.09863926156,10056.630975798484,-187500.02235174447,-187500.02235174447,-187500.02235174447,-187500.02235174447,-187500.02235174447,1730986666.5109923,1730986666.107968,2000
-10624.633505896749,-37646.14911629547,9918.698360764784,-187500.02235174447,-187500.02235174447,-187500.02235174447,-187500.02235174447,-187500.02235174447,1730986666.5140991,1730986666.107968,2000
-10551.18567361661,-37712.10911418309,10166.601558518596,-187500.02235174447,-187500.02235174447,-187500.02235174447,-187500.02235174447,-187500.02235174447,1730986666.5177872,1730986666.107968,2000
-10681.764564724514,-37731.7562975593,10042.504673302732,-187500.02235174447,-187500.02235174447,-187500.02235174447,-187500.02235174447,-187500.02235174447,1730986666.522912,1730986666.107968,2000
-10636.234061269051,-37664.00816011526,9565.339632670835,-187500.02235174447,-187500.02235174447,-187500.02235174447,-187500.02235174447,-187500.02235174447,1730986666.5268617,1730986666.107968,2000
-10385.49219196942,-37660.43188100241,9483.286378775403,-187500.02235174447,-187500.02235174447,-187500.02235174447,-187500.02235174447,-187500.02235174447,1730986666.530789,1730986666.107968,2000
-10298.543906038274,-37764.479251441866,9249.30831781725,-187500.02235174447,-187500.02235174447,-187500.02235174447,-187500.02235174447,-187500.02235174447,1730986666.534908,1730986666.107968,2000
-10286.093984376668,-37722.525027099255,9270.587178538704,-187500.02235174447,-187500.02235174447,-187500.02235174447,-187500.02235174447,-187500.02235174447,1730986666.538824,1730986666.107968,2000
-10272.973510381402,-37644.87506686152,9381.831810692764,-187500.02235174447,-187500.02235174447,-187500.02235174447,-187500.02235174447,-187500.02235174447,1730986666.541835,1730986666.107968,2000
-10322.460272605453,-37654.84394488859,9439.633421854189,-187500.02235174447,-187500.02235174447,-187500.02235174447,-187500.02235174447,-187500.02235174447,1730986666.5458708,1730986666.107968,2000
-10358.983023045424,-37719.06050670869,9505.101681363783,-187500.02235174447,-187500.02235174447,-187500.02235174447,-187500.02235174447,-187500.02235174447,1730986666.5498357,1730986666.107968,2000
-10402.188945077532,-37720.26750090927,9549.335783640836,-187500.02235174447,-187500.02235174447,-187500.02235174447,-187500.02235174447,-187500.02235174447,1730986666.5549564,1730986666.107968,2000
-10433.906070459614,-37628.42418294241,9553.94024299863,-187500.02235174447,-187500.02235174447,-187500.02235174447,-187500.02235174447,-187500.02235174447,1730986666.5590825,1730986666.107968,2000
-10436.610631538706,-37598.69636281686,9554.27551916546,-187500.02235174447,-187500.02235174447,-187500.02235174447,-187500.02235174447,-187500.02235174447,1730986666.562955,1730986666.107968,2000
-10439.181082151066,-37625.11612476303,9581.879923567763,-187500.02235174447,-187500.02235174447,-187500.02235174447,-187500.02235174447,-187500.02235174447,1730986666.5660036,1730986666.107968,2000
-10453.888530002658,-37708.1528554145,9595.38037721877,-187500.02235174447,-187500.02235174447,-187500.02235174447,-187500.02235174447,-187500.02235174447,1730986666.5700753,1730986666.107968,2000
-10451.78746602386,-37682.31423882416,9591.446470194634,-187500.02235174447,-187500.02235174447,-187500.02235174447,-187500.02235174447,-187500.02235174447,1730986666.5739987,1730986666.107968,2000
-10453.285032902364,-37625.49610441877,9673.902055490262,-187500.02235174447,-187500.02235174447,-187500.02235174447,-187500.02235174447,-187500.02235174447,1730986666.577896,1730986666.107968,2000
-10504.55993468284,-37677.01687538825,9844.736438362175,-187500.02235174447,-187500.02235174447,-187500.02235174447,-187500.02235174447,-187500.02235174447,1730986666.5829148,1730986666.107968,2000
-10620.677247128158,-37736.33840517264,9914.831508974015,-187500.02235174447,-187500.02235174447,-187500.02235174447,-187500.02235174447,-187500.02235174447,1730986666.586955,1730986666.107968,2000
-10626.421645453172,-37720.66983230947,9613.060607082916,-187500.02235174447,-187500.02235174447,-187500.02235174447,-187500.02235174447,-187500.02235174447,1730986666.5900016,1730986666.107968,2000
-10436.610631538706,-37665.6398374605,9471.909340847653,-187500.02235174447,-187500.02235174447,-187500.02235174447,-187500.02235174447,-187500.02235174447,1730986666.5939815,1730986666.107968,2000
-10387.459145481484,-37715.70774504039,9513.327123323335,-187500.02235174447,-187500.02235174447,-187500.02235174447,-187500.02235174447,-187500.02235174447,1730986666.5979805,1730986666.107968,2000
-10444.344335120242,-37735.86901853907,9560.13167621275,-187500.02235174447,-187500.02235174447,-187500.02235174447,-187500.02235174447,-187500.02235174447,1730986666.6018896,1730986666.107968,2000
-10471.83698080027,-37694.67475350795,9553.806132531898,-187500.02235174447,-187500.02235174447,-187500.02235174447,-187500.02235174447,-187500.02235174447,1730986666.6059172,1730986666.107968,2000
-10476.93317853608,-37650.08302331961,9544.708972538589,-187500.02235174447,-187500.02235174447,-187500.02235174447,-187500.02235174447,-187500.02235174447,1730986666.6109228,1730986666.107968,2000
-10469.132419721178,-37656.00623560027,9546.74298128402,-187500.02235174447,-187500.02235174447,-187500.02235174447,-187500.02235174447,-187500.02235174447,1730986666.6151285,1730986666.107968,2000
-10461.219902184,-37743.06628025368,9581.388185189746,-187500.02235174447,-187500.02235174447,-187500.02235174447,-187500.02235174447,-187500.02235174447,1730986666.6179297,1730986666.107968,2000
-10462.963338251511,-37755.58325714865,9559.32701341236,-187500.02235174447,-187500.02235174447,-187500.02235174447,-187500.02235174447,-187500.02235174447,1730986666.6219237,1730986666.107968,2000
-10451.340431134751,-37655.3356832666,9553.761429042986,-187500.02235174447,-187500.02235174447,-187500.02235174447,-187500.02235174447,-187500.02235174447,1730986666.6260235,1730986666.107968,2000
-10487.192629241066,-37622.90330206195,9594.352196973825,-187500.02235174447,-187500.02235174447,-187500.02235174447,-187500.02235174447,-187500.02235174447,1730986666.630005,1730986666.107968,2000
-10481.336472193774,-37659.98484611331,9579.488286911046,-187500.02235174447,-187500.02235174447,-187500.02235174447,-187500.02235174447,-187500.02235174447,1730986666.6339896,1730986666.107968,2000
-10454.112047447212,-37705.80592224669,9568.13360072775,-187500.02235174447,-187500.02235174447,-187500.02235174447,-187500.02235174447,-187500.02235174447,1730986666.6380048,1730986666.107968,2000
-10466.561969108818,-37656.31916002264,9559.237606434535,-187500.02235174447,-187500.02235174447,-187500.02235174447,-187500.02235174447,-187500.02235174447,1730986666.643008,1730986666.107968,2000
-10464.505608618929,-37630.748764365766,9555.057830221394,-187500.02235174447,-187500.02235174447,-187500.02235174447,-187500.02235174447,-187500.02235174447,1730986666.645995,1730986666.107968,2000
-10448.412352611109,-37699.83800647712,9577.588388632345,-187500.02235174447,-187500.02235174447,-187500.02235174447,-187500.02235174447,-187500.02235174447,1730986666.6500008,1730986666.107968,2000
-10483.906922806134,-37721.899178254505,9555.817789532875,-187500.02235174447,-187500.02235174447,-187500.02235174447,-187500.02235174447,-187500.02235174447,1730986666.65406,1730986666.107968,2000
-10530.733827440004,-37636.06847954613,9562.836237291842,-187500.02235174447,-187500.02235174447,-187500.02235174447,-187500.02235174447,-187500.02235174447,1730986666.6580224,1730986666.107968,2000
-10502.79414687087,-37589.15216793444,9590.641807394244,-187500.02235174447,-187500.02235174447,-187500.02235174447,-187500.02235174447,-187500.02235174447,1730986666.662022,1730986666.107968,2000
-10479.45892565953,-37648.004311085264,9601.549458688434,-187500.02235174447,-187500.02235174447,-187500.02235174447,-187500.02235174447,-187500.02235174447,1730986666.6660156,1730986666.107968,2000
-10482.588169883273,-37695.99350643081,9611.697150671143,-187500.02235174447,-187500.02235174447,-187500.02235174447,-187500.02235174447,-187500.02235174447,1730986666.671032,1730986666.107968,2000
-10469.914730777113,-37645.79148838419,9548.061734206884,-187500.02235174447,-187500.02235174447,-187500.02235174447,-187500.02235174447,-187500.02235174447,1730986666.674074,1730986666.107968,2000
-10455.855483514724,-37627.57481665311,9547.748809784507,-187500.02235174447,-187500.02235174447,-187500.02235174447,-187500.02235174447,-187500.02235174447,1730986666.6780612,1730986666.107968,2000
-10493.272303732909,-37695.39000933051,9555.460161621591,-187500.02235174447,-187500.02235174447,-187500.02235174447,-187500.02235174447,-187500.02235174447,1730986666.6820192,1730986666.107968,2000
-10522.687199436094,-37754.55507690372,9536.662344534678,-187500.02235174447,-187500.02235174447,-187500.02235174447,-187500.02235174447,-187500.02235174447,1730986666.6860652,1730986666.107968,2000
-10491.081832776288,-37659.0907763351,9582.70693811261,-187500.02235174447,-187500.02235174447,-187500.02235174447,-187500.02235174447,-187500.02235174447,1730986666.6901264,1730986666.107968,2000
-10471.658166844629,-37609.08992398858,9599.224877265082,-187500.02235174447,-187500.02235174447,-187500.02235174447,-187500.02235174447,-187500.02235174447,1730986666.694184,1730986666.107968,2000
-10494.74751886696,-37685.97992491483,9573.98975777504,-187500.02235174447,-187500.02235174447,-187500.02235174447,-187500.02235174447,-187500.02235174447,1730986666.698034,1730986666.107968,2000
-10511.89130686418,-37742.41807966448,9554.6554988212,-187500.02235174447,-187500.02235174447,-187500.02235174447,-187500.02235174447,-187500.02235174447,1730986666.7010448,1730986666.107968,2000
-10503.732920137993,-37696.93227969793,9528.436902575124,-187500.02235174447,-187500.02235174447,-187500.02235174447,-187500.02235174447,-187500.02235174447,1730986666.7061536,1730986666.107968,2000
-10483.88457106168,-37663.27055254824,9528.615716530769,-187500.02235174447,-187500.02235174447,-187500.02235174447,-187500.02235174447,-187500.02235174447,1730986666.7100887,1730986666.107968,2000
-10481.716451849516,-37677.88859342201,9541.065638192373,-187500.02235174447,-187500.02235174447,-187500.02235174447,-187500.02235174447,-187500.02235174447,1730986666.7140813,1730986666.107968,2000
-10457.285995159864,-37736.27134993927,9544.88778649423,-187500.02235174447,-187500.02235174447,-187500.02235174447,-187500.02235174447,-187500.02235174447,1730986666.7180643,1730986666.107968,2000
-10481.247065215954,-37709.22573914835,9547.346478384314,-187500.02235174447,-187500.02235174447,-187500.02235174447,-187500.02235174447,-187500.02235174447,1730986666.7221315,1730986666.107968,2000
-10509.0302835739,-37657.86143039005,9541.803245759398,-187500.02235174447,-187500.02235174447,-187500.02235174447,-187500.02235174447,-187500.02235174447,1730986666.7261195,1730986666.107968,2000
-10501.229524759,-37699.77095124376,9544.686620794131,-187500.02235174447,-187500.02235174447,-187500.02235174447,-187500.02235174447,-187500.02235174447,1730986666.7290616,1730986666.107968,2000
-10503.867030604724,-37755.27033272628,9553.56026334289,-187500.02235174447,-187500.02235174447,-187500.02235174447,-187500.02235174447,-187500.02235174447,1730986666.734133,1730986666.107968,2000
-10507.376254484208,-37734.34909991612,9572.872170552277,-187500.02235174447,-187500.02235174447,-187500.02235174447,-187500.02235174447,-187500.02235174447,1730986666.738118,1730986666.107968,2000
-10511.108995808245,-37693.803035474186,9570.033499006451,-187500.02235174447,-187500.02235174447,-187500.02235174447,-187500.02235174447,-187500.02235174447,1730986666.7421963,1730986666.107968,2000
-10526.46464424904,-37692.12665464004,9547.45823710659,-187500.02235174447,-187500.02235174447,-187500.02235174447,-187500.02235174447,-187500.02235174447,1730986666.746134,1730986666.107968,2000
-10531.449083262574,-37768.90489684402,9556.980080244552,-187500.02235174447,-187500.02235174447,-187500.02235174447,-187500.02235174447,-187500.02235174447,1730986666.750152,1730986666.107968,2000
-10510.84077487478,-37734.907893527496,9595.80506036342,-187500.02235174447,-187500.02235174447,-187500.02235174447,-187500.02235174447,-187500.02235174447,1730986666.7541578,1730986666.107968,2000
-10504.895210849669,-37658.97901761282,9540.193920158616,-187500.02235174447,-187500.02235174447,-187500.02235174447,-187500.02235174447,-187500.02235174447,1730986666.75716,1730986666.107968,2000
-10490.210114742533,-37653.815764643645,9481.073556074329,-187500.02235174447,-187500.02235174447,-187500.02235174447,-187500.02235174447,-187500.02235174447,1730986666.7621422,1730986666.107968,2000
-10470.585283110771,-37670.75838694077,9531.32027760986,-187500.02235174447,-187500.02235174447,-187500.02235174447,-187500.02235174447,-187500.02235174447,1730986666.7661855,1730986666.107968,2000
-10495.55218166735,-37716.802980518696,9560.534007612943,-187500.02235174447,-187500.02235174447,-187500.02235174447,-187500.02235174447,-187500.02235174447,1730986666.7701824,1730986666.107968,2000
-10497.765004368426,-37679.56497425616,9539.232795147038,-187500.02235174447,-187500.02235174447,-187500.02235174447,-187500.02235174447,-187500.02235174447,1730986666.7741797,1730986666.107968,2000
-10487.572608896806,-37620.86929331652,9559.997565746018,-187500.02235174447,-187500.02235174447,-187500.02235174447,-187500.02235174447,-187500.02235174447,1730986666.7781928,1730986666.107968,2000
-10518.596830200771,-37682.11307312406,9592.429946950668,-187500.02235174447,-187500.02235174447,-187500.02235174447,-187500.02235174447,-187500.02235174447,1730986666.7822208,1730986666.107968,2000
-10537.439350776596,-37734.5055621273,9542.071466692862,-187500.02235174447,-187500.02235174447,-187500.02235174447,-187500.02235174447,-187500.02235174447,1730986666.7852263,1730986666.107968,2000
-10501.430690459096,-37682.60481150208,9510.68961747761,-187500.02235174447,-187500.02235174447,-187500.02235174447,-187500.02235174447,-187500.02235174447,1730986666.789221,1730986666.107968,2000
-10485.60565538474,-37648.51840120774,9517.082216391827,-187500.02235174447,-187500.02235174447,-187500.02235174447,-187500.02235174447,-187500.02235174447,1730986666.794237,1730986666.107968,2000
-10489.40545194214,-37686.96340167087,9523.83244321733,-187500.02235174447,-187500.02235174447,-187500.02235174447,-187500.02235174447,-187500.02235174447,1730986666.7983377,1730986666.107968,2000
-10485.940931551568,-37762.69111188545,9547.234719662038,-187500.02235174447,-187500.02235174447,-187500.02235174447,-187500.02235174447,-187500.02235174447,1730986666.8022356,1730986666.107968,2000
-10496.490954934474,-37725.8554370231,9545.580690572346,-187500.02235174447,-187500.02235174447,-187500.02235174447,-187500.02235174447,-187500.02235174447,1730986666.8062327,1730986666.107968,2000
-10499.59784741376,-37651.44647973138,9537.489359079524,-187500.02235174447,-187500.02235174447,-187500.02235174447,-187500.02235174447,-187500.02235174447,1730986666.810259,1730986666.107968,2000
-10486.969111796512,-37660.92361938043,9567.686565838643,-187500.02235174447,-187500.02235174447,-187500.02235174447,-187500.02235174447,-187500.02235174447,1730986666.813252,1730986666.107968,2000
-10490.321873464807,-37741.412251164,9601.929438344174,-187500.02235174447,-187500.02235174447,-187500.02235174447,-187500.02235174447,-187500.02235174447,1730986666.817266,1730986666.107968,2000
-10504.626989916203,-37785.75811216332,9626.561060733922,-187500.02235174447,-187500.02235174447,-187500.02235174447,-187500.02235174447,-187500.02235174447,1730986666.8212814,1730986666.107968,2000
-10528.23043206101,-37676.68159922143,9557.315356411382,-187500.02235174447,-187500.02235174447,-187500.02235174447,-187500.02235174447,-187500.02235174447,1730986666.8262837,1730986666.107968,2000
-10483.281073961389,-37665.10339559357,9530.202690387094,-187500.02235174447,-187500.02235174447,-187500.02235174447,-187500.02235174447,-187500.02235174447,1730986666.83031,1730986666.107968,2000
-10470.83115229978,-37705.35888735758,9539.07633293585,-187500.02235174447,-187500.02235174447,-187500.02235174447,-187500.02235174447,-187500.02235174447,1730986666.8333018,1730986666.107968,2000
-10484.93510305108,-37733.23151269335,9541.356210870292,-187500.02235174447,-187500.02235174447,-187500.02235174447,-187500.02235174447,-187500.02235174447,1730986666.837304,1730986666.107968,2000
-10476.173219224598,-37684.66117199197,9533.868376477763,-187500.02235174447,-187500.02235174447,-187500.02235174447,-187500.02235174447,-187500.02235174447,1730986666.8413222,1730986666.107968,2000
-10453.843826513748,-37669.77491018473,9543.88195799374,-187500.02235174447,-187500.02235174447,-187500.02235174447,-187500.02235174447,-187500.02235174447,1730986666.845318,1730986666.107968,2000
-10489.807783342336,-37748.38599543405,9551.190978430626,-187500.02235174447,-187500.02235174447,-187500.02235174447,-187500.02235174447,-187500.02235174447,1730986666.849332,1730986666.107968,2000
-10513.858260376246,-37767.22851600987,9526.40289382969,-187500.02235174447,-187500.02235174447,-187500.02235174447,-187500.02235174447,-187500.02235174447,1730986666.8545303,1730986666.107968,2000
-10492.512344421428,-37682.00131440179,9512.410701800669,-187500.02235174447,-187500.02235174447,-187500.02235174447,-187500.02235174447,-187500.02235174447,1730986666.8583384,1730986666.107968,2000
-10469.825323799292,-37673.57470674213,9552.442676120125,-187500.02235174447,-187500.02235174447,-187500.02235174447,-187500.02235174447,-187500.02235174447,1730986666.8614116,1730986666.107968,2000
-10465.757306308426,-37754.82329783717,9572.156914729703,-187500.02235174447,-187500.02235174447,-187500.02235174447,-187500.02235174447,-187500.02235174447,1730986666.8654728,1730986666.107968,2000
-10482.11878324971,-37774.1128533021,9566.680737338154,-187500.02235174447,-187500.02235174447,-187500.02235174447,-187500.02235174447,-187500.02235174447,1730986666.8694184,1730986666.107968,2000
-10484.376309439696,-37712.399686861005,9554.141408698728,-187500.02235174447,-187500.02235174447,-187500.02235174447,-187500.02235174447,-187500.02235174447,1730986666.8734188,1730986666.107968,2000
-10465.287919674864,-37666.98094212782,9546.117132439273,-187500.02235174447,-187500.02235174447,-187500.02235174447,-187500.02235174447,-187500.02235174447,1730986666.8773654,1730986666.107968,2000
-10459.968204494502,-37703.861320479074,9549.000507474007,-187500.02235174447,-187500.02235174447,-187500.02235174447,-187500.02235174447,-187500.02235174447,1730986666.882438,1730986666.107968,2000
-10472.172256967098,-37758.24311473884,9560.109324468294,-187500.02235174447,-187500.02235174447,-187500.02235174447,-187500.02235174447,-187500.02235174447,1730986666.8866353,1730986666.107968,2000
-10480.531809393384,-37699.63684077702,9566.479571638058,-187500.02235174447,-187500.02235174447,-187500.02235174447,-187500.02235174447,-187500.02235174447,1730986666.889601,1730986666.107968,2000
-10483.571646639306,-37671.31718055215,9569.877036795264,-187500.02235174447,-187500.02235174447,-187500.02235174447,-187500.02235174447,-187500.02235174447,1730986666.893601,1730986666.107968,2000
-10467.21016969802,-37678.46973877785,9609.95371460363,-187500.02235174447,-187500.02235174447,-187500.02235174447,-187500.02235174447,-187500.02235174447,1730986666.8976195,1730986666.107968,2000
-10472.395774411652,-37786.56277496371,9558.477647123056,-187500.02235174447,-187500.02235174447,-187500.02235174447,-187500.02235174447,-187500.02235174447,1730986666.9014935,1730986666.107968,2000
-10460.25877717242,-37770.73773988935,9530.247393876003,-187500.02235174447,-187500.02235174447,-187500.02235174447,-187500.02235174447,-187500.02235174447,1730986666.9056363,1730986666.107968,2000
-10455.654317814628,-37724.64844282251,9537.712876524076,-187500.02235174447,-187500.02235174447,-187500.02235174447,-187500.02235174447,-187500.02235174447,1730986666.9097817,1730986666.107968,2000
-10458.515341104909,-37703.45898907888,9567.686565838643,-187500.02235174447,-187500.02235174447,-187500.02235174447,-187500.02235174447,-187500.02235174447,1730986666.9146185,1730986666.107968,2000
-10463.052745229334,-37751.068204768686,9573.341557185837,-187500.02235174447,-187500.02235174447,-187500.02235174447,-187500.02235174447,-187500.02235174447,1730986666.9177582,1730986666.107968,2000
-10459.767038794404,-37714.76897177327,9586.104403269816,-187500.02235174447,-187500.02235174447,-187500.02235174447,-187500.02235174447,-187500.02235174447,1730986666.9216144,1730986666.107968,2000
-10487.59496064126,-37672.94885789738,9573.028632763462,-187500.02235174447,-187500.02235174447,-187500.02235174447,-187500.02235174447,-187500.02235174447,1730986666.9256675,1730986666.107968,2000
-10479.593036126262,-37689.22092786085,9536.662344534678,-187500.02235174447,-187500.02235174447,-187500.02235174447,-187500.02235174447,-187500.02235174447,1730986666.9295733,1730986666.107968,2000
-10450.02167821189,-37808.2216153409,9566.993661760527,-187500.02235174447,-187500.02235174447,-187500.02235174447,-187500.02235174447,-187500.02235174447,1730986666.9334793,1730986666.107968,2000
-10462.896283018146,-37792.798911666745,9558.522350611967,-187500.02235174447,-187500.02235174447,-187500.02235174447,-187500.02235174447,-187500.02235174447,1730986666.93867,1730986666.107968,2000
-10469.26653018791,-37697.42401807594,9559.684641323644,-187500.02235174447,-187500.02235174447,-187500.02235174447,-187500.02235174447,-187500.02235174447,1730986666.9426043,1730986666.107968,2000
-10477.179047725089,-37672.12184335254,9574.794420575432,-187500.02235174447,-187500.02235174447,-187500.02235174447,-187500.02235174447,-187500.02235174447,1730986666.9457667,1730986666.107968,2000
-10477.134344236178,-37707.772875758754,9536.50588232349,-187500.02235174447,-187500.02235174447,-187500.02235174447,-187500.02235174447,-187500.02235174447,1730986666.9495249,1730986666.107968,2000
-10464.572663852294,-37745.48026865486,9546.94414698412,-187500.02235174447,-187500.02235174447,-187500.02235174447,-187500.02235174447,-187500.02235174447,1730986666.953688,1730986666.107968,2000
-10462.203378940032,-37700.24033787732,9551.325088897358,-187500.02235174447,-187500.02235174447,-187500.02235174447,-187500.02235174447,-187500.02235174447,1730986666.957723,1730986666.107968,2000
-10456.660146315116,-37693.78068372973,9547.03355396194,-187500.02235174447,-187500.02235174447,-187500.02235174447,-187500.02235174447,-187500.02235174447,1730986666.9616337,1730986666.107968,2000
-10455.386096881164,-37732.89623652652,9554.677850565657,-187500.02235174447,-187500.02235174447,-187500.02235174447,-187500.02235174447,-187500.02235174447,1730986666.9665475,1730986666.107968,2000
-10461.26460567291,-37746.88842855554,9559.818751790375,-187500.02235174447,-187500.02235174447,-187500.02235174447,-187500.02235174447,-187500.02235174447,1730986666.9696045,1730986666.107968,2000
-10465.2208644415,-37770.38011197807,9550.36396388578,-187500.02235174447,-187500.02235174447,-187500.02235174447,-187500.02235174447,-187500.02235174447,1730986666.972638,1730986666.107968,2000
-10461.823399284292,-37746.95548378891,9540.305678880892,-187500.02235174447,-187500.02235174447,-187500.02235174447,-187500.02235174447,-187500.02235174447,1730986666.9776857,1730986666.107968,2000
-10460.325832405786,-37726.883617268046,9545.64774580571,-187500.02235174447,-187500.02235174447,-187500.02235174447,-187500.02235174447,-187500.02235174447,1730986666.981563,1730986666.107968,2000
-10465.846713286248,-37802.81249318272,9555.79543778842,-187500.02235174447,-187500.02235174447,-187500.02235174447,-187500.02235174447,-187500.02235174447,1730986666.9856706,1730986666.107968,2000
-10473.222788956498,-37776.370379492095,9550.296908652415,-187500.02235174447,-187500.02235174447,-187500.02235174447,-187500.02235174447,-187500.02235174447,1730986666.989692,1730986666.107968,2000
-10465.98082375298,-37718.88169275304,9554.096705209817,-187500.02235174447,-187500.02235174447,-187500.02235174447,-187500.02235174447,-187500.02235174447,1730986666.994707,1730986666.107968,2000
-10458.560044593816,-37701.93907045592,9580.292949711436,-187500.02235174447,-187500.02235174447,-187500.02235174447,-187500.02235174447,-187500.02235174447,1730986666.9980333,1730986666.107968,2000
-10471.904036033637,-37740.67464359697,9594.620417907288,-187500.02235174447,-187500.02235174447,-187500.02235174447,-187500.02235174447,-187500.02235174447,1730986667.0006971,1730986666.107968,2000
-10459.69998356104,-37757.79607984973,9586.976121303573,-187500.02235174447,-187500.02235174447,-187500.02235174447,-187500.02235174447,-187500.02235174447,1730986667.0057635,1730986666.107968,2000
-10490.388928698174,-37702.56491930067,9534.22600438905,-187500.02235174447,-187500.02235174447,-187500.02235174447,-187500.02235174447,-187500.02235174447,1730986667.0097797,1730986666.107968,2000
-10484.577475139797,-37689.89148019451,9545.535987083436,-187500.02235174447,-187500.02235174447,-187500.02235174447,-187500.02235174447,-187500.02235174447,1730986667.0137212,1730986666.107968,2000
-10459.252948671932,-37811.48497003138,9562.769182058477,-187500.02235174447,-187500.02235174447,-187500.02235174447,-187500.02235174447,-187500.02235174447,1730986667.017908,1730986666.107968,2000
-10473.915693034613,-37796.15167333504,9547.949975484607,-187500.02235174447,-187500.02235174447,-187500.02235174447,-187500.02235174447,-187500.02235174447,1730986667.0218189,1730986666.107968,2000
-10471.59111161126,-37704.86714897957,9552.733248798044,-187500.02235174447,-187500.02235174447,-187500.02235174447,-187500.02235174447,-187500.02235174447,1730986667.025841,1730986666.107968,2000
-10458.850617271735,-37696.686410508926,9571.620472862778,-187500.02235174447,-187500.02235174447,-187500.02235174447,-187500.02235174447,-187500.02235174447,1730986667.0287316,1730986666.107968,2000
-10447.674745044082,-37807.81928394071,9574.503847897511,-187500.02235174447,-187500.02235174447,-187500.02235174447,-187500.02235174447,-187500.02235174447,1730986667.0327857,1730986666.107968,2000
-10441.863291485704,-37791.59191746616,9551.41449587518,-187500.02235174447,-187500.02235174447,-187500.02235174447,-187500.02235174447,-187500.02235174447,1730986667.037898,1730986666.107968,2000
-10469.78062031038,-37726.68245156795,9555.057830221394,-187500.02235174447,-187500.02235174447,-187500.02235174447,-187500.02235174447,-187500.02235174447,1730986667.041819,1730986666.107968,2000
-10480.688271604571,-37693.62422151855,9586.126755014271,-187500.02235174447,-187500.02235174447,-187500.02235174447,-187500.02235174447,-187500.02235174447,1730986667.0458238,1730986666.107968,2000
-10477.044937258355,-37734.12558247156,9544.261937649482,-187500.02235174447,-187500.02235174447,-187500.02235174447,-187500.02235174447,-187500.02235174447,1730986667.0498705,1730986666.107968,2000
-10462.337489406764,-37768.457861954914,9529.755655497987,-187500.02235174447,-187500.02235174447,-187500.02235174447,-187500.02235174447,-187500.02235174447,1730986667.053857,1730986666.107968,2000
-10456.079000959278,-37772.86115561261,9523.206594372585,-187500.02235174447,-187500.02235174447,-187500.02235174447,-187500.02235174447,-187500.02235174447,1730986667.0568037,1730986666.107968,2000
-10450.64752705664,-37706.0517914357,9516.501071035991,-187500.02235174447,-187500.02235174447,-187500.02235174447,-187500.02235174447,-187500.02235174447,1730986667.0618036,1730986666.107968,2000
-10461.868102773202,-37720.66983230947,9537.109379423784,-187500.02235174447,-187500.02235174447,-187500.02235174447,-187500.02235174447,-187500.02235174447,1730986667.065712,1730986666.107968,2000
-10469.73591682147,-37785.15461506303,9549.268728407473,-187500.02235174447,-187500.02235174447,-187500.02235174447,-187500.02235174447,-187500.02235174447,1730986667.069796,1730986666.107968,2000
-10485.158620495631,-37733.87971328256,9544.485455094034,-187500.02235174447,-187500.02235174447,-187500.02235174447,-187500.02235174447,-187500.02235174447,1730986667.073714,1730986666.107968,2000
-10479.637739615173,-37688.86329994957,9576.224932220572,-187500.02235174447,-187500.02235174447,-187500.02235174447,-187500.02235174447,-187500.02235174447,1730986667.0767128,1730986666.107968,2000
-10462.046916728845,-37718.0546782082,9547.860568506789,-187500.02235174447,-187500.02235174447,-187500.02235174447,-187500.02235174447,-187500.02235174447,1730986667.080746,1730986666.107968,2000
-10441.103332174222,-37798.63271696958,9554.499036610012,-187500.02235174447,-187500.02235174447,-187500.02235174447,-187500.02235174447,-187500.02235174447,1730986667.0847368,1730986666.107968,2000
-10462.628062084685,-37772.07884455667,9560.109324468294,-187500.02235174447,-187500.02235174447,-187500.02235174447,-187500.02235174447,-187500.02235174447,1730986667.0886984,1730986666.107968,2000
-10468.573626109795,-37745.07793725466,9516.232850102526,-187500.02235174447,-187500.02235174447,-187500.02235174447,-187500.02235174447,-187500.02235174447,1730986667.09402,1730986666.107968,2000
-10455.229634669977,-37765.32861773117,9518.490376292511,-187500.02235174447,-187500.02235174447,-187500.02235174447,-187500.02235174447,-187500.02235174447,1730986667.0978825,1730986666.107968,2000
-10456.861312015211,-37844.45379310296,9524.033608917429,-187500.02235174447,-187500.02235174447,-187500.02235174447,-187500.02235174447,-187500.02235174447,1730986667.10183,1730986666.107968,2000
-10462.78452429587,-37787.83682439767,9509.952009910585,-187500.02235174447,-187500.02235174447,-187500.02235174447,-187500.02235174447,-187500.02235174447,1730986667.1048288,1730986666.107968,2000
-10469.802972054837,-37687.43278830442,9530.381504342737,-187500.02235174447,-187500.02235174447,-187500.02235174447,-187500.02235174447,-187500.02235174447,1730986667.1088068,1730986666.107968,2000
-10460.057611472324,-37703.39193384552,9593.413423706705,-187500.02235174447,-187500.02235174447,-187500.02235174447,-187500.02235174447,-187500.02235174447,1730986667.1128416,1730986666.107968,2000
-10477.514323891915,-37791.23428955487,9572.045156007429,-187500.02235174447,-187500.02235174447,-187500.02235174447,-187500.02235174447,-187500.02235174447,1730986667.116886,1730986666.107968,2000
-10480.26358845992,-37806.500531017846,9547.637051062233,-187500.02235174447,-187500.02235174447,-187500.02235174447,-187500.02235174447,-187500.02235174447,1730986667.1218505,1730986666.107968,2000
-10482.901094305647,-37744.18386747645,9510.063768632865,-187500.02235174447,-187500.02235174447,-187500.02235174447,-187500.02235174447,-187500.02235174447,1730986667.125882,1730986666.107968,2000
-10459.141189949654,-37724.96136724488,9522.491338550011,-187500.02235174447,-187500.02235174447,-187500.02235174447,-187500.02235174447,-187500.02235174447,1730986667.13006,1730986666.107968,2000
-10446.579509565772,-37736.91955052847,9549.246376663015,-187500.02235174447,-187500.02235174447,-187500.02235174447,-187500.02235174447,-187500.02235174447,1730986667.1330044,1730986666.107968,2000
-10442.310326374807,-37797.93981289146,9527.296963607903,-187500.02235174447,-187500.02235174447,-187500.02235174447,-187500.02235174447,-187500.02235174447,1730986667.1369584,1730986666.107968,2000
-10480.64356811566,-37753.03515828075,9531.02970493194,-187500.02235174447,-187500.02235174447,-187500.02235174447,-187500.02235174447,-187500.02235174447,1730986667.1408372,1730986666.107968,2000
-10487.59496064126,-37702.72138151185,9511.02489364444,-187500.02235174447,-187500.02235174447,-187500.02235174447,-187500.02235174447,-187500.02235174447,1730986667.1450562,1730986666.107968,2000
-10466.204341197532,-37773.48700445736,9555.728382555057,-187500.02235174447,-187500.02235174447,-187500.02235174447,-187500.02235174447,-187500.02235174447,1730986667.1488955,1730986666.107968,2000
-10477.134344236178,-37866.67142709153,9579.33182469986,-187500.02235174447,-187500.02235174447,-187500.02235174447,-187500.02235174447,-187500.02235174447,1730986667.1540732,1730986666.107968,2000
-10478.564855881315,-37793.82709191168,9512.813033200864,-187500.02235174447,-187500.02235174447,-187500.02235174447,-187500.02235174447,-187500.02235174447,1730986667.1578605,1730986666.107968,2000
-10456.973070737493,-37740.47347789687,9514.891745435209,-187500.02235174447,-187500.02235174447,-187500.02235174447,-187500.02235174447,-187500.02235174447,1730986667.1610231,1730986666.107968,2000
-10455.274338158886,-37760.74651011783,9549.358135385291,-187500.02235174447,-187500.02235174447,-187500.02235174447,-187500.02235174447,-187500.02235174447,1730986667.1650217,1730986666.107968,2000
-10466.383155153177,-37821.56560678072,9522.6478007612,-187500.02235174447,-187500.02235174447,-187500.02235174447,-187500.02235174447,-187500.02235174447,1730986667.1690056,1730986666.107968,2000
-10464.21503594101,-37779.5666789492,9520.479681549035,-187500.02235174447,-187500.02235174447,-187500.02235174447,-187500.02235174447,-187500.02235174447,1730986667.1729283,1730986666.107968,2000
-10464.438553385562,-37708.488131581325,9516.143443124703,-187500.02235174447,-187500.02235174447,-187500.02235174447,-187500.02235174447,-187500.02235174447,1730986667.1768782,1730986666.107968,2000
-10459.968204494502,-37721.72036429887,9528.213385130572,-187500.02235174447,-187500.02235174447,-187500.02235174447,-187500.02235174447,-187500.02235174447,1730986667.1818533,1730986666.107968,2000
-10459.968204494502,-37785.53459471877,9563.372679158769,-187500.02235174447,-187500.02235174447,-187500.02235174447,-187500.02235174447,-187500.02235174447,1730986667.1862082,1730986666.107968,2000
-10466.025527241887,-37815.7765049668,9593.480478940068,-187500.02235174447,-187500.02235174447,-187500.02235174447,-187500.02235174447,-187500.02235174447,1730986667.1891785,1730986666.107968,2000
-10469.914730777113,-37738.43946915144,9522.69250425011,-187500.02235174447,-187500.02235174447,-187500.02235174447,-187500.02235174447,-187500.02235174447,1730986667.1931458,1730986666.107968,2000
-10464.72912606348,-37752.65517862501,9487.220285799538,-187500.02235174447,-187500.02235174447,-187500.02235174447,-187500.02235174447,-187500.02235174447,1730986667.196998,1730986666.107968,2000
-10470.652338344138,-37822.70554574794,9530.180338642638,-187500.02235174447,-187500.02235174447,-187500.02235174447,-187500.02235174447,-187500.02235174447,1730986667.2011876,1730986666.107968,2000
-10477.648434358647,-37778.22557428188,9543.166702171173,-187500.02235174447,-187500.02235174447,-187500.02235174447,-187500.02235174447,-187500.02235174447,1730986667.2053187,1730986666.107968,2000
-10455.16257943661,-37727.643576579525,9510.846079688798,-187500.02235174447,-187500.02235174447,-187500.02235174447,-187500.02235174447,-187500.02235174447,1730986667.2102056,1730986666.107968,2000
-10438.756399006415,-37726.97302424586,9515.383483813224,-187500.02235174447,-187500.02235174447,-187500.02235174447,-187500.02235174447,-187500.02235174447,1730986667.2141955,1730986666.107968,2000
-10453.396791624642,-37798.11862684711,9540.484492836536,-187500.02235174447,-187500.02235174447,-187500.02235174447,-187500.02235174447,-187500.02235174447,1730986667.217235,1730986666.107968,2000
-10482.0740797608,-37812.60255725415,9563.12680996976,-187500.02235174447,-187500.02235174447,-187500.02235174447,-187500.02235174447,-187500.02235174447,1730986667.2209828,1730986666.107968,2000
-10487.192629241066,-37726.52598935676,9541.155045170191,-187500.02235174447,-187500.02235174447,-187500.02235174447,-187500.02235174447,-187500.02235174447,1730986667.2253206,1730986666.107968,2000
-10474.966225024013,-37712.466742094366,9498.865544660754,-187500.02235174447,-187500.02235174447,-187500.02235174447,-187500.02235174447,-187500.02235174447,1730986667.2292807,1730986666.107968,2000
-10463.276262673888,-37752.90104781402,9524.860623462277,-187500.02235174447,-187500.02235174447,-187500.02235174447,-187500.02235174447,-187500.02235174447,1730986667.233158,1730986666.107968,2000
-10480.487105904473,-37800.979650137386,9579.600045633322,-187500.02235174447,-187500.02235174447,-187500.02235174447,-187500.02235174447,-187500.02235174447,1730986667.238119,1730986666.107968,2000
-10493.853449088749,-37764.18867876395,9516.925754180642,-187500.02235174447,-187500.02235174447,-187500.02235174447,-187500.02235174447,-187500.02235174447,1730986667.2411582,1730986666.107968,2000
-10473.334547678774,-37733.790306304734,9508.16387035416,-187500.02235174447,-187500.02235174447,-187500.02235174447,-187500.02235174447,-187500.02235174447,1730986667.245288,1730986666.107968,2000
-10472.127553478187,-37787.412141253015,9549.179321429649,-187500.02235174447,-187500.02235174447,-187500.02235174447,-187500.02235174447,-187500.02235174447,1730986667.2491477,1730986666.107968,2000
-10484.018681528412,-37854.66854031904,9502.821803429342,-187500.02235174447,-187500.02235174447,-187500.02235174447,-187500.02235174447,-187500.02235174447,1730986667.2543485,1730986666.107968,2000
-10467.009003997922,-37806.835807184674,9531.74496075451,-187500.02235174447,-187500.02235174447,-187500.02235174447,-187500.02235174447,-187500.02235174447,1730986667.2571416,1730986666.107968,2000
-10475.815591313314,-37681.01783764576,9511.538983766912,-187500.02235174447,-187500.02235174447,-187500.02235174447,-187500.02235174447,-187500.02235174447,1730986667.2613187,1730986666.107968,2000
-10456.25781491492,-37698.54160529871,9523.586574028324,-187500.02235174447,-187500.02235174447,-187500.02235174447,-187500.02235174447,-187500.02235174447,1730986667.265165,1730986666.107968,2000
-10449.328774133775,-37768.6143241661,9582.259903223505,-187500.02235174447,-187500.02235174447,-187500.02235174447,-187500.02235174447,-187500.02235174447,1730986667.26933,1730986666.107968,2000
-10465.176160952587,-37814.748324721855,9527.02874267444,-187500.02235174447,-187500.02235174447,-187500.02235174447,-187500.02235174447,-187500.02235174447,1730986667.2732673,1730986666.107968,2000
-10461.711640562016,-37744.02740526526,9482.794640397387,-187500.02235174447,-187500.02235174447,-187500.02235174447,-187500.02235174447,-187500.02235174447,1730986667.2772355,1730986666.107968,2000
-10455.83313177027,-37693.735980240825,9505.682826719622,-187500.02235174447,-187500.02235174447,-187500.02235174447,-187500.02235174447,-187500.02235174447,1730986667.2813132,1730986666.107968,2000
-10457.97889923798,-37771.9670858344,9535.276536378447,-187500.02235174447,-187500.02235174447,-187500.02235174447,-187500.02235174447,-187500.02235174447,1730986667.2843976,1730986666.107968,2000
-10463.857408029724,-37786.00398135233,9549.291080151928,-187500.02235174447,-187500.02235174447,-187500.02235174447,-187500.02235174447,-187500.02235174447,1730986667.2893305,1730986666.107968,2000
-10469.713565077016,-37744.63090236556,9520.233812360026,-187500.02235174447,-187500.02235174447,-187500.02235174447,-187500.02235174447,-187500.02235174447,1730986667.2933352,1730986666.107968,2000
-10457.174236437588,-37768.256696254815,9517.015161158462,-187500.02235174447,-187500.02235174447,-187500.02235174447,-187500.02235174447,-187500.02235174447,1730986667.297247,1730986666.107968,2000
-10459.297652160842,-37814.36834506611,9535.544757311913,-187500.02235174447,-187500.02235174447,-187500.02235174447,-187500.02235174447,-187500.02235174447,1730986667.301474,1730986666.107968,2000
-10463.946815007546,-37829.12049640662,9539.188091658129,-187500.02235174447,-187500.02235174447,-187500.02235174447,-187500.02235174447,-187500.02235174447,1730986667.3053818,1730986666.107968,2000
-10463.343317907253,-37743.87094305408,9526.31348685187,-187500.02235174447,-187500.02235174447,-187500.02235174447,-187500.02235174447,-187500.02235174447,1730986667.3093748,1730986666.107968,2000
-10456.324870148286,-37728.96232950239,9531.275574120948,-187500.02235174447,-187500.02235174447,-187500.02235174447,-187500.02235174447,-187500.02235174447,1730986667.3123488,1730986666.107968,2000
-10457.621271326694,-37768.97195207739,9542.607908559788,-187500.02235174447,-187500.02235174447,-187500.02235174447,-187500.02235174447,-187500.02235174447,1730986667.317238,1730986666.107968,2000
-10462.561006851318,-37808.24396708536,9543.278460893447,-187500.02235174447,-187500.02235174447,-187500.02235174447,-187500.02235174447,-187500.02235174447,1730986667.3213844,1730986666.107968,2000
-10465.757306308426,-37784.86404238511,9528.414550830668,-187500.02235174447,-187500.02235174447,-187500.02235174447,-187500.02235174447,-187500.02235174447,1730986667.3254654,1730986666.107968,2000
-10462.87393127369,-37733.70089932691,9520.300867593392,-187500.02235174447,-187500.02235174447,-187500.02235174447,-187500.02235174447,-187500.02235174447,1730986667.3293743,1730986666.107968,2000
-10453.195625924543,-37765.64154215354,9532.527271810446,-187500.02235174447,-187500.02235174447,-187500.02235174447,-187500.02235174447,-187500.02235174447,1730986667.3332682,1730986666.107968,2000
-10450.35695437872,-37827.3323568502,9539.903347480697,-187500.02235174447,-187500.02235174447,-187500.02235174447,-187500.02235174447,-187500.02235174447,1730986667.3372724,1730986666.107968,2000
-10462.561006851318,-37766.82618460968,9547.12296093976,-187500.02235174447,-187500.02235174447,-187500.02235174447,-187500.02235174447,-187500.02235174447,1730986667.3402596,1730986666.107968,2000
-10451.005154967925,-37709.89629148201,9604.589295934356,-187500.02235174447,-187500.02235174447,-187500.02235174447,-187500.02235174447,-187500.02235174447,1730986667.3444245,1730986666.107968,2000
-10462.002213239934,-37736.13723947254,9557.963557000585,-187500.02235174447,-187500.02235174447,-187500.02235174447,-187500.02235174447,-187500.02235174447,1730986667.34917,1730986666.107968,2000
-10478.162524481122,-37826.7288597499,9492.651759702178,-187500.02235174447,-187500.02235174447,-187500.02235174447,-187500.02235174447,-187500.02235174447,1730986667.3532605,1730986666.107968,2000
-10464.684422574572,-37801.046705370754,9486.594436954789,-187500.02235174447,-187500.02235174447,-187500.02235174447,-187500.02235174447,-187500.02235174447,1730986667.3571904,1730986666.107968,2000
-10447.920614233091,-37759.5171641728,9509.68378897712,-187500.02235174447,-187500.02235174447,-187500.02235174447,-187500.02235174447,-187500.02235174447,1730986667.3612535,1730986666.107968,2000
-10448.97114622249,-37796.88928090206,9556.018955232974,-187500.02235174447,-187500.02235174447,-187500.02235174447,-187500.02235174447,-187500.02235174447,1730986667.365193,1730986666.107968,2000
-10460.571701594794,-37852.41101412904,9617.463900740611,-187500.02235174447,-187500.02235174447,-187500.02235174447,-187500.02235174447,-187500.02235174447,1730986667.3681867,1730986666.107968,2000
-10484.689233862073,-37777.08563531466,9558.142370956228,-187500.02235174447,-187500.02235174447,-187500.02235174447,-187500.02235174447,-187500.02235174447,1730986667.3722289,1730986666.107968,2000
-10458.805913782826,-37745.99435877733,9483.845172386787,-187500.02235174447,-187500.02235174447,-187500.02235174447,-187500.02235174447,-187500.02235174447,1730986667.3773077,1730986666.107968,2000
-10433.794311737336,-37739.89233254103,9489.902495134174,-187500.02235174447,-187500.02235174447,-187500.02235174447,-187500.02235174447,-187500.02235174447,1730986667.3812523,1730986666.107968,2000
-10441.93034671907,-37785.82516739669,9518.065693147862,-187500.02235174447,-187500.02235174447,-187500.02235174447,-187500.02235174447,-187500.02235174447,1730986667.3852296,1730986666.107968,2000
-10446.668916543596,-37786.89805113054,9530.090931664818,-187500.02235174447,-187500.02235174447,-187500.02235174447,-187500.02235174447,-187500.02235174447,1730986667.3881834,1730986666.107968,2000
-10442.265622885898,-37739.02061450727,9512.857736689775,-187500.02235174447,-187500.02235174447,-187500.02235174447,-187500.02235174447,-187500.02235174447,1730986667.3922198,1730986666.107968,2000
-10436.342410605244,-37718.65817530849,9508.968533154552,-187500.02235174447,-187500.02235174447,-187500.02235174447,-187500.02235174447,-187500.02235174447,1730986667.3962176,1730986666.107968,2000
-10431.648544269628,-37755.69501587094,9555.057830221394,-187500.02235174447,-187500.02235174447,-187500.02235174447,-187500.02235174447,-187500.02235174447,1730986667.400319,1730986666.107968,2000
-10441.863291485704,-37803.25952807182,9555.12488545476,-187500.02235174447,-187500.02235174447,-187500.02235174447,-187500.02235174447,-187500.02235174447,1730986667.4053211,1730986666.107968,2000
-10463.1198004627,-37742.35102443112,9498.329102793825,-187500.02235174447,-187500.02235174447,-187500.02235174447,-187500.02235174447,-187500.02235174447,1730986667.4093137,1730986666.107968,2000
-10442.489140330452,-37735.60079760561,9481.185314796605,-187500.02235174447,-187500.02235174447,-187500.02235174447,-187500.02235174447,-187500.02235174447,1730986667.4133852,1730986666.107968,2000
-10446.266585143398,-37797.89510940256,9528.25808861948,-187500.02235174447,-187500.02235174447,-187500.02235174447,-187500.02235174447,-187500.02235174447,1730986667.4162924,1730986666.107968,2000
-10464.617367341203,-37811.753190964846,9548.46406560708,-187500.02235174447,-187500.02235174447,-187500.02235174447,-187500.02235174447,-187500.02235174447,1730986667.4203265,1730986666.107968,2000
-10456.615442826203,-37762.73581537436,9519.473853048548,-187500.02235174447,-187500.02235174447,-187500.02235174447,-187500.02235174447,-187500.02235174447,1730986667.4242456,1730986666.107968,2000
-10441.952698463523,-37757.77372810528,9494.171678325138,-187500.02235174447,-187500.02235174447,-187500.02235174447,-187500.02235174447,-187500.02235174447,1730986667.4282832,1730986666.107968,2000
-10440.54453856284,-37754.62213213708,9521.843137960808,-187500.02235174447,-187500.02235174447,-187500.02235174447,-187500.02235174447,-187500.02235174447,1730986667.4333906,1730986666.107968,2000
-10449.2170154115,-37794.02825761178,9542.384391115236,-187500.02235174447,-187500.02235174447,-187500.02235174447,-187500.02235174447,-187500.02235174447,1730986667.4373305,1730986666.107968,2000
-10456.1684079371,-37716.24418690732,9508.83442268782,-187500.02235174447,-187500.02235174447,-187500.02235174447,-187500.02235174447,-187500.02235174447,1730986667.4414413,1730986666.107968,2000
-10429.614535524195,-37684.16943361395,9500.45251851708,-187500.02235174447,-187500.02235174447,-187500.02235174447,-187500.02235174447,-187500.02235174447,1730986667.4444523,1730986666.107968,2000
-10430.508605302406,-37713.76314327278,9544.910138238683,-187500.02235174447,-187500.02235174447,-187500.02235174447,-187500.02235174447,-187500.02235174447,1730986667.448311,1730986666.107968,2000
-10448.188835166557,-37754.86800132609,9589.501868427024,-187500.02235174447,-187500.02235174447,-187500.02235174447,-187500.02235174447,-187500.02235174447,1730986667.4523776,1730986666.107968,2000
-10459.655280072127,-37792.06130409972,9512.50010877849,-187500.02235174447,-187500.02235174447,-187500.02235174447,-187500.02235174447,-187500.02235174447,1730986667.4564264,1730986666.107968,2000
-10438.242308883942,-37722.27915791025,9476.73731765,-187500.02235174447,-187500.02235174447,-187500.02235174447,-187500.02235174447,-187500.02235174447,1730986667.4614,1730986666.107968,2000
-10436.387114094152,-37724.69314631142,9504.185259841115,-187500.02235174447,-187500.02235174447,-187500.02235174447,-187500.02235174447,-187500.02235174447,1730986667.4652672,1730986666.107968,2000
-10431.939116947546,-37789.78142616528,9528.213385130572,-187500.02235174447,-187500.02235174447,-187500.02235174447,-187500.02235174447,-187500.02235174447,1730986667.4694402,1730986666.107968,2000
-10430.642715769138,-37784.19349005145,9515.204669857583,-187500.02235174447,-187500.02235174447,-187500.02235174447,-187500.02235174447,-187500.02235174447,1730986667.4725108,1730986666.107968,2000
-10427.289954100845,-37716.08772469613,9502.6429894737,-187500.02235174447,-187500.02235174447,-187500.02235174447,-187500.02235174447,-187500.02235174447,1730986667.4767,1730986666.107968,2000
-10430.240384368944,-37729.588178347134,9520.45732980458,-187500.02235174447,-187500.02235174447,-187500.02235174447,-187500.02235174447,-187500.02235174447,1730986667.480668,1730986666.107968,2000
-10459.767038794404,-37804.15359785004,9535.991792201015,-187500.02235174447,-187500.02235174447,-187500.02235174447,-187500.02235174447,-187500.02235174447,1730986667.4848711,1730986666.107968,2000
-10458.180064938077,-37776.59389693665,9548.307603395891,-187500.02235174447,-187500.02235174447,-187500.02235174447,-187500.02235174447,-187500.02235174447,1730986667.4883478,1730986666.107968,2000
-10452.659184057617,-37712.064410694176,9555.057830221394,-187500.02235174447,-187500.02235174447,-187500.02235174447,-187500.02235174447,-187500.02235174447,1730986667.4936335,1730986666.107968,2000
-10453.709716047017,-37679.87789867853,9517.97628617004,-187500.02235174447,-187500.02235174447,-187500.02235174447,-187500.02235174447,-187500.02235174447,1730986667.4973423,1730986666.107968,2000
-10433.704904759516,-37758.24311473884,9519.02681815944,-187500.02235174447,-187500.02235174447,-187500.02235174447,-187500.02235174447,-187500.02235174447,1730986667.500356,1730986666.107968,2000
-10439.248137384431,-37783.567641206704,9546.94414698412,-187500.02235174447,-187500.02235174447,-187500.02235174447,-187500.02235174447,-187500.02235174447,1730986667.504326,1730986666.107968,2000
-10445.0148874539,-37707.81757924767,9523.161890883672,-187500.02235174447,-187500.02235174447,-187500.02235174447,-187500.02235174447,-187500.02235174447,1730986667.5083904,1730986666.107968,2000
-10440.186910651557,-37714.076067695154,9509.527326765934,-187500.02235174447,-187500.02235174447,-187500.02235174447,-187500.02235174447,-187500.02235174447,1730986667.512715,1730986666.107968,2000
-10434.978954193468,-37778.73966440436,9512.07542563384,-187500.02235174447,-187500.02235174447,-187500.02235174447,-187500.02235174447,-187500.02235174447,1730986667.5166123,1730986666.107968,2000
-10438.73404726196,-37813.58603401018,9538.428132346646,-187500.02235174447,-187500.02235174447,-187500.02235174447,-187500.02235174447,-187500.02235174447,1730986667.521962,1730986666.107968,2000
-10453.709716047017,-37732.42684989296,9543.88195799374,-187500.02235174447,-187500.02235174447,-187500.02235174447,-187500.02235174447,-187500.02235174447,1730986667.5245087,1730986666.107968,2000
-10455.006117225425,-37725.43075387845,9503.872335418742,-187500.02235174447,-187500.02235174447,-187500.02235174447,-187500.02235174447,-187500.02235174447,1730986667.5285027,1730986666.107968,2000
-10432.184986136555,-37767.832013110165,9522.670152505654,-187500.02235174447,-187500.02235174447,-187500.02235174447,-187500.02235174447,-187500.02235174447,1730986667.5325196,1730986666.107968,2000
-10445.953660721025,-37830.41689758503,9512.254239589482,-187500.02235174447,-187500.02235174447,-187500.02235174447,-187500.02235174447,-187500.02235174447,1730986667.536708,1730986666.107968,2000
-10444.120817675688,-37756.27616122677,9503.73822495201,-187500.02235174447,-187500.02235174447,-187500.02235174447,-187500.02235174447,-187500.02235174447,1730986667.5404892,1730986666.107968,2000
-10440.142207162644,-37698.474550065344,9509.281457576926,-187500.02235174447,-187500.02235174447,-187500.02235174447,-187500.02235174447,-187500.02235174447,1730986667.5450504,1730986666.107968,2000
-10433.68255301506,-37717.764105530274,9509.348512810291,-187500.02235174447,-187500.02235174447,-187500.02235174447,-187500.02235174447,-187500.02235174447,1730986667.5495603,1730986666.107968,2000
-10423.19958486552,-37810.63560374208,9515.450539046593,-187500.02235174447,-187500.02235174447,-187500.02235174447,-187500.02235174447,-187500.02235174447,1730986667.5530975,1730986666.107968,2000
-10444.791370009349,-37790.49668198785,9509.952009910585,-187500.02235174447,-187500.02235174447,-187500.02235174447,-187500.02235174447,-187500.02235174447,1730986667.556698,1730986666.107968,2000
-10454.78259978087,-37698.496901809805,9506.68865522011,-187500.02235174447,-187500.02235174447,-187500.02235174447,-187500.02235174447,-187500.02235174447,1730986667.5607293,1730986666.107968,2000
-10449.552291578328,-37703.79426524571,9502.151251095684,-187500.02235174447,-187500.02235174447,-187500.02235174447,-187500.02235174447,-187500.02235174447,1730986667.5650437,1730986666.107968,2000
-10440.745704262938,-37750.93409430196,9526.089969407318,-187500.02235174447,-187500.02235174447,-187500.02235174447,-187500.02235174447,-187500.02235174447,1730986667.5686169,1730986666.107968,2000
-10428.765169234894,-37790.541385476754,9557.22594943356,-187500.02235174447,-187500.02235174447,-187500.02235174447,-187500.02235174447,-187500.02235174447,1730986667.5727203,1730986666.107968,2000
-10440.030448440368,-37688.86329994957,9571.21814146258,-187500.02235174447,-187500.02235174447,-187500.02235174447,-187500.02235174447,-187500.02235174447,1730986667.577767,1730986666.107968,2000
-10444.321983375788,-37715.64068980702,9542.585556815333,-187500.02235174447,-187500.02235174447,-187500.02235174447,-187500.02235174447,-187500.02235174447,1730986667.5807767,1730986666.107968,2000
-10444.50079733143,-37827.91350220603,9502.531230751423,-187500.02235174447,-187500.02235174447,-187500.02235174447,-187500.02235174447,-187500.02235174447,1730986667.5851388,1730986666.107968,2000
-10441.2150908965,-37772.32471374568,9507.06863487585,-187500.02235174447,-187500.02235174447,-187500.02235174447,-187500.02235174447,-187500.02235174447,1730986667.5885944,1730986666.107968,2000
-10437.30353561682,-37724.6037393336,9519.853832704286,-187500.02235174447,-187500.02235174447,-187500.02235174447,-187500.02235174447,-187500.02235174447,1730986667.592697,1730986666.107968,2000
-10436.744742005438,-37735.37728016106,9522.558393783378,-187500.02235174447,-187500.02235174447,-187500.02235174447,-187500.02235174447,-187500.02235174447,1730986667.596558,1730986666.107968,2000
-10434.666029771091,-37815.93296717799,9518.020989658951,-187500.02235174447,-187500.02235174447,-187500.02235174447,-187500.02235174447,-187500.02235174447,1730986667.6006105,1730986666.107968,2000
-10441.863291485704,-37827.958205694944,9514.891745435209,-187500.02235174447,-187500.02235174447,-187500.02235174447,-187500.02235174447,-187500.02235174447,1730986667.6057212,1730986666.107968,2000
-10444.344335120242,-37743.80388782071,9515.070559390851,-187500.02235174447,-187500.02235174447,-187500.02235174447,-187500.02235174447,-187500.02235174447,1730986667.6087325,1730986666.107968,2000
-10426.507643044906,-37698.25103262079,9544.93248998314,-187500.02235174447,-187500.02235174447,-187500.02235174447,-187500.02235174447,-187500.02235174447,1730986667.61169,1730986666.107968,2000
-10428.1616721346,-37755.9632368044,9552.710897053588,-187500.02235174447,-187500.02235174447,-187500.02235174447,-187500.02235174447,-187500.02235174447,1730986667.6168108,1730986666.107968,2000
-10443.897300231136,-37828.49464756187,9533.868376477763,-187500.02235174447,-187500.02235174447,-187500.02235174447,-187500.02235174447,-187500.02235174447,1730986667.6207335,1730986666.107968,2000
-10458.761210293917,-37749.168306489984,9510.466100033058,-187500.02235174447,-187500.02235174447,-187500.02235174447,-187500.02235174447,-187500.02235174447,1730986667.6246777,1730986666.107968,2000
-10442.53384381936,-37722.01093697679,9515.159966368672,-187500.02235174447,-187500.02235174447,-187500.02235174447,-187500.02235174447,-187500.02235174447,1730986667.6286497,1730986666.107968,2000
-10436.431817583063,-37815.39652531106,9522.714855994564,-187500.02235174447,-187500.02235174447,-187500.02235174447,-187500.02235174447,-187500.02235174447,1730986667.6326516,1730986666.107968,2000
-10446.467750843496,-37839.80463025625,9516.232850102526,-187500.02235174447,-187500.02235174447,-187500.02235174447,-187500.02235174447,-187500.02235174447,1730986667.636158,1730986666.107968,2000
-10452.033335212867,-37748.20718147841,9503.268838318449,-187500.02235174447,-187500.02235174447,-187500.02235174447,-187500.02235174447,-187500.02235174447,1730986667.6399183,1730986666.107968,2000
-10450.245195656444,-37715.59598631811,9499.200820827582,-187500.02235174447,-187500.02235174447,-187500.02235174447,-187500.02235174447,-187500.02235174447,1730986667.6447484,1730986666.107968,2000
-10442.422085097083,-37756.14205076004,9539.925699225152,-187500.02235174447,-187500.02235174447,-187500.02235174447,-187500.02235174447,-187500.02235174447,1730986667.648616,1730986666.107968,2000
-10446.467750843496,-37806.209958339925,9544.574862071857,-187500.02235174447,-187500.02235174447,-187500.02235174447,-187500.02235174447,-187500.02235174447,1730986667.6527324,1730986666.107968,2000
-10446.870082243691,-37772.70469340142,9501.570105739846,-187500.02235174447,-187500.02235174447,-187500.02235174447,-187500.02235174447,-187500.02235174447,1730986667.656616,1730986666.107968,2000
-10432.363800092196,-37722.3015096547,9503.157079596172,-187500.02235174447,-187500.02235174447,-187500.02235174447,-187500.02235174447,-187500.02235174447,1730986667.6602433,1730986666.107968,2000
-10430.82152972478,-37725.78838178973,9534.851853233797,-187500.02235174447,-187500.02235174447,-187500.02235174447,-187500.02235174447,-187500.02235174447,1730986667.6641068,1730986666.107968,2000
-10433.727256503971,-37809.24979558585,9561.472780880067,-187500.02235174447,-187500.02235174447,-187500.02235174447,-187500.02235174447,-187500.02235174447,1730986667.6682773,1730986666.107968,2000
-10438.35406760622,-37821.11857189162,9507.40391104268,-187500.02235174447,-187500.02235174447,-187500.02235174447,-187500.02235174447,-187500.02235174447,1730986667.6728437,1730986666.107968,2000
-10427.334657589754,-37737.2101232064,9483.219323542038,-187500.02235174447,-187500.02235174447,-187500.02235174447,-187500.02235174447,-187500.02235174447,1730986667.67673,1730986666.107968,2000
-10426.462939555997,-37726.63774807903,9505.97339939754,-187500.02235174447,-187500.02235174447,-187500.02235174447,-187500.02235174447,-187500.02235174447,1730986667.6809769,1730986666.107968,2000
-10423.803081965814,-37780.39369349405,9528.325143852848,-187500.02235174447,-187500.02235174447,-187500.02235174447,-187500.02235174447,-187500.02235174447,1730986667.6848867,1730986666.107968,2000
-10456.079000959278,-37811.23910084237,9542.920832982163,-187500.02235174447,-187500.02235174447,-187500.02235174447,-187500.02235174447,-187500.02235174447,1730986667.6877568,1730986666.107968,2000
-10454.179102680577,-37742.08280349765,9563.372679158769,-187500.02235174447,-187500.02235174447,-187500.02235174447,-187500.02235174447,-187500.02235174447,1730986667.6919067,1730986666.107968,2000
-10448.725277033482,-37713.07023919466,9513.796509956896,-187500.02235174447,-187500.02235174447,-187500.02235174447,-187500.02235174447,-187500.02235174447,1730986667.69611,1730986666.107968,2000
-10431.603840780715,-37770.00013232233,9508.20857384307,-187500.02235174447,-187500.02235174447,-187500.02235174447,-187500.02235174447,-187500.02235174447,1730986667.69981,1730986666.107968,2000
-10448.68057354457,-37847.1360024376,9532.594327043813,-187500.02235174447,-187500.02235174447,-187500.02235174447,-187500.02235174447,-187500.02235174447,1730986667.7046587,1730986666.107968,2000
-10455.743724792448,-37773.82228062419,9506.889820920209,-187500.02235174447,-187500.02235174447,-187500.02235174447,-187500.02235174447,-187500.02235174447,1730986667.7087834,1730986666.107968,2000
-10433.68255301506,-37718.72523054186,9508.521498265443,-187500.02235174447,-187500.02235174447,-187500.02235174447,-187500.02235174447,-187500.02235174447,1730986667.7129304,1730986666.107968,2000
-10434.867195471192,-37768.70373114392,9527.006390929984,-187500.02235174447,-187500.02235174447,-187500.02235174447,-187500.02235174447,-187500.02235174447,1730986667.7157872,1730986666.107968,2000
-10438.622288539684,-37837.50240057736,9533.577803799844,-187500.02235174447,-187500.02235174447,-187500.02235174447,-187500.02235174447,-187500.02235174447,1730986667.7203577,1730986666.107968,2000
-10429.59218377974,-37792.50833898882,9556.734211055544,-187500.02235174447,-187500.02235174447,-187500.02235174447,-187500.02235174447,-187500.02235174447,1730986667.7238548,1730986666.107968,2000
-10427.066436656289,-37748.8106785787,9563.84206579233,-187500.02235174447,-187500.02235174447,-187500.02235174447,-187500.02235174447,-187500.02235174447,1730986667.7283149,1730986666.107968,2000
-10441.326849618776,-37788.64148719805,9503.090024362806,-187500.02235174447,-187500.02235174447,-187500.02235174447,-187500.02235174447,-187500.02235174447,1730986667.7328205,1730986666.107968,2000
-10437.907032717114,-37819.68806024648,9495.803355670376,-187500.02235174447,-187500.02235174447,-187500.02235174447,-187500.02235174447,-187500.02235174447,1730986667.736698,1730986666.107968,2000
-10444.21022465351,-37744.362681432096,9507.180393598128,-187500.02235174447,-187500.02235174447,-187500.02235174447,-187500.02235174447,-187500.02235174447,1730986667.7408502,1730986666.107968,2000
-10439.203433895522,-37707.19173040292,9514.087082634816,-187500.02235174447,-187500.02235174447,-187500.02235174447,-187500.02235174447,-187500.02235174447,1730986667.7441642,1730986666.107968,2000
-10426.865270956192,-37742.68630059795,9549.31343189638,-187500.02235174447,-187500.02235174447,-187500.02235174447,-187500.02235174447,-187500.02235174447,1730986667.7483065,1730986666.107968,2000
-10436.744742005438,-37810.412086297525,9548.08408595134,-187500.02235174447,-187500.02235174447,-187500.02235174447,-187500.02235174447,-187500.02235174447,1730986667.7521732,1730986666.107968,2000
-10448.457056100018,-37760.03125429526,9525.821748473852,-187500.02235174447,-187500.02235174447,-187500.02235174447,-187500.02235174447,-187500.02235174447,1730986667.7559068,1730986666.107968,2000
-10440.186910651557,-37716.95944272989,9515.31642857986,-187500.02235174447,-187500.02235174447,-187500.02235174447,-187500.02235174447,-187500.02235174447,1730986667.760855,1730986666.107968,2000
-10443.562024064306,-37759.22659149487,9505.816937186351,-187500.02235174447,-187500.02235174447,-187500.02235174447,-187500.02235174447,-187500.02235174447,1730986667.7648304,1730986666.107968,2000
-10449.373477622688,-37777.197394036935,9513.483585534525,-187500.02235174447,-187500.02235174447,-187500.02235174447,-187500.02235174447,-187500.02235174447,1730986667.7678516,1730986666.107968,2000
-10447.630041555172,-37757.661969383,9506.59924824229,-187500.02235174447,-187500.02235174447,-187500.02235174447,-187500.02235174447,-187500.02235174447,1730986667.7721255,1730986666.107968,2000
-10443.78554150886,-37739.93703602994,9499.06671036085,-187500.02235174447,-187500.02235174447,-187500.02235174447,-187500.02235174447,-187500.02235174447,1730986667.7762454,1730986666.107968,2000
-10432.721428003482,-37753.48219316986,9508.767367454457,-187500.02235174447,-187500.02235174447,-187500.02235174447,-187500.02235174447,-187500.02235174447,1730986667.7804272,1730986666.107968,2000
-10423.78073022136,-37844.90082799207,9521.93254493863,-187500.02235174447,-187500.02235174447,-187500.02235174447,-187500.02235174447,-187500.02235174447,1730986667.7837632,1730986666.107968,2000
-10432.363800092196,-37814.10012413265,9539.679830036144,-187500.02235174447,-187500.02235174447,-187500.02235174447,-187500.02235174447,-187500.02235174447,1730986667.7888503,1730986666.107968,2000
-10435.202471638022,-37749.48123091236,9538.785760257932,-187500.02235174447,-187500.02235174447,-187500.02235174447,-187500.02235174447,-187500.02235174447,1730986667.7930963,1730986666.107968,2000
-10418.796291207826,-37746.32963494416,9519.585611770824,-187500.02235174447,-187500.02235174447,-187500.02235174447,-187500.02235174447,-187500.02235174447,1730986667.796106,1730986666.107968,2000
-10429.25690761291,-37824.09135390417,9542.250280648504,-187500.02235174447,-187500.02235174447,-187500.02235174447,-187500.02235174447,-187500.02235174447,1730986667.7997644,1730986666.107968,2000
-10451.094561945743,-37824.65014751555,9536.975268957052,-187500.02235174447,-187500.02235174447,-187500.02235174447,-187500.02235174447,-187500.02235174447,1730986667.8049667,1730986666.107968,2000
-10439.15873040661,-37723.06146896618,9536.058847434384,-187500.02235174447,-187500.02235174447,-187500.02235174447,-187500.02235174447,-187500.02235174447,1730986667.808162,1730986666.107968,2000
-10444.947832220536,-37715.52893108474,9503.805280185376,-187500.02235174447,-187500.02235174447,-187500.02235174447,-187500.02235174447,-187500.02235174447,1730986667.812281,1730986666.107968,2000
-10419.39978830812,-37760.12066127308,9507.02393138694,-187500.02235174447,-187500.02235174447,-187500.02235174447,-187500.02235174447,-187500.02235174447,1730986667.8170109,1730986666.107968,2000
-10410.81671843728,-37775.09633005814,9526.067617662862,-187500.02235174447,-187500.02235174447,-187500.02235174447,-187500.02235174447,-187500.02235174447,1730986667.821067,1730986666.107968,2000
-10446.40069561013,-37756.790251349244,9517.953934425585,-187500.02235174447,-187500.02235174447,-187500.02235174447,-187500.02235174447,-187500.02235174447,1730986667.823838,1730986666.107968,2000
-10452.122742190688,-37731.01868999228,9537.89169047972,-187500.02235174447,-187500.02235174447,-187500.02235174447,-187500.02235174447,-187500.02235174447,1730986667.827866,1730986666.107968,2000
-10439.35989610671,-37784.57346970719,9519.943239682108,-187500.02235174447,-187500.02235174447,-187500.02235174447,-187500.02235174447,-187500.02235174447,1730986667.8318405,1730986666.107968,2000
-10431.603840780715,-37795.95050763494,9513.729454723532,-187500.02235174447,-187500.02235174447,-187500.02235174447,-187500.02235174447,-187500.02235174447,1730986667.8364038,1730986666.107968,2000
-10440.745704262938,-37761.68528338496,9509.147347110194,-187500.02235174447,-187500.02235174447,-187500.02235174447,-187500.02235174447,-187500.02235174447,1730986667.839955,1730986666.107968,2000
-10440.097503673733,-37744.13916398754,9502.195954584591,-187500.02235174447,-187500.02235174447,-187500.02235174447,-187500.02235174447,-187500.02235174447,1730986667.8441143,1730986666.107968,2000
-10438.242308883942,-37795.61523146811,9521.194937371603,-187500.02235174447,-187500.02235174447,-187500.02235174447,-187500.02235174447,-187500.02235174447,1730986667.8488705,1730986666.107968,2000
-10425.032427910855,-37814.7259729774,9548.307603395891,-187500.02235174447,-187500.02235174447,-187500.02235174447,-187500.02235174447,-187500.02235174447,1730986667.8520098,1730986666.107968,2000
-10424.96537267749,-37785.93692611896,9533.622507288756,-187500.02235174447,-187500.02235174447,-187500.02235174447,-187500.02235174447,-187500.02235174447,1730986667.856114,1730986666.107968,2000
-10415.845860939726,-37736.02548075026,9511.851908189286,-187500.02235174447,-187500.02235174447,-187500.02235174447,-187500.02235174447,-187500.02235174447,1730986667.8601372,1730986666.107968,2000
-10412.62720973816,-37803.9747838944,9523.385408328224,-187500.02235174447,-187500.02235174447,-187500.02235174447,-187500.02235174447,-187500.02235174447,1730986667.8639069,1730986666.107968,2000
-10431.53678554735,-37846.42074661503,9546.407705117192,-187500.02235174447,-187500.02235174447,-187500.02235174447,-187500.02235174447,-187500.02235174447,1730986667.8679235,1730986666.107968,2000
-10433.704904759516,-37794.02825761178,9574.235626964048,-187500.02235174447,-187500.02235174447,-187500.02235174447,-187500.02235174447,-187500.02235174447,1730986667.8720975,1730986666.107968,2000
-10431.53678554735,-37752.02932978026,9562.053926235903,-187500.02235174447,-187500.02235174447,-187500.02235174447,-187500.02235174447,-187500.02235174447,1730986667.8762474,1730986666.107968,2000
-10410.526145759362,-37754.57742864817,9541.691487037122,-187500.02235174447,-187500.02235174447,-187500.02235174447,-187500.02235174447,-187500.02235174447,1730986667.8792048,1730986666.107968,2000
-10416.427006295564,-37840.98927271239,9516.25520184698,-187500.02235174447,-187500.02235174447,-187500.02235174447,-187500.02235174447,-187500.02235174447,1730986667.884004,1730986666.107968,2000
-10419.288029585843,-37862.02226424483,9512.567164011856,-187500.02235174447,-187500.02235174447,-187500.02235174447,-187500.02235174447,-187500.02235174447,1730986667.8879073,1730986666.107968,2000
-10431.1121024027,-37782.874737128586,9526.022914173953,-187500.02235174447,-187500.02235174447,-187500.02235174447,-187500.02235174447,-187500.02235174447,1730986667.891922,1730986666.107968,2000
-10457.129532948677,-37764.211030508406,9524.950030440095,-187500.02235174447,-187500.02235174447,-187500.02235174447,-187500.02235174447,-187500.02235174447,1730986667.8959465,1730986666.107968,2000
-10431.380323336163,-37788.6191354536,9528.280440363937,-187500.02235174447,-187500.02235174447,-187500.02235174447,-187500.02235174447,-187500.02235174447,1730986667.9011576,1730986666.107968,2000
-10430.262736113398,-37848.94649373848,9520.591440271312,-187500.02235174447,-187500.02235174447,-187500.02235174447,-187500.02235174447,-187500.02235174447,1730986667.9041424,1730986666.107968,2000
-10433.034352425855,-37786.60747845262,9517.663361747664,-187500.02235174447,-187500.02235174447,-187500.02235174447,-187500.02235174447,-187500.02235174447,1730986667.9070473,1730986666.107968,2000
-10429.234555868454,-37734.55026561621,9517.573954769843,-187500.02235174447,-187500.02235174447,-187500.02235174447,-187500.02235174447,-187500.02235174447,1730986667.9125152,1730986666.107968,2000
-10418.863346441192,-37763.5628299192,9535.768274756463,-187500.02235174447,-187500.02235174447,-187500.02235174447,-187500.02235174447,-187500.02235174447,1730986667.9162889,1730986666.107968,2000
-10414.705921972503,-37846.66661580403,9553.426152876158,-187500.02235174447,-187500.02235174447,-187500.02235174447,-187500.02235174447,-187500.02235174447,1730986667.9202423,1730986666.107968,2000
-10428.519300045884,-37851.24872341737,9523.765387983964,-187500.02235174447,-187500.02235174447,-187500.02235174447,-187500.02235174447,-187500.02235174447,1730986667.924128,1730986666.107968,2000
-10425.702980244516,-37757.8631350831,9509.192050599106,-187500.02235174447,-187500.02235174447,-187500.02235174447,-187500.02235174447,-187500.02235174447,1730986667.928247,1730986666.107968,2000
-10428.094616901231,-37838.35176686666,9516.992809414009,-187500.02235174447,-187500.02235174447,-187500.02235174447,-187500.02235174447,-187500.02235174447,1730986667.9321709,1730986666.107968,2000
-10425.010076166402,-37877.98140978592,9524.480643806535,-187500.02235174447,-187500.02235174447,-187500.02235174447,-187500.02235174447,-187500.02235174447,1730986667.935711,1730986666.107968,2000
-10428.385189579152,-37827.466467316925,9520.144405382203,-187500.02235174447,-187500.02235174447,-187500.02235174447,-187500.02235174447,-187500.02235174447,1730986667.940172,1730986666.107968,2000
-10421.97023892048,-37799.30326930324,9512.231887845026,-187500.02235174447,-187500.02235174447,-187500.02235174447,-187500.02235174447,-187500.02235174447,1730986667.9440444,1730986666.107968,2000
-10414.080073127756,-37820.693888746966,9517.104568136285,-187500.02235174447,-187500.02235174447,-187500.02235174447,-187500.02235174447,-187500.02235174447,1730986667.948131,1730986666.107968,2000
-10403.641808467128,-37816.06707764472,9529.442731075613,-187500.02235174447,-187500.02235174447,-187500.02235174447,-187500.02235174447,-187500.02235174447,1730986667.9524736,1730986666.107968,2000
-10423.221936609976,-37797.15750183553,9527.140501396716,-187500.02235174447,-187500.02235174447,-187500.02235174447,-187500.02235174447,-187500.02235174447,1730986667.9562695,1730986666.107968,2000
-10440.298669373831,-37785.44518774095,9526.112321151772,-187500.02235174447,-187500.02235174447,-187500.02235174447,-187500.02235174447,-187500.02235174447,1730986667.960668,1730986666.107968,2000
-10422.864308698692,-37815.84356020016,9559.550530856912,-187500.02235174447,-187500.02235174447,-187500.02235174447,-187500.02235174447,-187500.02235174447,1730986667.9633005,1730986666.107968,2000
-10431.201509380522,-37805.651164728544,9538.159911413182,-187500.02235174447,-187500.02235174447,-187500.02235174447,-187500.02235174447,-187500.02235174447,1730986667.9680505,1730986666.107968,2000
-10443.1149891752,-37795.50347274583,9503.02296912944,-187500.02235174447,-187500.02235174447,-187500.02235174447,-187500.02235174447,-187500.02235174447,1730986667.9727025,1730986666.107968,2000
-10431.357971591708,-37773.79992887973,9526.782873485432,-187500.02235174447,-187500.02235174447,-187500.02235174447,-187500.02235174447,-187500.02235174447,1730986667.9763503,1730986666.107968,2000
-10428.20637562351,-37748.98949253434,9517.395140814202,-187500.02235174447,-187500.02235174447,-187500.02235174447,-187500.02235174447,-187500.02235174447,1730986667.9806824,1730986666.107968,2000
-10415.577640006262,-37833.94847320896,9518.848004203795,-187500.02235174447,-187500.02235174447,-187500.02235174447,-187500.02235174447,-187500.02235174447,1730986667.9843974,1730986666.107968,2000
-10417.790462707337,-37828.06996441722,9548.754638284998,-187500.02235174447,-187500.02235174447,-187500.02235174447,-187500.02235174447,-187500.02235174447,1730986667.9873424,1730986666.107968,2000
-10430.508605302406,-37765.52978343127,9502.240658073504,-187500.02235174447,-187500.02235174447,-187500.02235174447,-187500.02235174447,-187500.02235174447,1730986667.991218,1730986666.107968,2000
-10424.652448255116,-37708.197558903405,9489.231942800516,-187500.02235174447,-187500.02235174447,-187500.02235174447,-187500.02235174447,-187500.02235174447,1730986667.9953787,1730986666.107968,2000
-10426.239422111445,-37755.38209144856,9556.465990122078,-187500.02235174447,-187500.02235174447,-187500.02235174447,-187500.02235174447,-187500.02235174447,1730986668.0001664,1730986666.107968,2000
-10451.20632066802,-37807.5734147517,9537.131731168238,-187500.02235174447,-187500.02235174447,-187500.02235174447,-187500.02235174447,-187500.02235174447,1730986668.004403,1730986666.107968,2000
-10438.979916450968,-37756.05264378222,9485.230980543016,-187500.02235174447,-187500.02235174447,-187500.02235174447,-187500.02235174447,-187500.02235174447,1730986668.0081868,1730986666.107968,2000
-10410.503794014909,-37737.56775111768,9490.6401027012,-187500.02235174447,-187500.02235174447,-187500.02235174447,-187500.02235174447,-187500.02235174447,1730986668.0124264,1730986666.107968,2000
-10405.63111372365,-37779.3208097602,9516.5457745249,-187500.02235174447,-187500.02235174447,-187500.02235174447,-187500.02235174447,-187500.02235174447,1730986668.0152,1730986666.107968,2000
-10404.759395689893,-37826.997080683366,9527.721646752554,-187500.02235174447,-187500.02235174447,-187500.02235174447,-187500.02235174447,-187500.02235174447,1730986668.0192096,1730986666.107968,2000
-10408.335674802742,-37797.58218498018,9527.185204885627,-187500.02235174447,-187500.02235174447,-187500.02235174447,-187500.02235174447,-187500.02235174447,1730986668.023245,1730986666.107968,2000
-10406.592238735228,-37753.14691700303,9524.16771938416,-187500.02235174447,-187500.02235174447,-187500.02235174447,-187500.02235174447,-187500.02235174447,1730986668.0273592,1730986666.107968,2000
-10416.292895828832,-37803.52774900529,9530.31444910937,-187500.02235174447,-187500.02235174447,-187500.02235174447,-187500.02235174447,-187500.02235174447,1730986668.032212,1730986666.107968,2000
-10434.44251232654,-37840.81045875674,9548.397010373714,-187500.02235174447,-187500.02235174447,-187500.02235174447,-187500.02235174447,-187500.02235174447,1730986668.0363257,1730986666.107968,2000
-10434.286050115354,-37776.54919344773,9550.587481330334,-187500.02235174447,-187500.02235174447,-187500.02235174447,-187500.02235174447,-187500.02235174447,1730986668.0393217,1730986666.107968,2000
-10436.58827979425,-37738.059489495696,9515.875222191242,-187500.02235174447,-187500.02235174447,-187500.02235174447,-187500.02235174447,-187500.02235174447,1730986668.0433216,1730986666.107968,2000
-10424.607744766206,-37751.04585302423,9529.196861886605,-187500.02235174447,-187500.02235174447,-187500.02235174447,-187500.02235174447,-187500.02235174447,1730986668.0479617,1730986666.107968,2000
-10415.667046984085,-37852.92510425152,9556.421286633167,-187500.02235174447,-187500.02235174447,-187500.02235174447,-187500.02235174447,-187500.02235174447,1730986668.0513294,1730986666.107968,2000
-10422.909012187602,-37818.525769534805,9518.93741118162,-187500.02235174447,-187500.02235174447,-187500.02235174447,-187500.02235174447,-187500.02235174447,1730986668.055317,1730986666.107968,2000
-10425.59122152224,-37729.05173648021,9494.797527169889,-187500.02235174447,-187500.02235174447,-187500.02235174447,-187500.02235174447,-187500.02235174447,1730986668.0604217,1730986666.107968,2000
-10423.668971499084,-37723.41909687747,9497.88206790472,-187500.02235174447,-187500.02235174447,-187500.02235174447,-187500.02235174447,-187500.02235174447,1730986668.0645993,1730986666.107968,2000
-10415.44352953953,-37787.278030786285,9510.466100033058,-187500.02235174447,-187500.02235174447,-187500.02235174447,-187500.02235174447,-187500.02235174447,1730986668.0673113,1730986666.107968,2000
-10425.39005582214,-37811.86494968712,9518.803300714886,-187500.02235174447,-187500.02235174447,-187500.02235174447,-187500.02235174447,-187500.02235174447,1730986668.071689,1730986666.107968,2000
-10431.737951247447,-37752.67753036947,9508.610905243268,-187500.02235174447,-187500.02235174447,-187500.02235174447,-187500.02235174447,-187500.02235174447,1730986668.0754569,1730986666.107968,2000
-10427.267602356387,-37753.012806536295,9510.30963782187,-187500.02235174447,-187500.02235174447,-187500.02235174447,-187500.02235174447,-187500.02235174447,1730986668.079388,1730986666.107968,2000
-10415.175308606063,-37821.56560678072,9535.500053823002,-187500.02235174447,-187500.02235174447,-187500.02235174447,-187500.02235174447,-187500.02235174447,1730986668.0834143,1730986666.107968,2000
-10413.007189393902,-37848.32064489373,9529.733303753532,-187500.02235174447,-187500.02235174447,-187500.02235174447,-187500.02235174447,-187500.02235174447,1730986668.0882215,1730986666.107968,2000
-10408.82741318076,-37768.21199276591,9513.282419834426,-187500.02235174447,-187500.02235174447,-187500.02235174447,-187500.02235174447,-187500.02235174447,1730986668.0927553,1730986666.107968,2000
-10421.76907322038,-37697.42401807594,9507.962704654065,-187500.02235174447,-187500.02235174447,-187500.02235174447,-187500.02235174447,-187500.02235174447,1730986668.0953507,1730986666.107968,2000
-10432.788483236847,-37738.1041929846,9520.703198993588,-187500.02235174447,-187500.02235174447,-187500.02235174447,-187500.02235174447,-187500.02235174447,1730986668.0992358,1730986666.107968,2000
-10435.582451293762,-37831.02039468532,9536.997620701506,-187500.02235174447,-187500.02235174447,-187500.02235174447,-187500.02235174447,-187500.02235174447,1730986668.1035445,1730986666.107968,2000
-10442.243271141442,-37786.45101624144,9525.151196140194,-187500.02235174447,-187500.02235174447,-187500.02235174447,-187500.02235174447,-187500.02235174447,1730986668.1072671,1730986666.107968,2000
-10437.68351527256,-37692.12665464004,9519.853832704286,-187500.02235174447,-187500.02235174447,-187500.02235174447,-187500.02235174447,-187500.02235174447,1730986668.1116016,1730986666.107968,2000
-10430.262736113398,-37707.70582052539,9536.617641045768,-187500.02235174447,-187500.02235174447,-187500.02235174447,-187500.02235174447,-187500.02235174447,1730986668.11528,1730986666.107968,2000
-10437.437646083552,-37777.6667806705,9532.147292154705,-187500.02235174447,-187500.02235174447,-187500.02235174447,-187500.02235174447,-187500.02235174447,1730986668.1206577,1730986666.107968,2000
-10435.269526871389,-37810.5238450198,9520.45732980458,-187500.02235174447,-187500.02235174447,-187500.02235174447,-187500.02235174447,-187500.02235174447,1730986668.1232927,1730986666.107968,2000
-10441.326849618776,-37752.49871641382,9524.726512995545,-187500.02235174447,-187500.02235174447,-187500.02235174447,-187500.02235174447,-187500.02235174447,1730986668.1273868,1730986666.107968,2000
-10435.001305937923,-37763.5628299192,9535.187129400629,-187500.02235174447,-187500.02235174447,-187500.02235174447,-187500.02235174447,-187500.02235174447,1730986668.1314566,1730986666.107968,2000
-10420.405616808608,-37810.45678978643,9536.215309645571,-187500.02235174447,-187500.02235174447,-187500.02235174447,-187500.02235174447,-187500.02235174447,1730986668.1356828,1730986666.107968,2000
-10423.043122654331,-37847.22540941541,9596.252095252526,-187500.02235174447,-187500.02235174447,-187500.02235174447,-187500.02235174447,-187500.02235174447,1730986668.1399784,1730986666.107968,2000
-10440.276317629376,-37749.88356231256,9583.46689742409,-187500.02235174447,-187500.02235174447,-187500.02235174447,-187500.02235174447,-187500.02235174447,1730986668.1443036,1730986666.107968,2000
-10436.744742005438,-37733.61149234909,9481.945274108086,-187500.02235174447,-187500.02235174447,-187500.02235174447,-187500.02235174447,-187500.02235174447,1730986668.1473117,1730986666.107968,2000
-10414.705921972503,-37795.3246587902,9484.91805612064,-187500.02235174447,-187500.02235174447,-187500.02235174447,-187500.02235174447,-187500.02235174447,1730986668.1514912,1730986666.107968,2000
-10428.899279701624,-37837.54710406627,9499.223172572038,-187500.02235174447,-187500.02235174447,-187500.02235174447,-187500.02235174447,-187500.02235174447,1730986668.1557088,1730986666.107968,2000
-10421.59025926474,-37762.869925841085,9507.292152320404,-187500.02235174447,-187500.02235174447,-187500.02235174447,-187500.02235174447,-187500.02235174447,1730986668.159331,1730986666.107968,2000
-10414.549459761318,-37739.66881509648,9510.667265733156,-187500.02235174447,-187500.02235174447,-187500.02235174447,-187500.02235174447,-187500.02235174447,1730986668.1634653,1730986666.107968,2000
-10428.407541323608,-37801.09140885966,9525.486472307024,-187500.02235174447,-187500.02235174447,-187500.02235174447,-187500.02235174447,-187500.02235174447,1730986668.1674948,1730986666.107968,2000
-10435.9624309495,-37859.74238631039,9527.073446163353,-187500.02235174447,-187500.02235174447,-187500.02235174447,-187500.02235174447,-187500.02235174447,1730986668.1725738,1730986666.107968,2000
-10434.82249198228,-37768.882545099565,9507.426262787136,-187500.02235174447,-187500.02235174447,-187500.02235174447,-187500.02235174447,-187500.02235174447,1730986668.1753829,1730986666.107968,2000
-10423.221936609976,-37749.90591405701,9516.16579486916,-187500.02235174447,-187500.02235174447,-187500.02235174447,-187500.02235174447,-187500.02235174447,1730986668.1784196,1730986666.107968,2000
-10429.636887268647,-37812.803722954246,9559.774048301464,-187500.02235174447,-187500.02235174447,-187500.02235174447,-187500.02235174447,-187500.02235174447,1730986668.1834283,1730986666.107968,2000
-10448.367649122198,-37852.81334552924,9533.51074856648,-187500.02235174447,-187500.02235174447,-187500.02235174447,-187500.02235174447,-187500.02235174447,1730986668.1880772,1730986666.107968,2000
-10432.54261404784,-37785.26637378531,9490.058957345362,-187500.02235174447,-187500.02235174447,-187500.02235174447,-187500.02235174447,-187500.02235174447,1730986668.191567,1730986666.107968,2000
-10424.92066918858,-37762.0652630407,9496.02687311493,-187500.02235174447,-187500.02235174447,-187500.02235174447,-187500.02235174447,-187500.02235174447,1730986668.195681,1730986666.107968,2000
-10426.284125600354,-37819.95628117994,9515.763463468966,-187500.02235174447,-187500.02235174447,-187500.02235174447,-187500.02235174447,-187500.02235174447,1730986668.200991,1730986666.107968,2000
-10432.430855325563,-37856.79195604229,9514.98115241303,-187500.02235174447,-187500.02235174447,-187500.02235174447,-187500.02235174447,-187500.02235174447,1730986668.2036216,1730986666.107968,2000
-10436.387114094152,-37798.49860650285,9504.699349963588,-187500.02235174447,-187500.02235174447,-187500.02235174447,-187500.02235174447,-187500.02235174447,1730986668.206499,1730986666.107968,2000
-10423.91484068809,-37742.12750698656,9517.7974722144,-187500.02235174447,-187500.02235174447,-187500.02235174447,-187500.02235174447,-187500.02235174447,1730986668.212012,1730986666.107968,2000
-10410.794366692826,-37761.417062451495,9527.78870198592,-187500.02235174447,-187500.02235174447,-187500.02235174447,-187500.02235174447,-187500.02235174447,1730986668.2155116,1730986666.107968,2000
-10423.087826143244,-37869.17482247053,9518.69154199261,-187500.02235174447,-187500.02235174447,-187500.02235174447,-187500.02235174447,-187500.02235174447,1730986668.219731,1730986666.107968,2000
-10425.635925011147,-37835.22252264292,9509.862602932764,-187500.02235174447,-187500.02235174447,-187500.02235174447,-187500.02235174447,-187500.02235174447,1730986668.2235188,1730986666.107968,2000
-10428.608707023706,-37777.73383590387,9502.26300981796,-187500.02235174447,-187500.02235174447,-187500.02235174447,-187500.02235174447,-187500.02235174447,1730986668.228456,1730986666.107968,2000
-10430.329791346763,-37800.35380129264,9516.88105069173,-187500.02235174447,-187500.02235174447,-187500.02235174447,-187500.02235174447,-187500.02235174447,1730986668.2315793,1730986666.107968,2000
-10431.223861124976,-37862.22342994493,9535.79062650092,-187500.02235174447,-187500.02235174447,-187500.02235174447,-187500.02235174447,-187500.02235174447,1730986668.2346966,1730986666.107968,2000
-10442.77971300837,-37804.44417052796,9536.617641045768,-187500.02235174447,-187500.02235174447,-187500.02235174447,-187500.02235174447,-187500.02235174447,1730986668.2394693,1730986666.107968,2000
-10441.483311829965,-37762.109966529606,9517.059864647374,-187500.02235174447,-187500.02235174447,-187500.02235174447,-187500.02235174447,-187500.02235174447,1730986668.2434092,1730986666.107968,2000
-10425.077131399768,-37757.79607984973,9508.07446337634,-187500.02235174447,-187500.02235174447,-187500.02235174447,-187500.02235174447,-187500.02235174447,1730986668.2476983,1730986666.107968,2000
-10429.569832035284,-37817.45288580094,9525.620582773756,-187500.02235174447,-187500.02235174447,-187500.02235174447,-187500.02235174447,-187500.02235174447,1730986668.2517817,1730986666.107968,2000
-10441.907994974614,-37778.672609170986,9502.486527262512,-187500.02235174447,-187500.02235174447,-187500.02235174447,-187500.02235174447,-187500.02235174447,1730986668.2557354,1730986666.107968,2000
-10421.813776709292,-37733.54443711572,9498.127937093728,-187500.02235174447,-187500.02235174447,-187500.02235174447,-187500.02235174447,-187500.02235174447,1730986668.258536,1730986666.107968,2000
-10425.904145944614,-37764.79217586424,9511.74014946701,-187500.02235174447,-187500.02235174447,-187500.02235174447,-187500.02235174447,-187500.02235174447,1730986668.2628996,1730986666.107968,2000
-10433.794311737336,-37839.02231920032,9528.79453048641,-187500.02235174447,-187500.02235174447,-187500.02235174447,-187500.02235174447,-187500.02235174447,1730986668.266759,1730986666.107968,2000
-10437.437646083552,-37814.83773169968,9519.630315259734,-187500.02235174447,-187500.02235174447,-187500.02235174447,-187500.02235174447,-187500.02235174447,1730986668.2716067,1730986666.107968,2000
-10437.124721661175,-37770.02248406679,9512.522460522943,-187500.02235174447,-187500.02235174447,-187500.02235174447,-187500.02235174447,-187500.02235174447,1730986668.276284,1730986666.107968,2000
-10430.35214309122,-37754.689187370444,9522.26782110546,-187500.02235174447,-187500.02235174447,-187500.02235174447,-187500.02235174447,-187500.02235174447,1730986668.2797427,1730986666.107968,2000
-10436.275355371876,-37840.56458956774,9518.40096931469,-187500.02235174447,-187500.02235174447,-187500.02235174447,-187500.02235174447,-187500.02235174447,1730986668.282609,1730986666.107968,2000
-10430.240384368944,-37839.692871533975,9519.675018748643,-187500.02235174447,-187500.02235174447,-187500.02235174447,-187500.02235174447,-187500.02235174447,1730986668.286816,1730986666.107968,2000
-10434.666029771091,-37762.08761478515,9538.36107711328,-187500.02235174447,-187500.02235174447,-187500.02235174447,-187500.02235174447,-187500.02235174447,1730986668.290533,1730986666.107968,2000
-10445.461922343007,-37735.19846620542,9507.090986620306,-187500.02235174447,-187500.02235174447,-187500.02235174447,-187500.02235174447,-187500.02235174447,1730986668.2946155,1730986666.107968,2000
-10422.886660443148,-37803.99713563885,9504.16290809666,-187500.02235174447,-187500.02235174447,-187500.02235174447,-187500.02235174447,-187500.02235174447,1730986668.2996025,1730986666.107968,2000
-10421.67966624256,-37876.68500860752,9511.159004111172,-187500.02235174447,-187500.02235174447,-187500.02235174447,-187500.02235174447,-187500.02235174447,1730986668.30357,1730986666.107968,2000
-10443.226747897475,-37812.91548167652,9515.159966368672,-187500.02235174447,-187500.02235174447,-187500.02235174447,-187500.02235174447,-187500.02235174447,1730986668.307747,1730986666.107968,2000
-10441.63977404115,-37731.24220743683,9527.565184541369,-187500.02235174447,-187500.02235174447,-187500.02235174447,-187500.02235174447,-187500.02235174447,1730986668.3106294,1730986666.107968,2000
-10427.178195378568,-37770.00013232233,9513.796509956896,-187500.02235174447,-187500.02235174447,-187500.02235174447,-187500.02235174447,-187500.02235174447,1730986668.3145697,1730986666.107968,2000
-10420.20445110851,-37856.94841825347,9521.820786216353,-187500.02235174447,-187500.02235174447,-187500.02235174447,-187500.02235174447,-187500.02235174447,1730986668.3186004,1730986666.107968,2000
-10432.900241959123,-37820.6268335136,9526.805225229888,-187500.02235174447,-187500.02235174447,-187500.02235174447,-187500.02235174447,-187500.02235174447,1730986668.3226612,1730986666.107968,2000
-10429.413369824097,-37764.14397527504,9535.388295100724,-187500.02235174447,-187500.02235174447,-187500.02235174447,-187500.02235174447,-187500.02235174447,1730986668.3277743,1730986666.107968,2000
-10429.189852379544,-37757.10317577162,9552.710897053588,-187500.02235174447,-187500.02235174447,-187500.02235174447,-187500.02235174447,-187500.02235174447,1730986668.3315256,1730986666.107968,2000
-10447.406524110618,-37840.96692096793,9535.835329989832,-187500.02235174447,-187500.02235174447,-187500.02235174447,-187500.02235174447,-187500.02235174447,1730986668.3358667,1730986666.107968,2000
-10451.251024156933,-37864.57036311273,9487.35439626627,-187500.02235174447,-187500.02235174447,-187500.02235174447,-187500.02235174447,-187500.02235174447,1730986668.338642,1730986666.107968,2000
-10428.072265156778,-37776.59389693665,9490.796564912387,-187500.02235174447,-187500.02235174447,-187500.02235174447,-187500.02235174447,-187500.02235174447,1730986668.3428843,1730986666.107968,2000
-10421.009113908902,-37752.319902458185,9505.50401276398,-187500.02235174447,-187500.02235174447,-187500.02235174447,-187500.02235174447,-187500.02235174447,1730986668.3470073,1730986666.107968,2000
-10422.417273809586,-37847.7842030268,9515.428187302135,-187500.02235174447,-187500.02235174447,-187500.02235174447,-187500.02235174447,-187500.02235174447,1730986668.350668,1730986666.107968,2000
-10438.64464028414,-37828.33818535068,9517.842175703308,-187500.02235174447,-187500.02235174447,-187500.02235174447,-187500.02235174447,-187500.02235174447,1730986668.3557763,1730986666.107968,2000
-10439.002268195423,-37791.90484188853,9514.824690201842,-187500.02235174447,-187500.02235174447,-187500.02235174447,-187500.02235174447,-187500.02235174447,1730986668.359999,1730986666.107968,2000
-10435.1130646602,-37792.10600758863,9504.7440534525,-187500.02235174447,-187500.02235174447,-187500.02235174447,-187500.02235174447,-187500.02235174447,1730986668.3640828,1730986666.107968,2000
-10423.892488943637,-37854.55678159676,9517.641010003212,-187500.02235174447,-187500.02235174447,-187500.02235174447,-187500.02235174447,-187500.02235174447,1730986668.3666334,1730986666.107968,2000
-10426.462939555997,-37891.705380881474,9518.110396636772,-187500.02235174447,-187500.02235174447,-187500.02235174447,-187500.02235174447,-187500.02235174447,1730986668.37086,1730986666.107968,2000
-10435.001305937923,-37847.739499537885,9519.607963515278,-187500.02235174447,-187500.02235174447,-187500.02235174447,-187500.02235174447,-187500.02235174447,1730986668.3746417,1730986666.107968,2000
-10439.53871006235,-37831.15450515205,9509.996713399496,-187500.02235174447,-187500.02235174447,-187500.02235174447,-187500.02235174447,-187500.02235174447,1730986668.37866,1730986666.107968,2000
-10425.725331988971,-37835.848371487664,9496.987998126508,-187500.02235174447,-187500.02235174447,-187500.02235174447,-187500.02235174447,-187500.02235174447,1730986668.3826475,1730986666.107968,2000
-10421.25498309791,-37832.80853424174,9518.043341403409,-187500.02235174447,-187500.02235174447,-187500.02235174447,-187500.02235174447,-187500.02235174447,1730986668.3882017,1730986666.107968,2000
-10426.038256411346,-37834.06023193124,9542.205577159591,-187500.02235174447,-187500.02235174447,-187500.02235174447,-187500.02235174447,-187500.02235174447,1730986668.3918953,1730986666.107968,2000
-10438.39877109513,-37788.64148719805,9501.815974928852,-187500.02235174447,-187500.02235174447,-187500.02235174447,-187500.02235174447,-187500.02235174447,1730986668.3950849,1730986666.107968,2000
-10423.423102310077,-37823.33139459269,9499.804317927876,-187500.02235174447,-187500.02235174447,-187500.02235174447,-187500.02235174447,-187500.02235174447,1730986668.3986633,1730986666.107968,2000
-10423.892488943637,-37932.09498311222,9514.489414035012,-187500.02235174447,-187500.02235174447,-187500.02235174447,-187500.02235174447,-187500.02235174447,1730986668.4030545,1730986666.107968,2000
-10428.072265156778,-37849.72880479441,9502.97826564053,-187500.02235174447,-187500.02235174447,-187500.02235174447,-187500.02235174447,-187500.02235174447,1730986668.4066985,1730986666.107968,2000
-10423.288991843345,-37778.5161469598,9500.5419254949,-187500.02235174447,-187500.02235174447,-187500.02235174447,-187500.02235174447,-187500.02235174447,1730986668.410896,1730986666.107968,2000
-10420.137395875145,-37785.8698708856,9533.667210777669,-187500.02235174447,-187500.02235174447,-187500.02235174447,-187500.02235174447,-187500.02235174447,1730986668.4156897,1730986666.107968,2000
-10432.050875669824,-37872.72874983892,9536.058847434384,-187500.02235174447,-187500.02235174447,-187500.02235174447,-187500.02235174447,-187500.02235174447,1730986668.4193833,1730986666.107968,2000
-10439.87398622918,-37895.95221232798,9485.92388462113,-187500.02235174447,-187500.02235174447,-187500.02235174447,-187500.02235174447,-187500.02235174447,1730986668.42312,1730986666.107968,2000
-10428.63105876816,-37824.69485100447,9473.943349593086,-187500.02235174447,-187500.02235174447,-187500.02235174447,-187500.02235174447,-187500.02235174447,1730986668.4267051,1730986666.107968,2000
-10423.82543371027,-37829.90280746255,9491.847096901787,-187500.02235174447,-187500.02235174447,-187500.02235174447,-187500.02235174447,-187500.02235174447,1730986668.4307115,1730986666.107968,2000
-10422.864308698692,-37889.35844771367,9511.047245388896,-187500.02235174447,-187500.02235174447,-187500.02235174447,-187500.02235174447,-187500.02235174447,1730986668.4347134,1730986666.107968,2000
-10426.127663389168,-37942.44384079502,9510.30963782187,-187500.02235174447,-187500.02235174447,-187500.02235174447,-187500.02235174447,-187500.02235174447,1730986668.438717,1730986666.107968,2000
-10425.88179420016,-37852.05338621776,9490.148364323184,-187500.02235174447,-187500.02235174447,-187500.02235174447,-187500.02235174447,-187500.02235174447,1730986668.4438467,1730986666.107968,2000
-10419.980933663956,-37799.63854547007,9494.909285892163,-187500.02235174447,-187500.02235174447,-187500.02235174447,-187500.02235174447,-187500.02235174447,1730986668.446705,1730986666.107968,2000
-10415.73410221745,-37834.68608077599,9509.281457576926,-187500.02235174447,-187500.02235174447,-187500.02235174447,-187500.02235174447,-187500.02235174447,1730986668.4508543,1730986666.107968,2000
-10421.031465653356,-37848.99119722738,9513.304771578882,-187500.02235174447,-187500.02235174447,-187500.02235174447,-187500.02235174447,-187500.02235174447,1730986668.454814,1730986666.107968,2000
-10424.004247665913,-37854.89205776359,9520.88201294923,-187500.02235174447,-187500.02235174447,-187500.02235174447,-187500.02235174447,-187500.02235174447,1730986668.458847,1730986666.107968,2000
-10436.387114094152,-37858.35657815416,9520.7479024825,-187500.02235174447,-187500.02235174447,-187500.02235174447,-187500.02235174447,-187500.02235174447,1730986668.462876,1730986666.107968,2000
-10436.007134438412,-37826.2818248608,9507.649780231688,-187500.02235174447,-187500.02235174447,-187500.02235174447,-187500.02235174447,-187500.02235174447,1730986668.466899,1730986666.107968,2000
-10420.87500344217,-37850.041729216784,9528.191033386116,-187500.02235174447,-187500.02235174447,-187500.02235174447,-187500.02235174447,-187500.02235174447,1730986668.47185,1730986666.107968,2000
-10423.378398821164,-37873.30989519476,9526.492300807511,-187500.02235174447,-187500.02235174447,-187500.02235174447,-187500.02235174447,-187500.02235174447,1730986668.4748597,1730986666.107968,2000
-10422.48432904295,-37817.29642358976,9512.343646567304,-187500.02235174447,-187500.02235174447,-187500.02235174447,-187500.02235174447,-187500.02235174447,1730986668.4787917,1730986666.107968,2000
-10425.792387222336,-37823.286691103785,9508.566201754356,-187500.02235174447,-187500.02235174447,-187500.02235174447,-187500.02235174447,-187500.02235174447,1730986668.4828527,1730986666.107968,2000
-10435.44834082703,-37882.47411042143,9492.428242257623,-187500.02235174447,-187500.02235174447,-187500.02235174447,-187500.02235174447,-187500.02235174447,1730986668.4867852,1730986666.107968,2000
-10427.647582012129,-37830.86393247413,9510.063768632865,-187500.02235174447,-187500.02235174447,-187500.02235174447,-187500.02235174447,-187500.02235174447,1730986668.4907916,1730986666.107968,2000
-10425.837090711248,-37774.47048121339,9530.247393876003,-187500.02235174447,-187500.02235174447,-187500.02235174447,-187500.02235174447,-187500.02235174447,1730986668.4949088,1730986666.107968,2000
-10421.478500542462,-37808.08750487417,9516.143443124703,-187500.02235174447,-187500.02235174447,-187500.02235174447,-187500.02235174447,-187500.02235174447,1730986668.5000148,1730986666.107968,2000
-10422.931363932055,-37906.07755256624,9495.579838225824,-187500.02235174447,-187500.02235174447,-187500.02235174447,-187500.02235174447,-187500.02235174447,1730986668.5028255,1730986666.107968,2000
-10424.563041277295,-37863.318665423234,9475.217399027038,-187500.02235174447,-187500.02235174447,-187500.02235174447,-187500.02235174447,-187500.02235174447,1730986668.5058467,1730986666.107968,2000
-10415.264715583888,-37782.07007432819,9476.759669394454,-187500.02235174447,-187500.02235174447,-187500.02235174447,-187500.02235174447,-187500.02235174447,1730986668.510933,1730986666.107968,2000
-10419.668009241585,-37778.62790568208,9500.318408050349,-187500.02235174447,-187500.02235174447,-187500.02235174447,-187500.02235174447,-187500.02235174447,1730986668.5148385,1730986666.107968,2000
-10432.363800092196,-37832.20503714145,9516.612829758267,-187500.02235174447,-187500.02235174447,-187500.02235174447,-187500.02235174447,-187500.02235174447,1730986668.518891,1730986666.107968,2000
-10431.000343680424,-37823.7784294818,9506.17456509764,-187500.02235174447,-187500.02235174447,-187500.02235174447,-187500.02235174447,-187500.02235174447,1730986668.5228553,1730986666.107968,2000
