Fp1,Fp2,C3,C4,P7,P8,O1,O2,time_board,time_marker,marker
29844.80915603747,-99272.94841682295,17255.233795074677,-187500.02235174447,-187500.02235174447,-187500.02235174447,-187500.02235174447,-187500.02235174447,1730653657.0263965,1730653657.0235674,2000
29855.694455587203,-99251.28957644578,17250.204652572233,-187500.02235174447,-187500.02235174447,-187500.02235174447,-187500.02235174447,-187500.02235174447,1730653657.0312157,1730653657.0235674,2000
29870.066627271968,-99253.18947472448,17245.13080658088,-187500.02235174447,-187500.02235174447,-187500.02235174447,-187500.02235174447,-187500.02235174447,1730653657.0351677,1730653657.0235674,2000
29872.882947073336,-99264.81238184124,17246.181338570277,-187500.02235174447,-187500.02235174447,-187500.02235174447,-187500.02235174447,-187500.02235174447,1730653657.0413785,1730653657.0235674,2000
29859.896583544803,-99281.55383843828,17254.071504363,-187500.02235174447,-187500.02235174447,-187500.02235174447,-187500.02235174447,-187500.02235174447,1730653657.044129,1730653657.0235674,2000
29843.06571996996,-99303.25738230436,17255.881995663884,-187500.02235174447,-187500.02235174447,-187500.02235174447,-187500.02235174447,-187500.02235174447,1730653657.0470853,1730653657.0235674,2000
29844.47387987064,-99281.46443146044,17248.014181615614,-187500.02235174447,-187500.02235174447,-187500.02235174447,-187500.02235174447,-187500.02235174447,1730653657.0512128,1730653657.0235674,2000
29862.511737646077,-99271.76377436685,17242.35919026842,-187500.02235174447,-187500.02235174447,-187500.02235174447,-187500.02235174447,-187500.02235174447,1730653657.0543015,1730653657.0235674,2000
29866.088016758924,-99275.13888777958,17245.46608274771,-187500.02235174447,-187500.02235174447,-187500.02235174447,-187500.02235174447,-187500.02235174447,1730653657.0591972,1730653657.0235674,2000
29854.8450892979,-99265.66174813054,17260.575861999496,-187500.02235174447,-187500.02235174447,-187500.02235174447,-187500.02235174447,-187500.02235174447,1730653657.0630248,1730653657.0235674,2000
29846.530240360527,-99250.39550666756,17251.83632991747,-187500.02235174447,-187500.02235174447,-187500.02235174447,-187500.02235174447,-187500.02235174447,1730653657.0670896,1730653657.0235674,2000
29862.511737646077,-99265.63939638608,17258.586556742976,-187500.02235174447,-187500.02235174447,-187500.02235174447,-187500.02235174447,-187500.02235174447,1730653657.0700877,1730653657.0235674,2000
29866.713865603677,-99253.65886135804,17254.764408441115,-187500.02235174447,-187500.02235174447,-187500.02235174447,-187500.02235174447,-187500.02235174447,1730653657.0743055,1730653657.0235674,2000
29871.318324961463,-99240.51603561832,17256.530196253087,-187500.02235174447,-187500.02235174447,-187500.02235174447,-187500.02235174447,-187500.02235174447,1730653657.0782015,1730653657.0235674,2000
29889.982031581647,-99248.51796013332,17258.631260231883,-187500.02235174447,-187500.02235174447,-187500.02235174447,-187500.02235174447,-187500.02235174447,1730653657.0821216,1730653657.0235674,2000
29906.05293584501,-99270.15444876606,17255.859643919426,-187500.02235174447,-187500.02235174447,-187500.02235174447,-187500.02235174447,-187500.02235174447,1730653657.0864525,1730653657.0235674,2000
29847.804289794483,-99294.31668452224,17252.372771784398,-187500.02235174447,-187500.02235174447,-187500.02235174447,-187500.02235174447,-187500.02235174447,1730653657.0916195,1730653657.0235674,2000
29806.85589395236,-99282.40320472755,17251.433998517277,-187500.02235174447,-187500.02235174447,-187500.02235174447,-187500.02235174447,-187500.02235174447,1730653657.094392,1730653657.0235674,2000
29844.697397315194,-99292.8414693882,17249.80232117204,-187500.02235174447,-187500.02235174447,-187500.02235174447,-187500.02235174447,-187500.02235174447,1730653657.0984073,1730653657.0235674,2000
29881.95775532219,-99266.9805010534,17254.49618750765,-187500.02235174447,-187500.02235174447,-187500.02235174447,-187500.02235174447,-187500.02235174447,1730653657.1023953,1730653657.0235674,2000
29867.093845259413,-99276.07766104671,17248.014181615614,-187500.02235174447,-187500.02235174447,-187500.02235174447,-187500.02235174447,-187500.02235174447,1730653657.1062791,1730653657.0235674,2000
29822.770336004534,-99315.77435919932,17219.22513475718,-187500.02235174447,-187500.02235174447,-187500.02235174447,-187500.02235174447,-187500.02235174447,1730653657.112255,1730653657.0235674,2000
29821.07160342593,-99322.52458602484,17232.591477941452,-187500.02235174447,-187500.02235174447,-187500.02235174447,-187500.02235174447,-187500.02235174447,1730653657.1152256,1730653657.0235674,2000
29842.1940019362,-99267.6287016426,17261.112303866423,-187500.02235174447,-187500.02235174447,-187500.02235174447,-187500.02235174447,-187500.02235174447,1730653657.1192925,1730653657.0235674,2000
29872.458263928685,-99253.74826833584,17260.620565488407,-187500.02235174447,-187500.02235174447,-187500.02235174447,-187500.02235174447,-187500.02235174447,1730653657.1222093,1730653657.0235674,2000
29882.33773497793,-99276.99408256938,17248.08123684898,-187500.02235174447,-187500.02235174447,-187500.02235174447,-187500.02235174447,-187500.02235174447,1730653657.1262848,1730653657.0235674,2000
29811.52740854352,-99297.20005955696,17218.2640097456,-187500.02235174447,-187500.02235174447,-187500.02235174447,-187500.02235174447,-187500.02235174447,1730653657.1301732,1730653657.0235674,2000
29778.75975117204,-99289.17578329753,17253.602117729442,-187500.02235174447,-187500.02235174447,-187500.02235174447,-187500.02235174447,-187500.02235174447,1730653657.1343496,1730653657.0235674,2000
29814.164914389243,-99282.53731519428,17256.46314101972,-187500.02235174447,-187500.02235174447,-187500.02235174447,-187500.02235174447,-187500.02235174447,1730653657.1382391,1730653657.0235674,2000
29856.007380009574,-99260.2749777168,17253.400952029344,-187500.02235174447,-187500.02235174447,-187500.02235174447,-187500.02235174447,-187500.02235174447,1730653657.1426015,1730653657.0235674,2000
29902.70017417672,-99267.13696326458,17267.124923124902,-187500.02235174447,-187500.02235174447,-187500.02235174447,-187500.02235174447,-187500.02235174447,1730653657.1472409,1730653657.0235674,2000
29872.122987761857,-99308.89002190712,17262.14048411137,-187500.02235174447,-187500.02235174447,-187500.02235174447,-187500.02235174447,-187500.02235174447,1730653657.1505947,1730653657.0235674,2000
29845.1444322043,-99334.3486588417,17245.13080658088,-187500.02235174447,-187500.02235174447,-187500.02235174447,-187500.02235174447,-187500.02235174447,1730653657.1535194,1730653657.0235674,2000
29873.844072084918,-99278.80457387026,17243.27561179109,-187500.02235174447,-187500.02235174447,-187500.02235174447,-187500.02235174447,-187500.02235174447,1730653657.158564,1730653657.0235674,2000
29858.890755044315,-99291.74623390989,17252.26101306212,-187500.02235174447,-187500.02235174447,-187500.02235174447,-187500.02235174447,-187500.02235174447,1730653657.162557,1730653657.0235674,2000
29857.95198177719,-99298.51881247984,17300.116097940936,-187500.02235174447,-187500.02235174447,-187500.02235174447,-187500.02235174447,-187500.02235174447,1730653657.166439,1730653657.0235674,2000
29854.800385808998,-99263.73949810736,17324.01011276366,-187500.02235174447,-187500.02235174447,-187500.02235174447,-187500.02235174447,-187500.02235174447,1730653657.1705005,1730653657.0235674,2000
29847.379606649836,-99258.86681781612,17287.017975690123,-187500.02235174447,-187500.02235174447,-187500.02235174447,-187500.02235174447,-187500.02235174447,1730653657.174502,1730653657.0235674,2000
29849.48067062863,-99287.32058850772,17265.60500450194,-187500.02235174447,-187500.02235174447,-187500.02235174447,-187500.02235174447,-187500.02235174447,1730653657.1783595,1730653657.0235674,2000
29867.58558363743,-99304.4420247605,17242.001562357138,-187500.02235174447,-187500.02235174447,-187500.02235174447,-187500.02235174447,-187500.02235174447,1730653657.1813767,1730653657.0235674,2000
29863.51756614656,-99356.38747887465,17237.68767567726,-187500.02235174447,-187500.02235174447,-187500.02235174447,-187500.02235174447,-187500.02235174447,1730653657.1865184,1730653657.0235674,2000
29844.42917638173,-99318.65773423408,17219.40394871282,-187500.02235174447,-187500.02235174447,-187500.02235174447,-187500.02235174447,-187500.02235174447,1730653657.1905012,1730653657.0235674,2000
29882.181272766746,-99291.6344751876,17245.488434492163,-187500.02235174447,-187500.02235174447,-187500.02235174447,-187500.02235174447,-187500.02235174447,1730653657.194523,1730653657.0235674,2000
29833.27565589853,-99303.90558289357,17253.758579940626,-187500.02235174447,-187500.02235174447,-187500.02235174447,-187500.02235174447,-187500.02235174447,1730653657.1986609,1730653657.0235674,2000
29869.23961272712,-99276.77056512484,17280.267748864622,-187500.02235174447,-187500.02235174447,-187500.02235174447,-187500.02235174447,-187500.02235174447,1730653657.2017827,1730653657.0235674,2000
29926.90711342181,-99264.45475392995,17295.399879860866,-187500.02235174447,-187500.02235174447,-187500.02235174447,-187500.02235174447,-187500.02235174447,1730653657.205432,1730653657.0235674,2000
29823.753812760573,-99297.8929636351,17282.23470237669,-187500.02235174447,-187500.02235174447,-187500.02235174447,-187500.02235174447,-187500.02235174447,1730653657.2096567,1730653657.0235674,2000
29716.84541903084,-99315.1932138435,17213.570143409986,-187500.02235174447,-187500.02235174447,-187500.02235174447,-187500.02235174447,-187500.02235174447,1730653657.2145383,1730653657.0235674,2000
29810.76744923204,-99299.56934446924,17216.341759722443,-187500.02235174447,-187500.02235174447,-187500.02235174447,-187500.02235174447,-187500.02235174447,1730653657.2188349,1730653657.0235674,2000
29875.85572908589,-99342.70821126798,17269.293042337067,-187500.02235174447,-187500.02235174447,-187500.02235174447,-187500.02235174447,-187500.02235174447,1730653657.2223845,1730653657.0235674,2000
29864.009304524578,-99293.6461321886,17280.781838987095,-187500.02235174447,-187500.02235174447,-187500.02235174447,-187500.02235174447,-187500.02235174447,1730653657.2266517,1730653657.0235674,2000
29876.079246530444,-99268.8803993321,17243.119149579903,-187500.02235174447,-187500.02235174447,-187500.02235174447,-187500.02235174447,-187500.02235174447,1730653657.229433,1730653657.0235674,2000
29864.81396732497,-99255.87168405912,17240.034608845068,-187500.02235174447,-187500.02235174447,-187500.02235174447,-187500.02235174447,-187500.02235174447,1730653657.2336512,1730653657.0235674,2000
29807.682908497205,-99262.21957948442,17286.146257656368,-187500.02235174447,-187500.02235174447,-187500.02235174447,-187500.02235174447,-187500.02235174447,1730653657.2376037,1730653657.0235674,2000
29885.60108966841,-99290.89686762058,17266.767295213616,-187500.02235174447,-187500.02235174447,-187500.02235174447,-187500.02235174447,-187500.02235174447,1730653657.2426617,1730653657.0235674,2000
29957.32783762549,-99266.7793353533,17275.395068573365,-187500.02235174447,-187500.02235174447,-187500.02235174447,-187500.02235174447,-187500.02235174447,1730653657.2463703,1730653657.0235674,2000
29966.469701107708,-99246.17102696552,17273.741039483673,-187500.02235174447,-187500.02235174447,-187500.02235174447,-187500.02235174447,-187500.02235174447,1730653657.2505853,1730653657.0235674,2000
29762.085349808374,-99258.3303759492,17251.903385150836,-187500.02235174447,-187500.02235174447,-187500.02235174447,-187500.02235174447,-187500.02235174447,1730653657.2545078,1730653657.0235674,2000
29761.92888759719,-99291.5897716987,17243.83440540247,-187500.02235174447,-187500.02235174447,-187500.02235174447,-187500.02235174447,-187500.02235174447,1730653657.2577558,1730653657.0235674,2000
29850.71001657367,-99267.53929466478,17262.11813236691,-187500.02235174447,-187500.02235174447,-187500.02235174447,-187500.02235174447,-187500.02235174447,1730653657.2616327,1730653657.0235674,2000
29904.912996877792,-99288.30406526376,17270.812960960026,-187500.02235174447,-187500.02235174447,-187500.02235174447,-187500.02235174447,-187500.02235174447,1730653657.2677505,1730653657.0235674,2000
29853.503984630584,-99307.99595212888,17294.505810082654,-187500.02235174447,-187500.02235174447,-187500.02235174447,-187500.02235174447,-187500.02235174447,1730653657.270728,1730653657.0235674,2000
29788.818036176926,-99275.25064650188,17269.158931870334,-187500.02235174447,-187500.02235174447,-187500.02235174447,-187500.02235174447,-187500.02235174447,1730653657.274589,1730653657.0235674,2000
29847.42431013874,-99271.3837947111,17244.817882158506,-187500.02235174447,-187500.02235174447,-187500.02235174447,-187500.02235174447,-187500.02235174447,1730653657.278684,1730653657.0235674,2000
29879.119083776368,-99283.1855157835,17254.675001463296,-187500.02235174447,-187500.02235174447,-187500.02235174447,-187500.02235174447,-187500.02235174447,1730653657.2817273,1730653657.0235674,2000
29820.15518190327,-99276.30117849128,17278.99369943067,-187500.02235174447,-187500.02235174447,-187500.02235174447,-187500.02235174447,-187500.02235174447,1730653657.2857113,1730653657.0235674,2000
29835.600237321883,-99286.5829809407,17284.224007633213,-187500.02235174447,-187500.02235174447,-187500.02235174447,-187500.02235174447,-187500.02235174447,1730653657.289585,1730653657.0235674,2000
29881.287202988533,-99281.35267273815,17288.269673379622,-187500.02235174447,-187500.02235174447,-187500.02235174447,-187500.02235174447,-187500.02235174447,1730653657.2937522,1730653657.0235674,2000
29805.80536196296,-99329.18540587251,17229.46223371771,-187500.02235174447,-187500.02235174447,-187500.02235174447,-187500.02235174447,-187500.02235174447,1730653657.2976391,1730653657.0235674,2000
29796.81996069193,-99396.44180493854,17243.40972225782,-187500.02235174447,-187500.02235174447,-187500.02235174447,-187500.02235174447,-187500.02235174447,1730653657.3026893,1730653657.0235674,2000
29845.457356626677,-99361.1484004436,17279.217216875222,-187500.02235174447,-187500.02235174447,-187500.02235174447,-187500.02235174447,-187500.02235174447,1730653657.3064902,1730653657.0235674,2000
29870.71482786117,-99330.9511936845,17274.590405772975,-187500.02235174447,-187500.02235174447,-187500.02235174447,-187500.02235174447,-187500.02235174447,1730653657.3097415,1730653657.0235674,2000
29957.663113792318,-99312.93568765352,17254.89851890785,-187500.02235174447,-187500.02235174447,-187500.02235174447,-187500.02235174447,-187500.02235174447,1730653657.3135216,1730653657.0235674,2000
29920.603921485417,-99309.56057424076,17268.443676047766,-187500.02235174447,-187500.02235174447,-187500.02235174447,-187500.02235174447,-187500.02235174447,1730653657.3177624,1730653657.0235674,2000
29788.12513209881,-99306.8336614172,17293.94701647127,-187500.02235174447,-187500.02235174447,-187500.02235174447,-187500.02235174447,-187500.02235174447,1730653657.321617,1730653657.0235674,2000
29778.312716282933,-99313.85210917618,17258.743018954163,-187500.02235174447,-187500.02235174447,-187500.02235174447,-187500.02235174447,-187500.02235174447,1730653657.325719,1730653657.0235674,2000
29841.43404262472,-99311.70634170849,17260.64291723286,-187500.02235174447,-187500.02235174447,-187500.02235174447,-187500.02235174447,-187500.02235174447,1730653657.3305545,1730653657.0235674,2000
29901.224959042665,-99322.189309858,17272.84696970546,-187500.02235174447,-187500.02235174447,-187500.02235174447,-187500.02235174447,-187500.02235174447,1730653657.334686,1730653657.0235674,2000
29918.90518890681,-99329.20775761695,17252.328068295486,-187500.02235174447,-187500.02235174447,-187500.02235174447,-187500.02235174447,-187500.02235174447,1730653657.3376632,1730653657.0235674,2000
29857.214374210165,-99346.53035956984,17249.914079894315,-187500.02235174447,-187500.02235174447,-187500.02235174447,-187500.02235174447,-187500.02235174447,1730653657.341656,1730653657.0235674,2000
29911.305595792008,-99331.26411810686,17273.964556928226,-187500.02235174447,-187500.02235174447,-187500.02235174447,-187500.02235174447,-187500.02235174447,1730653657.347664,1730653657.0235674,2000
29847.62547583884,-99333.87927220813,17303.558266587053,-187500.02235174447,-187500.02235174447,-187500.02235174447,-187500.02235174447,-187500.02235174447,1730653657.350607,1730653657.0235674,2000
29754.821032860404,-99381.24261870891,17286.168609400822,-187500.02235174447,-187500.02235174447,-187500.02235174447,-187500.02235174447,-187500.02235174447,1730653657.3536727,1730653657.0235674,2000
29798.1834171037,-99371.18433370403,17259.79355094356,-187500.02235174447,-187500.02235174447,-187500.02235174447,-187500.02235174447,-187500.02235174447,1730653657.3598452,1730653657.0235674,2000
29848.877173528337,-99314.7908824433,17263.861568434426,-187500.02235174447,-187500.02235174447,-187500.02235174447,-187500.02235174447,-187500.02235174447,1730653657.362658,1730653657.0235674,2000
29852.498156130096,-99315.4390830325,17266.677888235794,-187500.02235174447,-187500.02235174447,-187500.02235174447,-187500.02235174447,-187500.02235174447,1730653657.3666008,1730653657.0235674,2000
29825.96663546165,-99340.0483536778,17276.199731373756,-187500.02235174447,-187500.02235174447,-187500.02235174447,-187500.02235174447,-187500.02235174447,1730653657.36985,1730653657.0235674,2000
29849.72653981764,-99374.67120583908,17271.595272015962,-187500.02235174447,-187500.02235174447,-187500.02235174447,-187500.02235174447,-187500.02235174447,1730653657.3736978,1730653657.0235674,2000
29914.412488271297,-99351.02306020536,17259.21240558772,-187500.02235174447,-187500.02235174447,-187500.02235174447,-187500.02235174447,-187500.02235174447,1730653657.3776562,1730653657.0235674,2000
29933.120898380388,-99327.21845236044,17262.475760278197,-187500.02235174447,-187500.02235174447,-187500.02235174447,-187500.02235174447,-187500.02235174447,1730653657.3817265,1730653657.0235674,2000
29855.269772442552,-99331.3982285736,17283.329937855,-187500.02235174447,-187500.02235174447,-187500.02235174447,-187500.02235174447,-187500.02235174447,1730653657.3868504,1730653657.0235674,2000
29754.73162588258,-99345.25631013588,17285.90038846736,-187500.02235174447,-187500.02235174447,-187500.02235174447,-187500.02235174447,-187500.02235174447,1730653657.38974,1730653657.0235674,2000
29817.316510357443,-99350.28545263832,17275.70799299574,-187500.02235174447,-187500.02235174447,-187500.02235174447,-187500.02235174447,-187500.02235174447,1730653657.3926597,1730653657.0235674,2000
29884.25998500109,-99340.92007171156,17269.248338848156,-187500.02235174447,-187500.02235174447,-187500.02235174447,-187500.02235174447,-187500.02235174447,1730653657.397643,1730653657.0235674,2000
29889.44558971472,-99340.18246414451,17276.51265579613,-187500.02235174447,-187500.02235174447,-187500.02235174447,-187500.02235174447,-187500.02235174447,1730653657.4017196,1730653657.0235674,2000
29859.471900400156,-99381.48848789794,17293.298815882066,-187500.02235174447,-187500.02235174447,-187500.02235174447,-187500.02235174447,-187500.02235174447,1730653657.4057224,1730653657.0235674,2000
29820.199885392176,-99345.90451072509,17269.31539408152,-187500.02235174447,-187500.02235174447,-187500.02235174447,-187500.02235174447,-187500.02235174447,1730653657.4097948,1730653657.0235674,2000
29798.406934548253,-99327.0396384048,17254.384428785375,-187500.02235174447,-187500.02235174447,-187500.02235174447,-187500.02235174447,-187500.02235174447,1730653657.4146776,1730653657.0235674,2000
29828.358272118363,-99364.702327812,17264.1744928568,-187500.02235174447,-187500.02235174447,-187500.02235174447,-187500.02235174447,-187500.02235174447,1730653657.41791,1730653657.0235674,2000
29848.4971938726,-99377.39811866262,17272.645804005362,-187500.02235174447,-187500.02235174447,-187500.02235174447,-187500.02235174447,-187500.02235174447,1730653657.4208724,1730653657.0235674,2000
29851.2464584406,-99358.71206029798,17263.280423078588,-187500.02235174447,-187500.02235174447,-187500.02235174447,-187500.02235174447,-187500.02235174447,1730653657.4258182,1730653657.0235674,2000
29859.71776958916,-99358.33208064224,17272.712859238727,-187500.02235174447,-187500.02235174447,-187500.02235174447,-187500.02235174447,-187500.02235174447,1730653657.429688,1730653657.0235674,2000
29870.267792972067,-99425.1190930747,17278.032574419092,-187500.02235174447,-187500.02235174447,-187500.02235174447,-187500.02235174447,-187500.02235174447,1730653657.433952,1730653657.0235674,2000
29846.44083338271,-99360.0084614764,17276.222083118213,-187500.02235174447,-187500.02235174447,-187500.02235174447,-187500.02235174447,-187500.02235174447,1730653657.439824,1730653657.0235674,2000
29812.89086495529,-99319.8423766902,17271.930548182794,-187500.02235174447,-187500.02235174447,-187500.02235174447,-187500.02235174447,-187500.02235174447,1730653657.442842,1730653657.0235674,2000
29833.365062876357,-99349.45843809348,17283.03936517708,-187500.02235174447,-187500.02235174447,-187500.02235174447,-187500.02235174447,-187500.02235174447,1730653657.4457967,1730653657.0235674,2000
29851.492327629607,-99372.01134824888,17272.80226621655,-187500.02235174447,-187500.02235174447,-187500.02235174447,-187500.02235174447,-187500.02235174447,1730653657.4499247,1730653657.0235674,2000
29836.829583266925,-99361.03664172134,17294.32699612701,-187500.02235174447,-187500.02235174447,-187500.02235174447,-187500.02235174447,-187500.02235174447,1730653657.453894,1730653657.0235674,2000
29822.23389413761,-99338.32726935472,17284.671042522317,-187500.02235174447,-187500.02235174447,-187500.02235174447,-187500.02235174447,-187500.02235174447,1730653657.4577868,1730653657.0235674,2000
29853.81690905296,-99334.68393500852,17257.871300920404,-187500.02235174447,-187500.02235174447,-187500.02235174447,-187500.02235174447,-187500.02235174447,1730653657.4617383,1730653657.0235674,2000
29866.646810370305,-99336.8967577096,17261.805207944537,-187500.02235174447,-187500.02235174447,-187500.02235174447,-187500.02235174447,-187500.02235174447,1730653657.465835,1730653657.0235674,2000
29865.238650469622,-99366.51281911288,17275.32801334,-187500.02235174447,-187500.02235174447,-187500.02235174447,-187500.02235174447,-187500.02235174447,1730653657.4699173,1730653657.0235674,2000
29861.707074845683,-99364.16588594508,17282.748792499162,-187500.02235174447,-187500.02235174447,-187500.02235174447,-187500.02235174447,-187500.02235174447,1730653657.4738903,1730653657.0235674,2000
29853.16870846376,-99397.69350262804,17288.13556291289,-187500.02235174447,-187500.02235174447,-187500.02235174447,-187500.02235174447,-187500.02235174447,1730653657.4768417,1730653657.0235674,2000
29837.38837687831,-99369.57500810326,17293.81290600454,-187500.02235174447,-187500.02235174447,-187500.02235174447,-187500.02235174447,-187500.02235174447,1730653657.4809036,1730653657.0235674,2000
29820.71397551465,-99362.7577260444,17289.923702469314,-187500.02235174447,-187500.02235174447,-187500.02235174447,-187500.02235174447,-187500.02235174447,1730653657.4859085,1730653657.0235674,2000
29833.633283809817,-99358.62265332016,17295.288121138587,-187500.02235174447,-187500.02235174447,-187500.02235174447,-187500.02235174447,-187500.02235174447,1730653657.4898615,1730653657.0235674,2000
29847.84899328339,-99365.88697026814,17270.902367937848,-187500.02235174447,-187500.02235174447,-187500.02235174447,-187500.02235174447,-187500.02235174447,1730653657.4938655,1730653657.0235674,2000
29847.87134502785,-99364.8587900232,17265.56030101303,-187500.02235174447,-187500.02235174447,-187500.02235174447,-187500.02235174447,-187500.02235174447,1730653657.496827,1730653657.0235674,2000
29840.47291761314,-99358.77911553136,17278.010222674635,-187500.02235174447,-187500.02235174447,-187500.02235174447,-187500.02235174447,-187500.02235174447,1730653657.5009391,1730653657.0235674,2000
29840.27175191304,-99354.68874629604,17292.717670526228,-187500.02235174447,-187500.02235174447,-187500.02235174447,-187500.02235174447,-187500.02235174447,1730653657.5048273,1730653657.0235674,2000
29845.971446749147,-99359.71788879846,17274.053963906048,-187500.02235174447,-187500.02235174447,-187500.02235174447,-187500.02235174447,-187500.02235174447,1730653657.5089836,1730653657.0235674,2000
29843.982141492623,-99377.97926401846,17255.36790554141,-187500.02235174447,-187500.02235174447,-187500.02235174447,-187500.02235174447,-187500.02235174447,1730653657.513953,1730653657.0235674,2000
29855.985028265124,-99374.93942677251,17252.484530506674,-187500.02235174447,-187500.02235174447,-187500.02235174447,-187500.02235174447,-187500.02235174447,1730653657.5179305,1730653657.0235674,2000
29861.61766786786,-99368.68093832504,17249.243527560655,-187500.02235174447,-187500.02235174447,-187500.02235174447,-187500.02235174447,-187500.02235174447,1730653657.521892,1730653657.0235674,2000
29856.85674629888,-99403.34849397522,17246.02487635909,-187500.02235174447,-187500.02235174447,-187500.02235174447,-187500.02235174447,-187500.02235174447,1730653657.5249715,1730653657.0235674,2000
29835.488478599607,-99359.6508335651,17296.405708361355,-187500.02235174447,-187500.02235174447,-187500.02235174447,-187500.02235174447,-187500.02235174447,1730653657.529074,1730653657.0235674,2000
29822.323301115437,-99354.86756025167,17287.889693723882,-187500.02235174447,-187500.02235174447,-187500.02235174447,-187500.02235174447,-187500.02235174447,1730653657.5330148,1730653657.0235674,2000
29834.50500184357,-99360.92488299904,17270.32122258201,-187500.02235174447,-187500.02235174447,-187500.02235174447,-187500.02235174447,-187500.02235174447,1730653657.537053,1730653657.0235674,2000
29844.20565893718,-99385.13182224416,17279.150161641857,-187500.02235174447,-187500.02235174447,-187500.02235174447,-187500.02235174447,-187500.02235174447,1730653657.5420194,1730653657.0235674,2000
29845.92674326024,-99394.0501682818,17281.720612254216,-187500.02235174447,-187500.02235174447,-187500.02235174447,-187500.02235174447,-187500.02235174447,1730653657.5460594,1730653657.0235674,2000
29849.10069097289,-99366.84809527973,17278.256091863645,-187500.02235174447,-187500.02235174447,-187500.02235174447,-187500.02235174447,-187500.02235174447,1730653657.5500464,1730653657.0235674,2000
29839.48944085711,-99365.08230746776,17277.004394174146,-187500.02235174447,-187500.02235174447,-187500.02235174447,-187500.02235174447,-187500.02235174447,1730653657.552951,1730653657.0235674,2000
29859.941287033715,-99389.73628160194,17275.149199384356,-187500.02235174447,-187500.02235174447,-187500.02235174447,-187500.02235174447,-187500.02235174447,1730653657.5570054,1730653657.0235674,2000
29864.277525458045,-99374.1571157166,17278.74783024166,-187500.02235174447,-187500.02235174447,-187500.02235174447,-187500.02235174447,-187500.02235174447,1730653657.561028,1730653657.0235674,2000
29858.980162022137,-99360.14257194311,17268.354269069943,-187500.02235174447,-187500.02235174447,-187500.02235174447,-187500.02235174447,-187500.02235174447,1730653657.5650332,1730653657.0235674,2000
29837.07545245593,-99354.33111838474,17259.21240558772,-187500.02235174447,-187500.02235174447,-187500.02235174447,-187500.02235174447,-187500.02235174447,1730653657.56996,1730653657.0235674,2000
29885.578737923952,-99350.35250787168,17273.785742972585,-187500.02235174447,-187500.02235174447,-187500.02235174447,-187500.02235174447,-187500.02235174447,1730653657.574159,1730653657.0235674,2000
29926.16950585479,-99358.84617076472,17284.46987682222,-187500.02235174447,-187500.02235174447,-187500.02235174447,-187500.02235174447,-187500.02235174447,1730653657.577092,1730653657.0235674,2000
29867.987915037625,-99372.65954883808,17290.46014433624,-187500.02235174447,-187500.02235174447,-187500.02235174447,-187500.02235174447,-187500.02235174447,1730653657.5809925,1730653657.0235674,2000
29812.734402744103,-99363.31651965575,17280.446562820263,-187500.02235174447,-187500.02235174447,-187500.02235174447,-187500.02235174447,-187500.02235174447,1730653657.5851004,1730653657.0235674,2000
29823.84321973839,-99369.61971159215,17269.89653943736,-187500.02235174447,-187500.02235174447,-187500.02235174447,-187500.02235174447,-187500.02235174447,1730653657.589022,1730653657.0235674,2000
29869.10550226039,-99367.33983365772,17281.340632598476,-187500.02235174447,-187500.02235174447,-187500.02235174447,-187500.02235174447,-187500.02235174447,1730653657.593042,1730653657.0235674,2000
29903.504836977107,-99382.94135128752,17277.94316744127,-187500.02235174447,-187500.02235174447,-187500.02235174447,-187500.02235174447,-187500.02235174447,1730653657.598137,1730653657.0235674,2000
29901.56023520949,-99400.64393289614,17276.199731373756,-187500.02235174447,-187500.02235174447,-187500.02235174447,-187500.02235174447,-187500.02235174447,1730653657.602241,1730653657.0235674,2000
29819.305815613967,-99401.58270616326,17267.571958014007,-187500.02235174447,-187500.02235174447,-187500.02235174447,-187500.02235174447,-187500.02235174447,1730653657.605039,1730653657.0235674,2000
29821.09395517039,-99435.69146820206,17248.41651301581,-187500.02235174447,-187500.02235174447,-187500.02235174447,-187500.02235174447,-187500.02235174447,1730653657.609182,1730653657.0235674,2000
29847.647827583296,-99383.43308966554,17241.867451890404,-187500.02235174447,-187500.02235174447,-187500.02235174447,-187500.02235174447,-187500.02235174447,1730653657.6130388,1730653657.0235674,2000
29883.589432667428,-99400.62158115167,17291.845952492473,-187500.02235174447,-187500.02235174447,-187500.02235174447,-187500.02235174447,-187500.02235174447,1730653657.617148,1730653657.0235674,2000
29802.676117739215,-99410.41164522312,17291.95771121475,-187500.02235174447,-187500.02235174447,-187500.02235174447,-187500.02235174447,-187500.02235174447,1730653657.6210804,1730653657.0235674,2000
29766.958030099635,-99382.94135128752,17258.094818364956,-187500.02235174447,-187500.02235174447,-187500.02235174447,-187500.02235174447,-187500.02235174447,1730653657.6251657,1730653657.0235674,2000
29844.943266504204,-99370.06674648129,17283.88873146638,-187500.02235174447,-187500.02235174447,-187500.02235174447,-187500.02235174447,-187500.02235174447,1730653657.630074,1730653657.0235674,2000
29837.902467000786,-99381.64495010913,17282.83819947698,-187500.02235174447,-187500.02235174447,-187500.02235174447,-187500.02235174447,-187500.02235174447,1730653657.6331043,1730653657.0235674,2000
29845.703225815683,-99378.71687158548,17286.392126845378,-187500.02235174447,-187500.02235174447,-187500.02235174447,-187500.02235174447,-187500.02235174447,1730653657.637156,1730653657.0235674,2000
29848.541897361505,-99410.14342428964,17286.41447858983,-187500.02235174447,-187500.02235174447,-187500.02235174447,-187500.02235174447,-187500.02235174447,1730653657.6411772,1730653657.0235674,2000
29862.332923690432,-99408.62350566668,17279.507789553143,-187500.02235174447,-187500.02235174447,-187500.02235174447,-187500.02235174447,-187500.02235174447,1730653657.6453753,1730653657.0235674,2000
29869.172557493755,-99385.13182224416,17304.51939159863,-187500.02235174447,-187500.02235174447,-187500.02235174447,-187500.02235174447,-187500.02235174447,1730653657.6492815,1730653657.0235674,2000
29862.1988132237,-99371.2513889374,17317.99749350518,-187500.02235174447,-187500.02235174447,-187500.02235174447,-187500.02235174447,-187500.02235174447,1730653657.6530888,1730653657.0235674,2000
29856.40971140977,-99384.39421467712,17285.028670433603,-187500.02235174447,-187500.02235174447,-187500.02235174447,-187500.02235174447,-187500.02235174447,1730653657.6583114,1730653657.0235674,2000
29873.57585115145,-99382.8072408208,17265.761466713127,-187500.02235174447,-187500.02235174447,-187500.02235174447,-187500.02235174447,-187500.02235174447,1730653657.661202,1730653657.0235674,2000
29876.1015982749,-99399.8169183513,17282.90525471035,-187500.02235174447,-187500.02235174447,-187500.02235174447,-187500.02235174447,-187500.02235174447,1730653657.664101,1730653657.0235674,2000
29868.881984815835,-99381.30967394228,17313.773013803126,-187500.02235174447,-187500.02235174447,-187500.02235174447,-187500.02235174447,-187500.02235174447,1730653657.669272,1730653657.0235674,2000
29859.06956899996,-99367.0045574909,17320.23266795071,-187500.02235174447,-187500.02235174447,-187500.02235174447,-187500.02235174447,-187500.02235174447,1730653657.6731265,1730653657.0235674,2000
29836.695472800195,-99442.88872991668,17293.164705415333,-187500.02235174447,-187500.02235174447,-187500.02235174447,-187500.02235174447,-187500.02235174447,1730653657.6772544,1730653657.0235674,2000
29858.264906199565,-99457.39501206815,17261.33582131098,-187500.02235174447,-187500.02235174447,-187500.02235174447,-187500.02235174447,-187500.02235174447,1730653657.6812656,1730653657.0235674,2000
29884.72937163465,-99408.53409868886,17251.299888050544,-187500.02235174447,-187500.02235174447,-187500.02235174447,-187500.02235174447,-187500.02235174447,1730653657.685187,1730653657.0235674,2000
29899.593281697427,-99387.23288622296,17280.267748864622,-187500.02235174447,-187500.02235174447,-187500.02235174447,-187500.02235174447,-187500.02235174447,1730653657.6884377,1730653657.0235674,2000
29878.560290164984,-99390.94327580254,17295.46693509423,-187500.02235174447,-187500.02235174447,-187500.02235174447,-187500.02235174447,-187500.02235174447,1730653657.692249,1730653657.0235674,2000
29856.923801532248,-99406.74595913244,17294.349347871466,-187500.02235174447,-187500.02235174447,-187500.02235174447,-187500.02235174447,-187500.02235174447,1730653657.6972246,1730653657.0235674,2000
29866.78092083704,-99384.59538037724,17271.528216782597,-187500.02235174447,-187500.02235174447,-187500.02235174447,-187500.02235174447,-187500.02235174447,1730653657.7013454,1730653657.0235674,2000
29845.792632793506,-99393.53607815936,17294.908141482847,-187500.02235174447,-187500.02235174447,-187500.02235174447,-187500.02235174447,-187500.02235174447,1730653657.7051651,1730653657.0235674,2000
29855.314475931464,-99411.21630802347,17300.026690963114,-187500.02235174447,-187500.02235174447,-187500.02235174447,-187500.02235174447,-187500.02235174447,1730653657.7092683,1730653657.0235674,2000
29847.021978738547,-99442.48639851648,17271.863492949426,-187500.02235174447,-187500.02235174447,-187500.02235174447,-187500.02235174447,-187500.02235174447,1730653657.7122865,1730653657.0235674,2000
29866.266830714565,-99424.18031980758,17290.214275147235,-187500.02235174447,-187500.02235174447,-187500.02235174447,-187500.02235174447,-187500.02235174447,1730653657.7162385,1730653657.0235674,2000
29901.33671776494,-99398.63227589516,17302.2842171531,-187500.02235174447,-187500.02235174447,-187500.02235174447,-187500.02235174447,-187500.02235174447,1730653657.7202084,1730653657.0235674,2000
29883.36591522288,-99424.18031980758,17319.76328131715,-187500.02235174447,-187500.02235174447,-187500.02235174447,-187500.02235174447,-187500.02235174447,1730653657.7243848,1730653657.0235674,2000
29825.005510450068,-99429.88001464368,17288.80611524655,-187500.02235174447,-187500.02235174447,-187500.02235174447,-187500.02235174447,-187500.02235174447,1730653657.7292964,1730653657.0235674,2000
29865.75274059209,-99413.67499991358,17268.71189698123,-187500.02235174447,-187500.02235174447,-187500.02235174447,-187500.02235174447,-187500.02235174447,1730653657.733358,1730653657.0235674,2000
29877.62151689786,-99402.54383117484,17261.045248633058,-187500.02235174447,-187500.02235174447,-187500.02235174447,-187500.02235174447,-187500.02235174447,1730653657.737564,1730653657.0235674,2000
29882.8518251004,-99422.54864246234,17277.071449407515,-187500.02235174447,-187500.02235174447,-187500.02235174447,-187500.02235174447,-187500.02235174447,1730653657.7404652,1730653657.0235674,2000
29898.38628749684,-99398.92284857309,17295.913969983336,-187500.02235174447,-187500.02235174447,-187500.02235174447,-187500.02235174447,-187500.02235174447,1730653657.7444472,1730653657.0235674,2000
29904.53301722205,-99414.45731096952,17308.050967222567,-187500.02235174447,-187500.02235174447,-187500.02235174447,-187500.02235174447,-187500.02235174447,1730653657.7483032,1730653657.0235674,2000
29877.129778519844,-99473.48826807598,17299.04321420708,-187500.02235174447,-187500.02235174447,-187500.02235174447,-187500.02235174447,-187500.02235174447,1730653657.7532873,1730653657.0235674,2000
29828.045347695992,-99440.98883163797,17278.926644197305,-187500.02235174447,-187500.02235174447,-187500.02235174447,-187500.02235174447,-187500.02235174447,1730653657.758387,1730653657.0235674,2000
29851.849955540893,-99420.38052325018,17273.718687739216,-187500.02235174447,-187500.02235174447,-187500.02235174447,-187500.02235174447,-187500.02235174447,1730653657.7615883,1730653657.0235674,2000
29859.33778993342,-99400.08513928475,17277.205559874244,-187500.02235174447,-187500.02235174447,-187500.02235174447,-187500.02235174447,-187500.02235174447,1730653657.7654798,1730653657.0235674,2000
29857.080263743435,-99410.65751441212,17303.17828693131,-187500.02235174447,-187500.02235174447,-187500.02235174447,-187500.02235174447,-187500.02235174447,1730653657.7684166,1730653657.0235674,2000
29872.279449973044,-99429.20946231,17304.47468810972,-187500.02235174447,-187500.02235174447,-187500.02235174447,-187500.02235174447,-187500.02235174447,1730653657.7723196,1730653657.0235674,2000
29860.43302541173,-99418.79354939384,17296.67392929482,-187500.02235174447,-187500.02235174447,-187500.02235174447,-187500.02235174447,-187500.02235174447,1730653657.7763977,1730653657.0235674,2000
29864.188118480222,-99430.50586348843,17292.494153081676,-187500.02235174447,-187500.02235174447,-187500.02235174447,-187500.02235174447,-187500.02235174447,1730653657.7802956,1730653657.0235674,2000
29882.896528589317,-99410.09872080071,17292.114173425936,-187500.02235174447,-187500.02235174447,-187500.02235174447,-187500.02235174447,-187500.02235174447,1730653657.7854023,1730653657.0235674,2000
29887.277470502555,-99394.96658980448,17281.787667487584,-187500.02235174447,-187500.02235174447,-187500.02235174447,-187500.02235174447,-187500.02235174447,1730653657.78943,1730653657.0235674,2000
29888.59622342542,-99380.460307653,17287.62147279042,-187500.02235174447,-187500.02235174447,-187500.02235174447,-187500.02235174447,-187500.02235174447,1730653657.7924304,1730653657.0235674,2000
29886.316345490977,-99378.91803728558,17294.61756880493,-187500.02235174447,-187500.02235174447,-187500.02235174447,-187500.02235174447,-187500.02235174447,1730653657.796324,1730653657.0235674,2000
29868.23378422663,-99391.88204906964,17291.93535947029,-187500.02235174447,-187500.02235174447,-187500.02235174447,-187500.02235174447,-187500.02235174447,1730653657.8005035,1730653657.0235674,2000
29868.77022609356,-99410.79162487884,17290.88482748089,-187500.02235174447,-187500.02235174447,-187500.02235174447,-187500.02235174447,-187500.02235174447,1730653657.804361,1730653657.0235674,2000
29869.55253714949,-99435.84793041323,17292.449449592765,-187500.02235174447,-187500.02235174447,-187500.02235174447,-187500.02235174447,-187500.02235174447,1730653657.8084493,1730653657.0235674,2000
29859.404845166788,-99400.08513928475,17288.917873968825,-187500.02235174447,-187500.02235174447,-187500.02235174447,-187500.02235174447,-187500.02235174447,1730653657.8124804,1730653657.0235674,2000
29875.87808083035,-99395.43597643804,17286.36977510092,-187500.02235174447,-187500.02235174447,-187500.02235174447,-187500.02235174447,-187500.02235174447,1730653657.817621,1730653657.0235674,2000
29880.34842972141,-99433.94803213456,17285.073373922514,-187500.02235174447,-187500.02235174447,-187500.02235174447,-187500.02235174447,-187500.02235174447,1730653657.820369,1730653657.0235674,2000
29860.12010098936,-99430.59527046623,17276.870283707416,-187500.02235174447,-187500.02235174447,-187500.02235174447,-187500.02235174447,-187500.02235174447,1730653657.8243756,1730653657.0235674,2000
29849.86065028437,-99410.99279057894,17282.03353667659,-187500.02235174447,-187500.02235174447,-187500.02235174447,-187500.02235174447,-187500.02235174447,1730653657.8284135,1730653657.0235674,2000
29872.659429628784,-99434.75269493494,17294.841086249482,-187500.02235174447,-187500.02235174447,-187500.02235174447,-187500.02235174447,-187500.02235174447,1730653657.8325956,1730653657.0235674,2000
29860.14245273381,-99405.33779923175,17287.353251856955,-187500.02235174447,-187500.02235174447,-187500.02235174447,-187500.02235174447,-187500.02235174447,1730653657.8366203,1730653657.0235674,2000
29856.76733932106,-99390.87622056916,17275.640937762375,-187500.02235174447,-187500.02235174447,-187500.02235174447,-187500.02235174447,-187500.02235174447,1730653657.8415456,1730653657.0235674,2000
29874.51462441857,-99423.73328491847,17288.873170479914,-187500.02235174447,-187500.02235174447,-187500.02235174447,-187500.02235174447,-187500.02235174447,1730653657.845631,1730653657.0235674,2000
29878.426179698254,-99460.59131152526,17302.61949331993,-187500.02235174447,-187500.02235174447,-187500.02235174447,-187500.02235174447,-187500.02235174447,1730653657.8485308,1730653657.0235674,2000
29853.794557308505,-99421.78868315084,17280.580673286997,-187500.02235174447,-187500.02235174447,-187500.02235174447,-187500.02235174447,-187500.02235174447,1730653657.8523948,1730653657.0235674,2000
29847.29019967201,-99420.469930228,17283.352289599454,-187500.02235174447,-187500.02235174447,-187500.02235174447,-187500.02235174447,-187500.02235174447,1730653657.8565216,1730653657.0235674,2000
29871.29597321701,-99421.07342732829,17301.837182263993,-187500.02235174447,-187500.02235174447,-187500.02235174447,-187500.02235174447,-187500.02235174447,1730653657.8605683,1730653657.0235674,2000
29864.121063246857,-99403.68377014206,17297.210371161746,-187500.02235174447,-187500.02235174447,-187500.02235174447,-187500.02235174447,-187500.02235174447,1730653657.864699,1730653657.0235674,2000
29866.065665014467,-99400.7109881295,17288.537894313085,-187500.02235174447,-187500.02235174447,-187500.02235174447,-187500.02235174447,-187500.02235174447,1730653657.868687,1730653657.0235674,2000
29868.65846737128,-99389.82568857976,17286.079202423003,-187500.02235174447,-187500.02235174447,-187500.02235174447,-187500.02235174447,-187500.02235174447,1730653657.8736453,1730653657.0235674,2000
29871.63124938384,-99398.38640670617,17294.058775193545,-187500.02235174447,-187500.02235174447,-187500.02235174447,-187500.02235174447,-187500.02235174447,1730653657.8767931,1730653657.0235674,2000
29866.423292925752,-99399.77221486236,17283.352289599454,-187500.02235174447,-187500.02235174447,-187500.02235174447,-187500.02235174447,-187500.02235174447,1730653657.8804996,1730653657.0235674,2000
29872.72648486215,-99418.88295637169,17283.66521402183,-187500.02235174447,-187500.02235174447,-187500.02235174447,-187500.02235174447,-187500.02235174447,1730653657.88488,1730653657.0235674,2000
29867.27265921505,-99438.6195467257,17281.51944655412,-187500.02235174447,-187500.02235174447,-187500.02235174447,-187500.02235174447,-187500.02235174447,1730653657.8884692,1730653657.0235674,2000
29869.28431621603,-99457.50677079044,17286.57094080102,-187500.02235174447,-187500.02235174447,-187500.02235174447,-187500.02235174447,-187500.02235174447,1730653657.8925564,1730653657.0235674,2000
29871.92182206176,-99438.1725118366,17301.85953400845,-187500.02235174447,-187500.02235174447,-187500.02235174447,-187500.02235174447,-187500.02235174447,1730653657.8975344,1730653657.0235674,2000
29868.569060393464,-99426.95193612004,17304.318225898533,-187500.02235174447,-187500.02235174447,-187500.02235174447,-187500.02235174447,-187500.02235174447,1730653657.9006016,1730653657.0235674,2000
29866.602106881397,-99443.38046829468,17289.27550188011,-187500.02235174447,-187500.02235174447,-187500.02235174447,-187500.02235174447,-187500.02235174447,1730653657.90359,1730653657.0235674,2000
29869.731351105136,-99441.18999733806,17279.99952793116,-187500.02235174447,-187500.02235174447,-187500.02235174447,-187500.02235174447,-187500.02235174447,1730653657.9085193,1730653657.0235674,2000
29875.900432574803,-99419.88878487216,17290.70601352525,-187500.02235174447,-187500.02235174447,-187500.02235174447,-187500.02235174447,-187500.02235174447,1730653657.9125187,1730653657.0235674,2000
29861.66237135677,-99439.64772697064,17293.56703681553,-187500.02235174447,-187500.02235174447,-187500.02235174447,-187500.02235174447,-187500.02235174447,1730653657.9166212,1730653657.0235674,2000
29864.47869115814,-99458.0208609129,17287.979100701705,-187500.02235174447,-187500.02235174447,-187500.02235174447,-187500.02235174447,-187500.02235174447,1730653657.9207556,1730653657.0235674,2000
29862.57879287944,-99488.44158511658,17273.18224587229,-187500.02235174447,-187500.02235174447,-187500.02235174447,-187500.02235174447,-187500.02235174447,1730653657.9256876,1730653657.0235674,2000
29855.09095848691,-99458.28908184638,17275.953862184746,-187500.02235174447,-187500.02235174447,-187500.02235174447,-187500.02235174447,-187500.02235174447,1730653657.9286797,1730653657.0235674,2000
29863.42815916874,-99451.6729654876,17289.588426302485,-187500.02235174447,-187500.02235174447,-187500.02235174447,-187500.02235174447,-187500.02235174447,1730653657.931585,1730653657.0235674,2000
29872.59237439541,-99438.86541591473,17285.81098148954,-187500.02235174447,-187500.02235174447,-187500.02235174447,-187500.02235174447,-187500.02235174447,1730653657.9367392,1730653657.0235674,2000
29878.381476209343,-99438.53013974788,17292.628263548406,-187500.02235174447,-187500.02235174447,-187500.02235174447,-187500.02235174447,-187500.02235174447,1730653657.9407084,1730653657.0235674,2000
29868.81492958247,-99427.37661926469,17282.927606454803,-187500.02235174447,-187500.02235174447,-187500.02235174447,-187500.02235174447,-187500.02235174447,1730653657.9447384,1730653657.0235674,2000
29862.62349636835,-99426.50490123092,17284.626339033406,-187500.02235174447,-187500.02235174447,-187500.02235174447,-187500.02235174447,-187500.02235174447,1730653657.948729,1730653657.0235674,2000
29871.96652555067,-99420.3134680168,17281.452391320752,-187500.02235174447,-187500.02235174447,-187500.02235174447,-187500.02235174447,-187500.02235174447,1730653657.9527202,1730653657.0235674,2000
29865.52922314754,-99414.07733131378,17286.12390591191,-187500.02235174447,-187500.02235174447,-187500.02235174447,-187500.02235174447,-187500.02235174447,1730653657.956739,1730653657.0235674,2000
29871.407731939285,-99426.92958437558,17283.50875181064,-187500.02235174447,-187500.02235174447,-187500.02235174447,-187500.02235174447,-187500.02235174447,1730653657.9596856,1730653657.0235674,2000
29860.880060300835,-99476.37164311072,17281.251225620654,-187500.02235174447,-187500.02235174447,-187500.02235174447,-187500.02235174447,-187500.02235174447,1730653657.9646516,1730653657.0235674,2000
29864.47869115814,-99486.09465194878,17284.648690777864,-187500.02235174447,-187500.02235174447,-187500.02235174447,-187500.02235174447,-187500.02235174447,1730653657.9688072,1730653657.0235674,2000
29870.021923783057,-99394.1172235152,17290.393089102876,-187500.02235174447,-187500.02235174447,-187500.02235174447,-187500.02235174447,-187500.02235174447,1730653657.9728796,1730653657.0235674,2000
29867.76439759307,-99414.61377318072,17293.94701647127,-187500.02235174447,-187500.02235174447,-187500.02235174447,-187500.02235174447,-187500.02235174447,1730653657.9768214,1730653657.0235674,2000
29871.4524354282,-99407.39415972165,17281.0277081761,-187500.02235174447,-187500.02235174447,-187500.02235174447,-187500.02235174447,-187500.02235174447,1730653657.9796336,1730653657.0235674,2000
29872.279449973044,-99401.89563058564,17271.17058887131,-187500.02235174447,-187500.02235174447,-187500.02235174447,-187500.02235174447,-187500.02235174447,1730653657.9838865,1730653657.0235674,2000
29867.317362703965,-99443.15695085013,17278.70312675275,-187500.02235174447,-187500.02235174447,-187500.02235174447,-187500.02235174447,-187500.02235174447,1730653657.9876275,1730653657.0235674,2000
29882.069514044462,-99475.25405588796,17287.867341979425,-187500.02235174447,-187500.02235174447,-187500.02235174447,-187500.02235174447,-187500.02235174447,1730653657.9919012,1730653657.0235674,2000
29877.800330853504,-99449.54954976434,17287.286196623587,-187500.02235174447,-187500.02235174447,-187500.02235174447,-187500.02235174447,-187500.02235174447,1730653657.9967482,1730653657.0235674,2000
29854.8450892979,-99446.24149158497,17290.549551314063,-187500.02235174447,-187500.02235174447,-187500.02235174447,-187500.02235174447,-187500.02235174447,1730653658.0018084,1730653657.0235674,2000
29855.11331023137,-99463.966424938,17281.698260509762,-187500.02235174447,-187500.02235174447,-187500.02235174447,-187500.02235174447,-187500.02235174447,1730653658.0058916,1730653657.0235674,2000
29861.3494469344,-99446.95674740752,17266.387315557877,-187500.02235174447,-187500.02235174447,-187500.02235174447,-187500.02235174447,-187500.02235174447,1730653658.008911,1730653657.0235674,2000
29855.47093814265,-99449.95188116454,17272.668155749816,-187500.02235174447,-187500.02235174447,-187500.02235174447,-187500.02235174447,-187500.02235174447,1730653658.011901,1730653657.0235674,2000
29857.929630032737,-99468.34736685126,17288.694356524273,-187500.02235174447,-187500.02235174447,-187500.02235174447,-187500.02235174447,-187500.02235174447,1730653658.0158894,1730653657.0235674,2000
29850.82177529595,-99450.06363988682,17295.332824627498,-187500.02235174447,-187500.02235174447,-187500.02235174447,-187500.02235174447,-187500.02235174447,1730653658.0197356,1730653657.0235674,2000
29856.879098043337,-99431.98107862248,17273.673984250305,-187500.02235174447,-187500.02235174447,-187500.02235174447,-187500.02235174447,-187500.02235174447,1730653658.0249064,1730653657.0235674,2000
29872.9500023067,-99441.70408746052,17271.885844693883,-187500.02235174447,-187500.02235174447,-187500.02235174447,-187500.02235174447,-187500.02235174447,1730653658.0289345,1730653657.0235674,2000
29865.50687140309,-99440.7653141934,17271.774085971607,-187500.02235174447,-187500.02235174447,-187500.02235174447,-187500.02235174447,-187500.02235174447,1730653658.0329154,1730653657.0235674,2000
29874.0005342961,-99443.96161365052,17270.723553982207,-187500.02235174447,-187500.02235174447,-187500.02235174447,-187500.02235174447,-187500.02235174447,1730653658.0358272,1730653657.0235674,2000
29873.844072084918,-99439.78183743736,17283.821676233016,-187500.02235174447,-187500.02235174447,-187500.02235174447,-187500.02235174447,-187500.02235174447,1730653658.039864,1730653657.0235674,2000
29870.737179605625,-99494.14127995267,17288.627301290908,-187500.02235174447,-187500.02235174447,-187500.02235174447,-187500.02235174447,-187500.02235174447,1730653658.0437653,1730653657.0235674,2000
29855.42623465374,-99448.6778317306,17274.635109261886,-187500.02235174447,-187500.02235174447,-187500.02235174447,-187500.02235174447,-187500.02235174447,1730653658.0480213,1730653657.0235674,2000
29862.556441134984,-99447.6272997412,17273.718687739216,-187500.02235174447,-187500.02235174447,-187500.02235174447,-187500.02235174447,-187500.02235174447,1730653658.0530255,1730653657.0235674,2000
29862.22116496816,-99452.9246631771,17272.869321449914,-187500.02235174447,-187500.02235174447,-187500.02235174447,-187500.02235174447,-187500.02235174447,1730653658.0568044,1730653657.0235674,2000
29862.31057194597,-99431.33287803328,17273.830446461492,-187500.02235174447,-187500.02235174447,-187500.02235174447,-187500.02235174447,-187500.02235174447,1730653658.0600665,1730653657.0235674,2000
29865.95390629219,-99444.0733723728,17280.60302503145,-187500.02235174447,-187500.02235174447,-187500.02235174447,-187500.02235174447,-187500.02235174447,1730653658.063903,1730653657.0235674,2000
29864.52339464705,-99429.34357277676,17274.009260417137,-187500.02235174447,-187500.02235174447,-187500.02235174447,-187500.02235174447,-187500.02235174447,1730653658.0678985,1730653657.0235674,2000
29864.121063246857,-99433.05396235634,17262.878091678394,-187500.02235174447,-187500.02235174447,-187500.02235174447,-187500.02235174447,-187500.02235174447,1730653658.0717847,1730653657.0235674,2000
29868.65846737128,-99428.6283169542,17270.500036537655,-187500.02235174447,-187500.02235174447,-187500.02235174447,-187500.02235174447,-187500.02235174447,1730653658.0759313,1730653657.0235674,2000
29873.77701685155,-99426.95193612004,17277.89846395236,-187500.02235174447,-187500.02235174447,-187500.02235174447,-187500.02235174447,-187500.02235174447,1730653658.081838,1730653657.0235674,2000
29879.208490754187,-99436.38437228015,17275.395068573365,-187500.02235174447,-187500.02235174447,-187500.02235174447,-187500.02235174447,-187500.02235174447,1730653658.085,1730653657.0235674,2000
29876.61568839737,-99511.46388190555,17271.215292360223,-187500.02235174447,-187500.02235174447,-187500.02235174447,-187500.02235174447,-187500.02235174447,1730653658.0889492,1730653657.0235674,2000
29857.48259514363,-99467.25213137297,17269.963594670724,-187500.02235174447,-187500.02235174447,-187500.02235174447,-187500.02235174447,-187500.02235174447,1730653658.0918436,1730653657.0235674,2000
29858.15314747729,-99444.20748283953,17277.719649996718,-187500.02235174447,-187500.02235174447,-187500.02235174447,-187500.02235174447,-187500.02235174447,1730653658.0958405,1730653657.0235674,2000
29867.093845259413,-99451.11417187622,17270.812960960026,-187500.02235174447,-187500.02235174447,-187500.02235174447,-187500.02235174447,-187500.02235174447,1730653658.0998707,1730653657.0235674,2000
29865.3504091919,-99433.38923852316,17272.98108017219,-187500.02235174447,-187500.02235174447,-187500.02235174447,-187500.02235174447,-187500.02235174447,1730653658.1039104,1730653657.0235674,2000
29871.608897639384,-99438.12780834768,17276.624414518406,-187500.02235174447,-187500.02235174447,-187500.02235174447,-187500.02235174447,-187500.02235174447,1730653658.1078413,1730653657.0235674,2000
29877.55446166449,-99444.27453807287,17278.770181986118,-187500.02235174447,-187500.02235174447,-187500.02235174447,-187500.02235174447,-187500.02235174447,1730653658.1128197,1730653657.0235674,2000
29865.39511268081,-99467.0286139284,17277.451429063254,-187500.02235174447,-187500.02235174447,-187500.02235174447,-187500.02235174447,-187500.02235174447,1730653658.115802,1730653657.0235674,2000
29868.926688304746,-99419.35234300524,17278.32314709701,-187500.02235174447,-187500.02235174447,-187500.02235174447,-187500.02235174447,-187500.02235174447,1730653658.119964,1730653657.0235674,2000
29872.59237439541,-99408.0647120553,17281.94412969877,-187500.02235174447,-187500.02235174447,-187500.02235174447,-187500.02235174447,-187500.02235174447,1730653658.124002,1730653657.0235674,2000
29870.267792972067,-99424.4708924855,17276.289138351578,-187500.02235174447,-187500.02235174447,-187500.02235174447,-187500.02235174447,-187500.02235174447,1730653658.1279187,1730653657.0235674,2000
29866.110368503378,-99476.23753264398,17273.115190638924,-187500.02235174447,-187500.02235174447,-187500.02235174447,-187500.02235174447,-187500.02235174447,1730653658.1319027,1730653657.0235674,2000
29852.900487530293,-99520.96337329903,17260.575861999496,-187500.02235174447,-187500.02235174447,-187500.02235174447,-187500.02235174447,-187500.02235174447,1730653658.1359377,1730653657.0235674,2000
29860.790653323016,-99442.77697119438,17256.41843753081,-187500.02235174447,-187500.02235174447,-187500.02235174447,-187500.02235174447,-187500.02235174447,1730653658.1401277,1730653657.0235674,2000
29869.217260982667,-99427.48837798696,17282.167647143324,-187500.02235174447,-187500.02235174447,-187500.02235174447,-187500.02235174447,-187500.02235174447,1730653658.1431248,1730653657.0235674,2000
29856.588525365416,-99421.22988953948,17285.587464044984,-187500.02235174447,-187500.02235174447,-187500.02235174447,-187500.02235174447,-187500.02235174447,1730653658.1479847,1730653657.0235674,2000
29863.316400446463,-99405.78483412086,17278.077277908003,-187500.02235174447,-187500.02235174447,-187500.02235174447,-187500.02235174447,-187500.02235174447,1730653658.1520286,1730653657.0235674,2000
29862.556441134984,-99427.93541287606,17282.726440754705,-187500.02235174447,-187500.02235174447,-187500.02235174447,-187500.02235174447,-187500.02235174447,1730653658.1559885,1730653657.0235674,2000
29862.48938590162,-99439.20069208156,17275.28330985109,-187500.02235174447,-187500.02235174447,-187500.02235174447,-187500.02235174447,-187500.02235174447,1730653658.1600623,1730653657.0235674,2000
29864.277525458045,-99442.32993630528,17288.023804190612,-187500.02235174447,-187500.02235174447,-187500.02235174447,-187500.02235174447,-187500.02235174447,1730653658.1660273,1730653657.0235674,2000
29867.80910108198,-99439.714782204,17269.538911526073,-187500.02235174447,-187500.02235174447,-187500.02235174447,-187500.02235174447,-187500.02235174447,1730653658.1690185,1730653657.0235674,2000
29866.51269990357,-99455.74098297847,17266.45437079124,-187500.02235174447,-187500.02235174447,-187500.02235174447,-187500.02235174447,-187500.02235174447,1730653658.1719716,1730653657.0235674,2000
29866.646810370305,-99423.04038084036,17275.305661595543,-187500.02235174447,-187500.02235174447,-187500.02235174447,-187500.02235174447,-187500.02235174447,1730653658.1760445,1730653657.0235674,2000
29873.039409284524,-99405.78483412086,17260.821731188506,-187500.02235174447,-187500.02235174447,-187500.02235174447,-187500.02235174447,-187500.02235174447,1730653658.1799617,1730653657.0235674,2000
29880.884871588336,-99391.703235114,17258.89948116535,-187500.02235174447,-187500.02235174447,-187500.02235174447,-187500.02235174447,-187500.02235174447,1730653658.1840377,1730653657.0235674,2000
29876.302763975,-99448.54372126386,17277.31731859652,-187500.02235174447,-187500.02235174447,-187500.02235174447,-187500.02235174447,-187500.02235174447,1730653658.187973,1730653657.0235674,2000
29869.1502057493,-99498.1422422102,17276.177379629302,-187500.02235174447,-187500.02235174447,-187500.02235174447,-187500.02235174447,-187500.02235174447,1730653658.1920755,1730653657.0235674,2000
29859.27073470005,-99443.78279969488,17269.33774582598,-187500.02235174447,-187500.02235174447,-187500.02235174447,-187500.02235174447,-187500.02235174447,1730653658.1959536,1730653657.0235674,2000
29865.32805744744,-99441.83819792728,17268.75660047014,-187500.02235174447,-187500.02235174447,-187500.02235174447,-187500.02235174447,-187500.02235174447,1730653658.1990905,1730653657.0235674,2000
29871.988877295124,-99450.55537826483,17268.26486209212,-187500.02235174447,-187500.02235174447,-187500.02235174447,-187500.02235174447,-187500.02235174447,1730653658.2030263,1730653657.0235674,2000
29875.922784319257,-99458.7808202244,17276.51265579613,-187500.02235174447,-187500.02235174447,-187500.02235174447,-187500.02235174447,-187500.02235174447,1730653658.208027,1730653657.0235674,2000
29878.001496553603,-99441.10059036023,17265.18032135729,-187500.02235174447,-187500.02235174447,-187500.02235174447,-187500.02235174447,-187500.02235174447,1730653658.2120235,1730653657.0235674,2000
29878.24736574261,-99433.1657210786,17262.341649811468,-187500.02235174447,-187500.02235174447,-187500.02235174447,-187500.02235174447,-187500.02235174447,1730653658.2159927,1730653657.0235674,2000
29872.234746484133,-99459.0266894134,17283.620510532917,-187500.02235174447,-187500.02235174447,-187500.02235174447,-187500.02235174447,-187500.02235174447,1730653658.220088,1730653657.0235674,2000
29862.06470275697,-99438.03840136986,17268.600138258953,-187500.02235174447,-187500.02235174447,-187500.02235174447,-187500.02235174447,-187500.02235174447,1730653658.2241476,1730653657.0235674,2000
29860.85770855638,-99425.7672936639,17277.630243018895,-187500.02235174447,-187500.02235174447,-187500.02235174447,-187500.02235174447,-187500.02235174447,1730653658.2270515,1730653657.0235674,2000
29862.06470275697,-99414.27849701387,17276.959690685235,-187500.02235174447,-187500.02235174447,-187500.02235174447,-187500.02235174447,-187500.02235174447,1730653658.2312095,1730653657.0235674,2000
29860.701246345197,-99466.84979997276,17275.50682729564,-187500.02235174447,-187500.02235174447,-187500.02235174447,-187500.02235174447,-187500.02235174447,1730653658.2360516,1730653657.0235674,2000
29861.505909145584,-99451.15887536512,17278.79253373057,-187500.02235174447,-187500.02235174447,-187500.02235174447,-187500.02235174447,-187500.02235174447,1730653658.2401173,1730653657.0235674,2000
29863.025827768543,-99409.964610334,17273.0257836611,-187500.02235174447,-187500.02235174447,-187500.02235174447,-187500.02235174447,-187500.02235174447,1730653658.2440417,1730653657.0235674,2000
29861.774130079048,-99427.15310182012,17269.538911526073,-187500.02235174447,-187500.02235174447,-187500.02235174447,-187500.02235174447,-187500.02235174447,1730653658.2470863,1730653657.0235674,2000
29864.121063246857,-99433.59040422326,17269.13658012588,-187500.02235174447,-187500.02235174447,-187500.02235174447,-187500.02235174447,-187500.02235174447,1730653658.2512753,1730653657.0235674,2000
29856.2979526875,-99427.39897100914,17269.002469659146,-187500.02235174447,-187500.02235174447,-187500.02235174447,-187500.02235174447,-187500.02235174447,1730653658.2552829,1730653657.0235674,2000
29856.96850502116,-99428.53890997636,17257.625431731394,-187500.02235174447,-187500.02235174447,-187500.02235174447,-187500.02235174447,-187500.02235174447,1730653658.2591364,1730653657.0235674,2000
29861.595316123407,-99457.48441904598,17266.05203939105,-187500.02235174447,-187500.02235174447,-187500.02235174447,-187500.02235174447,-187500.02235174447,1730653658.2640836,1730653657.0235674,2000
29870.29014471652,-99491.79434678488,17276.065620907026,-187500.02235174447,-187500.02235174447,-187500.02235174447,-187500.02235174447,-187500.02235174447,1730653658.2681196,1730653657.0235674,2000
29863.76343533557,-99489.0897857058,17276.065620907026,-187500.02235174447,-187500.02235174447,-187500.02235174447,-187500.02235174447,-187500.02235174447,1730653658.2723708,1730653657.0235674,2000
29859.494252144606,-99477.60098905576,17266.99081265817,-187500.02235174447,-187500.02235174447,-187500.02235174447,-187500.02235174447,-187500.02235174447,1730653658.2751963,1730653657.0235674,2000
29863.8975458023,-99441.54762524935,17270.097705137458,-187500.02235174447,-187500.02235174447,-187500.02235174447,-187500.02235174447,-187500.02235174447,1730653658.2791145,1730653657.0235674,2000
29872.637077884327,-99459.9207591916,17266.253205091143,-187500.02235174447,-187500.02235174447,-187500.02235174447,-187500.02235174447,-187500.02235174447,1730653658.283155,1730653657.0235674,2000
29873.709961618184,-99457.3726603237,17272.735210983185,-187500.02235174447,-187500.02235174447,-187500.02235174447,-187500.02235174447,-187500.02235174447,1730653658.2871792,1730653657.0235674,2000
29871.4524354282,-99475.11994542122,17279.776010486607,-187500.02235174447,-187500.02235174447,-187500.02235174447,-187500.02235174447,-187500.02235174447,1730653658.29117,1730653657.0235674,2000
29864.076359757943,-99471.32014886382,17270.857664448937,-187500.02235174447,-187500.02235174447,-187500.02235174447,-187500.02235174447,-187500.02235174447,1730653658.296164,1730653657.0235674,2000
29873.46409242917,-99495.3929776422,17263.682754478785,-187500.02235174447,-187500.02235174447,-187500.02235174447,-187500.02235174447,-187500.02235174447,1730653658.300172,1730653657.0235674,2000
29878.783807609536,-99432.7186861895,17262.811036445026,-187500.02235174447,-187500.02235174447,-187500.02235174447,-187500.02235174447,-187500.02235174447,1730653658.303166,1730653657.0235674,2000
29878.448531442707,-99424.3591337632,17267.393144058366,-187500.02235174447,-187500.02235174447,-187500.02235174447,-187500.02235174447,-187500.02235174447,1730653658.3071864,1730653657.0235674,2000
29859.494252144606,-99429.1200553322,17270.70120223775,-187500.02235174447,-187500.02235174447,-187500.02235174447,-187500.02235174447,-187500.02235174447,1730653658.3116443,1730653657.0235674,2000
29869.95486854969,-99427.39897100914,17269.09187663697,-187500.02235174447,-187500.02235174447,-187500.02235174447,-187500.02235174447,-187500.02235174447,1730653658.3172803,1730653657.0235674,2000
29870.96069705018,-99443.78279969488,17269.248338848156,-187500.02235174447,-187500.02235174447,-187500.02235174447,-187500.02235174447,-187500.02235174447,1730653658.3202553,1730653657.0235674,2000
29867.38441793733,-99457.35030857925,17270.723553982207,-187500.02235174447,-187500.02235174447,-187500.02235174447,-187500.02235174447,-187500.02235174447,1730653658.3243952,1730653657.0235674,2000
29868.725522604647,-99463.65350051563,17275.171551128813,-187500.02235174447,-187500.02235174447,-187500.02235174447,-187500.02235174447,-187500.02235174447,1730653658.3273587,1730653657.0235674,2000
29865.77509233655,-99426.10256983072,17271.774085971607,-187500.02235174447,-187500.02235174447,-187500.02235174447,-187500.02235174447,-187500.02235174447,1730653658.3312342,1730653657.0235674,2000
29872.190042995226,-99434.14919783465,17277.13850464088,-187500.02235174447,-187500.02235174447,-187500.02235174447,-187500.02235174447,-187500.02235174447,1730653658.3353004,1730653657.0235674,2000
29877.04037154202,-99446.1744363516,17275.573882529006,-187500.02235174447,-187500.02235174447,-187500.02235174447,-187500.02235174447,-187500.02235174447,1730653658.339272,1730653657.0235674,2000
29860.43302541173,-99468.36971859571,17276.646766262864,-187500.02235174447,-187500.02235174447,-187500.02235174447,-187500.02235174447,-187500.02235174447,1730653658.3433309,1730653657.0235674,2000
29860.43302541173,-99453.61756725522,17269.807132459537,-187500.02235174447,-187500.02235174447,-187500.02235174447,-187500.02235174447,-187500.02235174447,1730653658.34723,1730653657.0235674,2000
29867.406769681787,-99463.51939004892,17272.668155749816,-187500.02235174447,-187500.02235174447,-187500.02235174447,-187500.02235174447,-187500.02235174447,1730653658.3523088,1730653657.0235674,2000
29863.96460103567,-99462.44650631506,17269.874187692905,-187500.02235174447,-187500.02235174447,-187500.02235174447,-187500.02235174447,-187500.02235174447,1730653658.3552728,1730653657.0235674,2000
29859.896583544803,-99430.70702918852,17269.874187692905,-187500.02235174447,-187500.02235174447,-187500.02235174447,-187500.02235174447,-187500.02235174447,1730653658.359292,1730653657.0235674,2000
29863.830490568937,-99440.58650023775,17280.67008026482,-187500.02235174447,-187500.02235174447,-187500.02235174447,-187500.02235174447,-187500.02235174447,1730653658.3632593,1730653657.0235674,2000
29871.564194150476,-99487.34634963828,17273.115190638924,-187500.02235174447,-187500.02235174447,-187500.02235174447,-187500.02235174447,-187500.02235174447,1730653658.367336,1730653657.0235674,2000
29867.56323189297,-99494.49890786398,17263.1239608674,-187500.02235174447,-187500.02235174447,-187500.02235174447,-187500.02235174447,-187500.02235174447,1730653658.3712945,1730653657.0235674,2000
29857.43789165472,-99418.50297671591,17261.51463526662,-187500.02235174447,-187500.02235174447,-187500.02235174447,-187500.02235174447,-187500.02235174447,1730653658.375363,1730653657.0235674,2000
29861.327095189943,-99426.19197680856,17270.008298159635,-187500.02235174447,-187500.02235174447,-187500.02235174447,-187500.02235174447,-187500.02235174447,1730653658.3802977,1730653657.0235674,2000
29874.179348251742,-99470.984872697,17274.2774813506,-187500.02235174447,-187500.02235174447,-187500.02235174447,-187500.02235174447,-187500.02235174447,1730653658.3832693,1730653657.0235674,2000
29880.75076112161,-99476.61751229972,17273.785742972585,-187500.02235174447,-187500.02235174447,-187500.02235174447,-187500.02235174447,-187500.02235174447,1730653658.3865037,1730653657.0235674,2000
29866.33388594793,-99446.37560205167,17272.355231327445,-187500.02235174447,-187500.02235174447,-187500.02235174447,-187500.02235174447,-187500.02235174447,1730653658.3913524,1730653657.0235674,2000
29861.61766786786,-99464.21229412704,17270.857664448937,-187500.02235174447,-187500.02235174447,-187500.02235174447,-187500.02235174447,-187500.02235174447,1730653658.3954024,1730653657.0235674,2000
29862.556441134984,-99448.87899743069,17273.495170294664,-187500.02235174447,-187500.02235174447,-187500.02235174447,-187500.02235174447,-187500.02235174447,1730653658.3995097,1730653657.0235674,2000
29867.987915037625,-99437.43490426955,17276.579711029495,-187500.02235174447,-187500.02235174447,-187500.02235174447,-187500.02235174447,-187500.02235174447,1730653658.4034755,1730653657.0235674,2000
29874.51462441857,-99448.54372126386,17268.354269069943,-187500.02235174447,-187500.02235174447,-187500.02235174447,-187500.02235174447,-187500.02235174447,1730653658.4074376,1730653657.0235674,2000
29872.9500023067,-99471.11898316372,17270.388277815375,-187500.02235174447,-187500.02235174447,-187500.02235174447,-187500.02235174447,-187500.02235174447,1730653658.411414,1730653657.0235674,2000
29869.53018540504,-99444.11807586173,17268.957766170235,-187500.02235174447,-187500.02235174447,-187500.02235174447,-187500.02235174447,-187500.02235174447,1730653658.41444,1730653657.0235674,2000
29876.50392967509,-99500.84680328929,17274.2774813506,-187500.02235174447,-187500.02235174447,-187500.02235174447,-187500.02235174447,-187500.02235174447,1730653658.419386,1730653657.0235674,2000
29861.61766786786,-99525.43372219012,17270.14240862637,-187500.02235174447,-187500.02235174447,-187500.02235174447,-187500.02235174447,-187500.02235174447,1730653658.4233837,1730653657.0235674,2000
29866.937383048225,-99449.30368057534,17265.80617020204,-187500.02235174447,-187500.02235174447,-187500.02235174447,-187500.02235174447,-187500.02235174447,1730653658.4273183,1730653657.0235674,2000
29871.51949066156,-99426.0131628529,17272.60110051645,-187500.02235174447,-187500.02235174447,-187500.02235174447,-187500.02235174447,-187500.02235174447,1730653658.4313693,1730653657.0235674,2000
29874.089941273924,-99443.06754387233,17273.383411572388,-187500.02235174447,-187500.02235174447,-187500.02235174447,-187500.02235174447,-187500.02235174447,1730653658.4354482,1730653657.0235674,2000
29878.47088318716,-99458.15497137964,17272.198769116258,-187500.02235174447,-187500.02235174447,-187500.02235174447,-187500.02235174447,-187500.02235174447,1730653658.4383955,1730653657.0235674,2000
29884.751723379104,-99452.56703526582,17277.920815696816,-187500.02235174447,-187500.02235174447,-187500.02235174447,-187500.02235174447,-187500.02235174447,1730653658.4423752,1730653657.0235674,2000
29887.52333969156,-99483.05481470286,17280.55832154254,-187500.02235174447,-187500.02235174447,-187500.02235174447,-187500.02235174447,-187500.02235174447,1730653658.447364,1730653657.0235674,2000
29863.91989754676,-99496.91289626514,17272.064658649524,-187500.02235174447,-187500.02235174447,-187500.02235174447,-187500.02235174447,-187500.02235174447,1730653658.451414,1730653657.0235674,2000
29855.135661975823,-99487.10048044928,17260.84408293296,-187500.02235174447,-187500.02235174447,-187500.02235174447,-187500.02235174447,-187500.02235174447,1730653658.4555633,1730653657.0235674,2000
29854.3980544088,-99450.57773000927,17261.64874573335,-187500.02235174447,-187500.02235174447,-187500.02235174447,-187500.02235174447,-187500.02235174447,1730653658.459587,1730653657.0235674,2000
29862.087054501422,-99437.01022112492,17267.303737080543,-187500.02235174447,-187500.02235174447,-187500.02235174447,-187500.02235174447,-187500.02235174447,1730653658.4624891,1730653657.0235674,2000
29862.53408939053,-99431.51169198893,17275.797399973562,-187500.02235174447,-187500.02235174447,-187500.02235174447,-187500.02235174447,-187500.02235174447,1730653658.466603,1730653657.0235674,2000
29858.041388755013,-99442.55345374985,17270.231815604187,-187500.02235174447,-187500.02235174447,-187500.02235174447,-187500.02235174447,-187500.02235174447,1730653658.4725175,1730653657.0235674,2000
29869.329019704943,-99439.17834033708,17267.124923124902,-187500.02235174447,-187500.02235174447,-187500.02235174447,-187500.02235174447,-187500.02235174447,1730653658.4756167,1730653657.0235674,2000
29872.90529881779,-99481.22197165752,17277.294966852067,-187500.02235174447,-187500.02235174447,-187500.02235174447,-187500.02235174447,-187500.02235174447,1730653658.4794888,1730653657.0235674,2000
29861.282391701032,-99440.7206107045,17273.003431916648,-187500.02235174447,-187500.02235174447,-187500.02235174447,-187500.02235174447,-187500.02235174447,1730653658.4834774,1730653657.0235674,2000
29865.3504091919,-99425.74494191945,17268.600138258953,-187500.02235174447,-187500.02235174447,-187500.02235174447,-187500.02235174447,-187500.02235174447,1730653658.487514,1730653657.0235674,2000
29863.11523474637,-99457.19384636806,17268.823655703505,-187500.02235174447,-187500.02235174447,-187500.02235174447,-187500.02235174447,-187500.02235174447,1730653658.490481,1730653657.0235674,2000
29864.165766735765,-99466.40276508364,17273.115190638924,-187500.02235174447,-187500.02235174447,-187500.02235174447,-187500.02235174447,-187500.02235174447,1730653658.494512,1730653657.0235674,2000
29869.261964471578,-99461.48538130349,17269.047173148057,-187500.02235174447,-187500.02235174447,-187500.02235174447,-187500.02235174447,-187500.02235174447,1730653658.498501,1730653657.0235674,2000
29879.63317389884,-99448.81194219732,17277.31731859652,-187500.02235174447,-187500.02235174447,-187500.02235174447,-187500.02235174447,-187500.02235174447,1730653658.5035236,1730653657.0235674,2000
29871.854766828397,-99428.44950299854,17289.253150135657,-187500.02235174447,-187500.02235174447,-187500.02235174447,-187500.02235174447,-187500.02235174447,1730653658.5076113,1730653657.0235674,2000
29862.154109734787,-99439.6700787151,17293.544685071076,-187500.02235174447,-187500.02235174447,-187500.02235174447,-187500.02235174447,-187500.02235174447,1730653658.5116148,1730653657.0235674,2000
29863.025827768543,-99459.25020685796,17270.388277815375,-187500.02235174447,-187500.02235174447,-187500.02235174447,-187500.02235174447,-187500.02235174447,1730653658.5146172,1730653657.0235674,2000
29877.64386864232,-99479.92557047911,17267.41549580282,-187500.02235174447,-187500.02235174447,-187500.02235174447,-187500.02235174447,-187500.02235174447,1730653658.518613,1730653657.0235674,2000
29882.561252422485,-99503.97604751302,17272.98108017219,-187500.02235174447,-187500.02235174447,-187500.02235174447,-187500.02235174447,-187500.02235174447,1730653658.5226483,1730653657.0235674,2000
29879.610822154384,-99486.45227986008,17273.741039483673,-187500.02235174447,-187500.02235174447,-187500.02235174447,-187500.02235174447,-187500.02235174447,1730653658.526666,1730653657.0235674,2000
29882.896528589317,-99487.32399789382,17268.957766170235,-187500.02235174447,-187500.02235174447,-187500.02235174447,-187500.02235174447,-187500.02235174447,1730653658.5307171,1730653657.0235674,2000
29866.915031303768,-99472.2812738754,17273.338708083476,-187500.02235174447,-187500.02235174447,-187500.02235174447,-187500.02235174447,-187500.02235174447,1730653658.535678,1730653657.0235674,2000
29867.63028712634,-99442.1734740941,17273.450466805753,-187500.02235174447,-187500.02235174447,-187500.02235174447,-187500.02235174447,-187500.02235174447,1730653658.5396016,1730653657.0235674,2000
29862.131757990333,-99434.8644536572,17268.063696392026,-187500.02235174447,-187500.02235174447,-187500.02235174447,-187500.02235174447,-187500.02235174447,1730653658.5425718,1730653657.0235674,2000
29865.059836513978,-99455.85274170074,17271.908196438337,-187500.02235174447,-187500.02235174447,-187500.02235174447,-187500.02235174447,-187500.02235174447,1730653658.5466118,1730653657.0235674,2000
29869.06079877148,-99461.91006444814,17267.393144058366,-187500.02235174447,-187500.02235174447,-187500.02235174447,-187500.02235174447,-187500.02235174447,1730653658.5506625,1730653657.0235674,2000
29872.41356043977,-99475.9246082216,17276.51265579613,-187500.02235174447,-187500.02235174447,-187500.02235174447,-187500.02235174447,-187500.02235174447,1730653658.5546064,1730653657.0235674,2000
29869.038447027026,-99479.61264605672,17267.393144058366,-187500.02235174447,-187500.02235174447,-187500.02235174447,-187500.02235174447,-187500.02235174447,1730653658.5586612,1730653657.0235674,2000
29866.266830714565,-99451.71766897652,17261.380524799886,-187500.02235174447,-187500.02235174447,-187500.02235174447,-187500.02235174447,-187500.02235174447,1730653658.5636072,1730653657.0235674,2000
29869.1502057493,-99474.11411692073,17271.349402826956,-187500.02235174447,-187500.02235174447,-187500.02235174447,-187500.02235174447,-187500.02235174447,1730653658.5677035,1730653657.0235674,2000
29866.31153420348,-99471.16368665262,17265.672059735305,-187500.02235174447,-187500.02235174447,-187500.02235174447,-187500.02235174447,-187500.02235174447,1730653658.5706358,1730653657.0235674,2000
29866.423292925752,-99432.62927921167,17268.108399880934,-187500.02235174447,-187500.02235174447,-187500.02235174447,-187500.02235174447,-187500.02235174447,1730653658.5747807,1730653657.0235674,2000
29869.70899936068,-99440.56414849331,17272.1764173718,-187500.02235174447,-187500.02235174447,-187500.02235174447,-187500.02235174447,-187500.02235174447,1730653658.5786295,1730653657.0235674,2000
29879.499063432108,-99461.88771270368,17272.511693538632,-187500.02235174447,-187500.02235174447,-187500.02235174447,-187500.02235174447,-187500.02235174447,1730653658.582795,1730653657.0235674,2000
29885.757551879597,-99485.31234089284,17269.56126327053,-187500.02235174447,-187500.02235174447,-187500.02235174447,-187500.02235174447,-187500.02235174447,1730653658.5867968,1730653657.0235674,2000
29874.089941273924,-99509.27341094892,17271.148237126858,-187500.02235174447,-187500.02235174447,-187500.02235174447,-187500.02235174447,-187500.02235174447,1730653658.5918672,1730653657.0235674,2000
29872.257098228587,-99496.46586137604,17267.169626613813,-187500.02235174447,-187500.02235174447,-187500.02235174447,-187500.02235174447,-187500.02235174447,1730653658.5957477,1730653657.0235674,2000
29857.929630032737,-99498.34340791027,17261.425228288797,-187500.02235174447,-187500.02235174447,-187500.02235174447,-187500.02235174447,-187500.02235174447,1730653658.5987737,1730653657.0235674,2000
29854.48746138662,-99484.64178855918,17267.79547545856,-187500.02235174447,-187500.02235174447,-187500.02235174447,-187500.02235174447,-187500.02235174447,1730653658.6027832,1730653657.0235674,2000
29860.276563200543,-99488.46393686104,17277.94316744127,-187500.02235174447,-187500.02235174447,-187500.02235174447,-187500.02235174447,-187500.02235174447,1730653658.6068203,1730653657.0235674,2000
29863.4505109132,-99518.01294303096,17278.65842326384,-187500.02235174447,-187500.02235174447,-187500.02235174447,-187500.02235174447,-187500.02235174447,1730653658.6106584,1730653657.0235674,2000
29869.23961272712,-99496.82348928732,17270.388277815375,-187500.02235174447,-187500.02235174447,-187500.02235174447,-187500.02235174447,-187500.02235174447,1730653658.6148496,1730653657.0235674,2000
29878.269717487063,-99491.61553282924,17272.288176094076,-187500.02235174447,-187500.02235174447,-187500.02235174447,-187500.02235174447,-187500.02235174447,1730653658.6198409,1730653657.0235674,2000
29863.4505109132,-99492.8895822632,17280.692432009273,-187500.02235174447,-187500.02235174447,-187500.02235174447,-187500.02235174447,-187500.02235174447,1730653658.6229937,1730653657.0235674,2000
29860.12010098936,-99513.00615227297,17275.305661595543,-187500.02235174447,-187500.02235174447,-187500.02235174447,-187500.02235174447,-187500.02235174447,1730653658.626844,1730653657.0235674,2000
29865.864499314368,-99493.91776250814,17263.92862366779,-187500.02235174447,-187500.02235174447,-187500.02235174447,-187500.02235174447,-187500.02235174447,1730653658.630752,1730653657.0235674,2000
29869.127854004844,-99472.2812738754,17263.92862366779,-187500.02235174447,-187500.02235174447,-187500.02235174447,-187500.02235174447,-187500.02235174447,1730653658.6348813,1730653657.0235674,2000
29868.703170860197,-99437.90429090313,17258.2736323206,-187500.02235174447,-187500.02235174447,-187500.02235174447,-187500.02235174447,-187500.02235174447,1730653658.6388445,1730653657.0235674,2000
29875.87808083035,-99461.50773304794,17284.112248910937,-187500.02235174447,-187500.02235174447,-187500.02235174447,-187500.02235174447,-187500.02235174447,1730653658.6429763,1730653657.0235674,2000
29872.882947073336,-99483.39009086968,17293.410574604342,-187500.02235174447,-187500.02235174447,-187500.02235174447,-187500.02235174447,-187500.02235174447,1730653658.6478162,1730653657.0235674,2000
29861.1482812343,-99503.0819777348,17267.23668184718,-187500.02235174447,-187500.02235174447,-187500.02235174447,-187500.02235174447,-187500.02235174447,1730653658.650833,1730653657.0235674,2000
29866.24447897011,-99479.25501814546,17257.916004409315,-187500.02235174447,-187500.02235174447,-187500.02235174447,-187500.02235174447,-187500.02235174447,1730653658.653748,1730653657.0235674,2000
29878.135607020333,-99531.98278331551,17268.13075162539,-187500.02235174447,-187500.02235174447,-187500.02235174447,-187500.02235174447,-187500.02235174447,1730653658.6588712,1730653657.0235674,2000
29870.60306913889,-99548.00898408996,17265.60500450194,-187500.02235174447,-187500.02235174447,-187500.02235174447,-187500.02235174447,-187500.02235174447,1730653658.663,1730653657.0235674,2000
29864.076359757943,-99487.32399789382,17264.80034170155,-187500.02235174447,-187500.02235174447,-187500.02235174447,-187500.02235174447,-187500.02235174447,1730653658.6668646,1730653657.0235674,2000
29872.368856950863,-99516.0906930078,17268.175455114302,-187500.02235174447,-187500.02235174447,-187500.02235174447,-187500.02235174447,-187500.02235174447,1730653658.6707697,1730653657.0235674,2000
29872.41356043977,-99514.21314647356,17261.447580033255,-187500.02235174447,-187500.02235174447,-187500.02235174447,-187500.02235174447,-187500.02235174447,1730653658.675979,1730653657.0235674,2000
29878.202662253698,-99476.03636694388,17261.827559688994,-187500.02235174447,-187500.02235174447,-187500.02235174447,-187500.02235174447,-187500.02235174447,1730653658.6788356,1730653657.0235674,2000
29873.44174068472,-99461.59714002575,17269.538911526073,-187500.02235174447,-187500.02235174447,-187500.02235174447,-187500.02235174447,-187500.02235174447,1730653658.6818173,1730653657.0235674,2000
29861.461205656677,-99441.23470082696,17279.083106408492,-187500.02235174447,-187500.02235174447,-187500.02235174447,-187500.02235174447,-187500.02235174447,1730653658.6869466,1730653657.0235674,2000
29854.174536964245,-99458.0208609129,17271.99760341616,-187500.02235174447,-187500.02235174447,-187500.02235174447,-187500.02235174447,-187500.02235174447,1730653658.6908464,1730653657.0235674,2000
29855.806214309483,-99440.7653141934,17266.163798113324,-187500.02235174447,-187500.02235174447,-187500.02235174447,-187500.02235174447,-187500.02235174447,1730653658.6949964,1730653657.0235674,2000
29868.47965341564,-99423.6215261962,17267.28138533609,-187500.02235174447,-187500.02235174447,-187500.02235174447,-187500.02235174447,-187500.02235174447,1730653658.6989696,1730653657.0235674,2000
29879.54376692102,-99433.38923852316,17271.70703073824,-187500.02235174447,-187500.02235174447,-187500.02235174447,-187500.02235174447,-187500.02235174447,1730653658.703832,1730653657.0235674,2000
29871.11715926137,-99450.80124745384,17272.891673194372,-187500.02235174447,-187500.02235174447,-187500.02235174447,-187500.02235174447,-187500.02235174447,1730653658.707082,1730653657.0235674,2000
29856.074435242943,-99426.50490123092,17280.267748864622,-187500.02235174447,-187500.02235174447,-187500.02235174447,-187500.02235174447,-187500.02235174447,1730653658.7100751,1730653657.0235674,2000
29863.11523474637,-99433.79156992336,17272.310527838534,-187500.02235174447,-187500.02235174447,-187500.02235174447,-187500.02235174447,-187500.02235174447,1730653658.7150643,1730653657.0235674,2000
29873.933479062736,-99458.64670975764,17262.207539344734,-187500.02235174447,-187500.02235174447,-187500.02235174447,-187500.02235174447,-187500.02235174447,1730653658.7190504,1730653657.0235674,2000
29871.36302845037,-99495.6388468312,17274.724516239705,-187500.02235174447,-187500.02235174447,-187500.02235174447,-187500.02235174447,-187500.02235174447,1730653658.7230797,1730653657.0235674,2000
29863.785787080025,-99481.02080595742,17275.126847639902,-187500.02235174447,-187500.02235174447,-187500.02235174447,-187500.02235174447,-187500.02235174447,1730653658.7270925,1730653657.0235674,2000
29874.31345871848,-99465.95573019456,17268.823655703505,-187500.02235174447,-187500.02235174447,-187500.02235174447,-187500.02235174447,-187500.02235174447,1730653658.729942,1730653657.0235674,2000
29871.564194150476,-99466.469820317,17278.971347686213,-187500.02235174447,-187500.02235174447,-187500.02235174447,-187500.02235174447,-187500.02235174447,1730653658.7340655,1730653657.0235674,2000
29864.702208602692,-99480.66317804612,17274.90333019535,-187500.02235174447,-187500.02235174447,-187500.02235174447,-187500.02235174447,-187500.02235174447,1730653658.737959,1730653657.0235674,2000
29858.063740499467,-99490.31913165085,17266.923757424804,-187500.02235174447,-187500.02235174447,-187500.02235174447,-187500.02235174447,-187500.02235174447,1730653658.742268,1730653657.0235674,2000
29863.808138824483,-99494.81183228634,17264.912100423826,-187500.02235174447,-187500.02235174447,-187500.02235174447,-187500.02235174447,-187500.02235174447,1730653658.7469287,1730653657.0235674,2000
29876.146301763813,-99481.28902689088,17273.092838894467,-187500.02235174447,-187500.02235174447,-187500.02235174447,-187500.02235174447,-187500.02235174447,1730653658.751502,1730653657.0235674,2000
29876.88390933084,-99527.11010302426,17273.718687739216,-187500.02235174447,-187500.02235174447,-187500.02235174447,-187500.02235174447,-187500.02235174447,1730653658.7550716,1730653657.0235674,2000
29866.49034815912,-99494.5883148418,17266.566129513518,-187500.02235174447,-187500.02235174447,-187500.02235174447,-187500.02235174447,-187500.02235174447,1730653658.7579174,1730653657.0235674,2000
29870.066627271968,-99443.62633748369,17263.436885289775,-187500.02235174447,-187500.02235174447,-187500.02235174447,-187500.02235174447,-187500.02235174447,1730653658.7622027,1730653657.0235674,2000
29862.891717301813,-99436.0714478578,17269.538911526073,-187500.02235174447,-187500.02235174447,-187500.02235174447,-187500.02235174447,-187500.02235174447,1730653658.7661705,1730653657.0235674,2000
29861.394150423308,-99451.69531723206,17263.3251265675,-187500.02235174447,-187500.02235174447,-187500.02235174447,-187500.02235174447,-187500.02235174447,1730653658.7700925,1730653657.0235674,2000
29867.406769681787,-99455.0704306448,17265.627356246398,-187500.02235174447,-187500.02235174447,-187500.02235174447,-187500.02235174447,-187500.02235174447,1730653658.7752063,1730653657.0235674,2000
29867.42912142624,-99462.44650631506,17274.389240072876,-187500.02235174447,-187500.02235174447,-187500.02235174447,-187500.02235174447,-187500.02235174447,1730653658.7789035,1730653657.0235674,2000
29865.126891747343,-99450.60008175374,17272.60110051645,-187500.02235174447,-187500.02235174447,-187500.02235174447,-187500.02235174447,-187500.02235174447,1730653658.7830708,1730653657.0235674,2000
29867.518528404064,-99443.17930259458,17274.679812750794,-187500.02235174447,-187500.02235174447,-187500.02235174447,-187500.02235174447,-187500.02235174447,1730653658.786191,1730653657.0235674,2000
29868.0996737599,-99426.68371518656,17267.326088825,-187500.02235174447,-187500.02235174447,-187500.02235174447,-187500.02235174447,-187500.02235174447,1730653658.790234,1730653657.0235674,2000
29866.937383048225,-99440.81001768232,17271.55056852705,-187500.02235174447,-187500.02235174447,-187500.02235174447,-187500.02235174447,-187500.02235174447,1730653658.7941785,1730653657.0235674,2000
29869.70899936068,-99455.45041030056,17272.332879582988,-187500.02235174447,-187500.02235174447,-187500.02235174447,-187500.02235174447,-187500.02235174447,1730653658.798237,1730653657.0235674,2000
29873.419388940263,-99495.77295729792,17272.265824349623,-187500.02235174447,-187500.02235174447,-187500.02235174447,-187500.02235174447,-187500.02235174447,1730653658.8030407,1730653657.0235674,2000
29868.0996737599,-99537.23544326251,17270.2765190931,-187500.02235174447,-187500.02235174447,-187500.02235174447,-187500.02235174447,-187500.02235174447,1730653658.8072731,1730653657.0235674,2000
29865.685685358727,-99491.70493980704,17263.92862366779,-187500.02235174447,-187500.02235174447,-187500.02235174447,-187500.02235174447,-187500.02235174447,1730653658.8102655,1730653657.0235674,2000
29867.317362703965,-99471.58836979727,17265.00150740165,-187500.02235174447,-187500.02235174447,-187500.02235174447,-187500.02235174447,-187500.02235174447,1730653658.8140152,1730653657.0235674,2000
29869.64194412732,-99448.16374160812,17266.253205091143,-187500.02235174447,-187500.02235174447,-187500.02235174447,-187500.02235174447,-187500.02235174447,1730653658.8180237,1730653657.0235674,2000
29868.54670864901,-99461.5747882813,17263.772161456607,-187500.02235174447,-187500.02235174447,-187500.02235174447,-187500.02235174447,-187500.02235174447,1730653658.8221197,1730653657.0235674,2000
29862.1988132237,-99448.9237009196,17273.98690867268,-187500.02235174447,-187500.02235174447,-187500.02235174447,-187500.02235174447,-187500.02235174447,1730653658.8261943,1730653657.0235674,2000
29859.44954865569,-99441.61468048271,17275.797399973562,-187500.02235174447,-187500.02235174447,-187500.02235174447,-187500.02235174447,-187500.02235174447,1730653658.8300169,1730653657.0235674,2000
29868.792577838016,-99430.975250122,17267.974289414204,-187500.02235174447,-187500.02235174447,-187500.02235174447,-187500.02235174447,-187500.02235174447,1730653658.8351257,1730653657.0235674,2000
29865.32805744744,-99457.21619811252,17265.515597524118,-187500.02235174447,-187500.02235174447,-187500.02235174447,-187500.02235174447,-187500.02235174447,1730653658.8380249,1730653657.0235674,2000
29864.702208602692,-99446.08502937376,17259.994716643658,-187500.02235174447,-187500.02235174447,-187500.02235174447,-187500.02235174447,-187500.02235174447,1730653658.8421476,1730653657.0235674,2000
29861.841185312416,-99445.70504971805,17260.75467595514,-187500.02235174447,-187500.02235174447,-187500.02235174447,-187500.02235174447,-187500.02235174447,1730653658.8461237,1730653657.0235674,2000
29864.45633941369,-99442.3746397942,17273.115190638924,-187500.02235174447,-187500.02235174447,-187500.02235174447,-187500.02235174447,-187500.02235174447,1730653658.8501875,1730653657.0235674,2000
29865.886851058825,-99487.01107347144,17282.03353667659,-187500.02235174447,-187500.02235174447,-187500.02235174447,-187500.02235174447,-187500.02235174447,1730653658.8540845,1730653657.0235674,2000
29856.320304431956,-99444.56511075082,17271.61762376042,-187500.02235174447,-187500.02235174447,-187500.02235174447,-187500.02235174447,-187500.02235174447,1730653658.8582652,1730653657.0235674,2000
29865.842147569914,-99430.30469778834,17263.54864401205,-187500.02235174447,-187500.02235174447,-187500.02235174447,-187500.02235174447,-187500.02235174447,1730653658.8630672,1730653657.0235674,2000
29879.4543599432,-99432.0257821114,17278.054926163546,-187500.02235174447,-187500.02235174447,-187500.02235174447,-187500.02235174447,-187500.02235174447,1730653658.8663504,1730653657.0235674,2000
29867.920859804257,-99450.46597128702,17274.813923217527,-187500.02235174447,-187500.02235174447,-187500.02235174447,-187500.02235174447,-187500.02235174447,1730653658.8703306,1730653657.0235674,2000
29861.90824054578,-99434.39506702364,17257.267803820112,-187500.02235174447,-187500.02235174447,-187500.02235174447,-187500.02235174447,-187500.02235174447,1730653658.874244,1730653657.0235674,2000
29864.925726047248,-99433.43394201208,17261.2240625887,-187500.02235174447,-187500.02235174447,-187500.02235174447,-187500.02235174447,-187500.02235174447,1730653658.878228,1730653657.0235674,2000
29867.093845259413,-99425.722590175,17267.75077196965,-187500.02235174447,-187500.02235174447,-187500.02235174447,-187500.02235174447,-187500.02235174447,1730653658.8842564,1730653657.0235674,2000
29864.76926383606,-99460.25603535844,17269.248338848156,-187500.02235174447,-187500.02235174447,-187500.02235174447,-187500.02235174447,-187500.02235174447,1730653658.8871565,1730653657.0235674,2000
29859.20367946669,-99476.52810532192,17263.235719589677,-187500.02235174447,-187500.02235174447,-187500.02235174447,-187500.02235174447,-187500.02235174447,1730653658.890374,1730653657.0235674,2000
29853.61574335286,-99498.94690501058,17262.74398121166,-187500.02235174447,-187500.02235174447,-187500.02235174447,-187500.02235174447,-187500.02235174447,1730653658.8943694,1730653657.0235674,2000
29855.180365464734,-99447.76141020792,17264.21919634571,-187500.02235174447,-187500.02235174447,-187500.02235174447,-187500.02235174447,-187500.02235174447,1730653658.897127,1730653657.0235674,2000
29864.85867081388,-99434.79739842383,17268.980117914693,-187500.02235174447,-187500.02235174447,-187500.02235174447,-187500.02235174447,-187500.02235174447,1730653658.9022267,1730653657.0235674,2000
29870.49131041662,-99433.1657210786,17273.159894127835,-187500.02235174447,-187500.02235174447,-187500.02235174447,-187500.02235174447,-187500.02235174447,1730653658.906326,1730653657.0235674,2000
29874.04523778501,-99435.0209158684,17268.667193492318,-187500.02235174447,-187500.02235174447,-187500.02235174447,-187500.02235174447,-187500.02235174447,1730653658.9103243,1730653657.0235674,2000
29869.977220294146,-99453.1258288772,17266.65553649134,-187500.02235174447,-187500.02235174447,-187500.02235174447,-187500.02235174447,-187500.02235174447,1730653658.9142523,1730653657.0235674,2000
29864.21047022468,-99469.86728547422,17267.28138533609,-187500.02235174447,-187500.02235174447,-187500.02235174447,-187500.02235174447,-187500.02235174447,1730653658.918204,1730653657.0235674,2000
29870.60306913889,-99445.48153227348,17271.55056852705,-187500.02235174447,-187500.02235174447,-187500.02235174447,-187500.02235174447,-187500.02235174447,1730653658.9211855,1730653657.0235674,2000
29871.29597321701,-99495.50473636446,17275.104495895444,-187500.02235174447,-187500.02235174447,-187500.02235174447,-187500.02235174447,-187500.02235174447,1730653658.9264271,1730653657.0235674,2000
29863.696380102207,-99443.24635782796,17265.18032135729,-187500.02235174447,-187500.02235174447,-187500.02235174447,-187500.02235174447,-187500.02235174447,1730653658.930253,1730653657.0235674,2000
29859.494252144606,-99407.79649112184,17269.717725481718,-187500.02235174447,-187500.02235174447,-187500.02235174447,-187500.02235174447,-187500.02235174447,1730653658.9342923,1730653657.0235674,2000
29860.67889460074,-99426.99663960894,17269.89653943736,-187500.02235174447,-187500.02235174447,-187500.02235174447,-187500.02235174447,-187500.02235174447,1730653658.938228,1730653657.0235674,2000
29859.38249342233,-99416.89365111514,17268.84600744796,-187500.02235174447,-187500.02235174447,-187500.02235174447,-187500.02235174447,-187500.02235174447,1730653658.9422133,1730653657.0235674,2000
29864.366932435863,-99408.80231962232,17267.683716736283,-187500.02235174447,-187500.02235174447,-187500.02235174447,-187500.02235174447,-187500.02235174447,1730653658.9462204,1730653657.0235674,2000
29868.85963307138,-99418.90530811613,17268.577786514496,-187500.02235174447,-187500.02235174447,-187500.02235174447,-187500.02235174447,-187500.02235174447,1730653658.949486,1730653657.0235674,2000
29867.876156315346,-99420.961668606,17268.957766170235,-187500.02235174447,-187500.02235174447,-187500.02235174447,-187500.02235174447,-187500.02235174447,1730653658.9533396,1730653657.0235674,2000
29871.16186275028,-99442.66521247211,17271.438809804775,-187500.02235174447,-187500.02235174447,-187500.02235174447,-187500.02235174447,-187500.02235174447,1730653658.9583104,1730653657.0235674,2000
29864.9480777917,-99428.78477916536,17272.60110051645,-187500.02235174447,-187500.02235174447,-187500.02235174447,-187500.02235174447,-187500.02235174447,1730653658.9622617,1730653657.0235674,2000
29862.332923690432,-99449.81777069782,17274.009260417137,-187500.02235174447,-187500.02235174447,-187500.02235174447,-187500.02235174447,-187500.02235174447,1730653658.9662728,1730653657.0235674,2000
29860.56713587846,-99447.71670671902,17270.723553982207,-187500.02235174447,-187500.02235174447,-187500.02235174447,-187500.02235174447,-187500.02235174447,1730653658.9705248,1730653657.0235674,2000
29864.0987115024,-99411.05984581231,17265.47089403521,-187500.02235174447,-187500.02235174447,-187500.02235174447,-187500.02235174447,-187500.02235174447,1730653658.9743516,1730653657.0235674,2000
29866.44564467021,-99421.1628343061,17269.203635359245,-187500.02235174447,-187500.02235174447,-187500.02235174447,-187500.02235174447,-187500.02235174447,1730653658.977242,1730653657.0235674,2000
29865.3504091919,-99438.1725118366,17273.04813540556,-187500.02235174447,-187500.02235174447,-187500.02235174447,-187500.02235174447,-187500.02235174447,1730653658.9812334,1730653657.0235674,2000
29865.640981869816,-99482.00428271346,17278.65842326384,-187500.02235174447,-187500.02235174447,-187500.02235174447,-187500.02235174447,-187500.02235174447,1730653658.986492,1730653657.0235674,2000
29862.57879287944,-99492.68841656308,17275.90915869584,-187500.02235174447,-187500.02235174447,-187500.02235174447,-187500.02235174447,-187500.02235174447,1730653658.990245,1730653657.0235674,2000
29856.54382187651,-99437.9713461365,17286.280368123098,-187500.02235174447,-187500.02235174447,-187500.02235174447,-187500.02235174447,-187500.02235174447,1730653658.994481,1730653657.0235674,2000
29862.757606835083,-99449.66130848664,17299.244379907177,-187500.02235174447,-187500.02235174447,-187500.02235174447,-187500.02235174447,-187500.02235174447,1730653658.997278,1730653657.0235674,2000
29866.937383048225,-99462.2229888705,17274.2774813506,-187500.02235174447,-187500.02235174447,-187500.02235174447,-187500.02235174447,-187500.02235174447,1730653659.0013933,1730653657.0235674,2000
29865.976258036648,-99453.41640155512,17252.328068295486,-187500.02235174447,-187500.02235174447,-187500.02235174447,-187500.02235174447,-187500.02235174447,1730653659.0054123,1730653657.0235674,2000
29864.56809813596,-99427.39897100914,17257.692486964763,-187500.02235174447,-187500.02235174447,-187500.02235174447,-187500.02235174447,-187500.02235174447,1730653659.009484,1730653657.0235674,2000
29865.886851058825,-99442.8216746833,17270.880016193394,-187500.02235174447,-187500.02235174447,-187500.02235174447,-187500.02235174447,-187500.02235174447,1730653659.0143971,1730653657.0235674,2000
29862.019999268057,-99417.81007263782,17270.52238828211,-187500.02235174447,-187500.02235174447,-187500.02235174447,-187500.02235174447,-187500.02235174447,1730653659.018335,1730653657.0235674,2000
29863.09288300191,-99427.84600589825,17264.93445216828,-187500.02235174447,-187500.02235174447,-187500.02235174447,-187500.02235174447,-187500.02235174447,1730653659.0223465,1730653657.0235674,2000
29866.62445862585,-99413.3620754912,17261.2240625887,-187500.02235174447,-187500.02235174447,-187500.02235174447,-187500.02235174447,-187500.02235174447,1730653659.026472,1730653657.0235674,2000
29863.36110393537,-99425.34261051923,17263.816864945515,-187500.02235174447,-187500.02235174447,-187500.02235174447,-187500.02235174447,-187500.02235174447,1730653659.029324,1730653657.0235674,2000
29864.590449880416,-99456.14331437869,17263.3251265675,-187500.02235174447,-187500.02235174447,-187500.02235174447,-187500.02235174447,-187500.02235174447,1730653659.03345,1730653657.0235674,2000
29874.134644762835,-99448.87899743069,17263.258071334134,-187500.02235174447,-187500.02235174447,-187500.02235174447,-187500.02235174447,-187500.02235174447,1730653659.037318,1730653657.0235674,2000
29865.864499314368,-99432.45046525604,17268.823655703505,-187500.02235174447,-187500.02235174447,-187500.02235174447,-187500.02235174447,-187500.02235174447,1730653659.041473,1730653657.0235674,2000
29864.38928418032,-99441.41351478262,17278.077277908003,-187500.02235174447,-187500.02235174447,-187500.02235174447,-187500.02235174447,-187500.02235174447,1730653659.046395,1730653657.0235674,2000
29867.60793538188,-99449.3260323198,17270.857664448937,-187500.02235174447,-187500.02235174447,-187500.02235174447,-187500.02235174447,-187500.02235174447,1730653659.0503392,1730653657.0235674,2000
29874.022886040555,-99436.69729670256,17268.13075162539,-187500.02235174447,-187500.02235174447,-187500.02235174447,-187500.02235174447,-187500.02235174447,1730653659.0534215,1730653657.0235674,2000
29868.703170860197,-99432.6739827006,17273.584577272486,-187500.02235174447,-187500.02235174447,-187500.02235174447,-187500.02235174447,-187500.02235174447,1730653659.0574198,1730653657.0235674,2000
29867.943211548714,-99460.3230905918,17273.629280761397,-187500.02235174447,-187500.02235174447,-187500.02235174447,-187500.02235174447,-187500.02235174447,1730653659.0615668,1730653657.0235674,2000
29858.22020271065,-99477.86920998922,17268.33191732549,-187500.02235174447,-187500.02235174447,-187500.02235174447,-187500.02235174447,-187500.02235174447,1730653659.0655866,1730653657.0235674,2000
29856.923801532248,-99480.14908792368,17265.157969612836,-187500.02235174447,-187500.02235174447,-187500.02235174447,-187500.02235174447,-187500.02235174447,1730653659.070429,1730653657.0235674,2000
29860.343618433908,-99496.24234393147,17271.215292360223,-187500.02235174447,-187500.02235174447,-187500.02235174447,-187500.02235174447,-187500.02235174447,1730653659.074535,1730653657.0235674,2000
29855.269772442552,-99465.5757505388,17269.60596675944,-187500.02235174447,-187500.02235174447,-187500.02235174447,-187500.02235174447,-187500.02235174447,1730653659.07753,1730653657.0235674,2000
29856.320304431956,-99399.16871776208,17263.839216689972,-187500.02235174447,-187500.02235174447,-187500.02235174447,-187500.02235174447,-187500.02235174447,1730653659.0805123,1730653657.0235674,2000
29865.864499314368,-99427.53308147586,17262.721629467207,-187500.02235174447,-187500.02235174447,-187500.02235174447,-187500.02235174447,-187500.02235174447,1730653659.085497,1730653657.0235674,2000
29875.56515640797,-99456.85857020124,17273.003431916648,-187500.02235174447,-187500.02235174447,-187500.02235174447,-187500.02235174447,-187500.02235174447,1730653659.089511,1730653657.0235674,2000
29868.54670864901,-99486.2287624155,17281.161818642835,-187500.02235174447,-187500.02235174447,-187500.02235174447,-187500.02235174447,-187500.02235174447,1730653659.093564,1730653657.0235674,2000
29858.15314747729,-99507.35116092575,17279.440734319774,-187500.02235174447,-187500.02235174447,-187500.02235174447,-187500.02235174447,-187500.02235174447,1730653659.0976162,1730653657.0235674,2000
29858.37666492184,-99497.65050383216,17278.74783024166,-187500.02235174447,-187500.02235174447,-187500.02235174447,-187500.02235174447,-187500.02235174447,1730653659.1024575,1730653657.0235674,2000
29859.896583544803,-99508.04406500388,17275.193902873267,-187500.02235174447,-187500.02235174447,-187500.02235174447,-187500.02235174447,-187500.02235174447,1730653659.1054764,1730653657.0235674,2000
29858.980162022137,-99491.8837537627,17268.778952214594,-187500.02235174447,-187500.02235174447,-187500.02235174447,-187500.02235174447,-187500.02235174447,1730653659.1085596,1730653657.0235674,2000
29858.041388755013,-99516.71654185254,17274.03161216159,-187500.02235174447,-187500.02235174447,-187500.02235174447,-187500.02235174447,-187500.02235174447,1730653659.113504,1730653657.0235674,2000
29851.179403207232,-99478.69622453408,17262.90044342285,-187500.02235174447,-187500.02235174447,-187500.02235174447,-187500.02235174447,-187500.02235174447,1730653659.1175604,1730653657.0235674,2000
29858.354313177388,-99449.66130848664,17261.08995212197,-187500.02235174447,-187500.02235174447,-187500.02235174447,-187500.02235174447,-187500.02235174447,1730653659.1215029,1730653657.0235674,2000
29870.24544122761,-99445.50388401792,17268.868359192416,-187500.02235174447,-187500.02235174447,-187500.02235174447,-187500.02235174447,-187500.02235174447,1730653659.125614,1730653657.0235674,2000
29871.16186275028,-99446.71087821852,17279.887769208883,-187500.02235174447,-187500.02235174447,-187500.02235174447,-187500.02235174447,-187500.02235174447,1730653659.130566,1730653657.0235674,2000
29862.377627179343,-99435.6244129687,17266.253205091143,-187500.02235174447,-187500.02235174447,-187500.02235174447,-187500.02235174447,-187500.02235174447,1730653659.133555,1730653657.0235674,2000
29868.39024643782,-99447.40378229663,17261.51463526662,-187500.02235174447,-187500.02235174447,-187500.02235174447,-187500.02235174447,-187500.02235174447,1730653659.1365511,1730653657.0235674,2000
29877.71092387568,-99462.3347475928,17271.930548182794,-187500.02235174447,-187500.02235174447,-187500.02235174447,-187500.02235174447,-187500.02235174447,1730653659.1416657,1730653657.0235674,2000
29870.178385994244,-99464.39110808268,17272.355231327445,-187500.02235174447,-187500.02235174447,-187500.02235174447,-187500.02235174447,-187500.02235174447,1730653659.1455796,1730653657.0235674,2000
29859.226031211143,-99467.65446277316,17273.003431916648,-187500.02235174447,-187500.02235174447,-187500.02235174447,-187500.02235174447,-187500.02235174447,1730653659.1496873,1730653657.0235674,2000
29862.981124279635,-99476.66221578864,17268.75660047014,-187500.02235174447,-187500.02235174447,-187500.02235174447,-187500.02235174447,-187500.02235174447,1730653659.1535828,1730653657.0235674,2000
29861.327095189943,-99498.0751869768,17269.494208037166,-187500.02235174447,-187500.02235174447,-187500.02235174447,-187500.02235174447,-187500.02235174447,1730653659.15781,1730653657.0235674,2000
29859.874231800342,-99468.83910522929,17264.398010301353,-187500.02235174447,-187500.02235174447,-187500.02235174447,-187500.02235174447,-187500.02235174447,1730653659.1618564,1730653657.0235674,2000
29866.110368503378,-99448.7225352195,17267.482551036188,-187500.02235174447,-187500.02235174447,-187500.02235174447,-187500.02235174447,-187500.02235174447,1730653659.1647985,1730653657.0235674,2000
29861.327095189943,-99435.44559901304,17270.164760370822,-187500.02235174447,-187500.02235174447,-187500.02235174447,-187500.02235174447,-187500.02235174447,1730653659.169741,1730653657.0235674,2000
29862.86936555736,-99440.43003802658,17271.3270510825,-187500.02235174447,-187500.02235174447,-187500.02235174447,-187500.02235174447,-187500.02235174447,1730653659.1736867,1730653657.0235674,2000
29861.774130079048,-99435.24443331295,17276.110324395933,-187500.02235174447,-187500.02235174447,-187500.02235174447,-187500.02235174447,-187500.02235174447,1730653659.1777112,1730653657.0235674,2000
29860.81300506747,-99472.57184655331,17275.059792406537,-187500.02235174447,-187500.02235174447,-187500.02235174447,-187500.02235174447,-187500.02235174447,1730653659.1816616,1730653657.0235674,2000
29860.43302541173,-99466.76039299494,17269.583615014984,-187500.02235174447,-187500.02235174447,-187500.02235174447,-187500.02235174447,-187500.02235174447,1730653659.185628,1730653657.0235674,2000
29861.05887425648,-99439.35715429272,17266.968460913715,-187500.02235174447,-187500.02235174447,-187500.02235174447,-187500.02235174447,-187500.02235174447,1730653659.1907372,1730653657.0235674,2000
29864.90337430279,-99448.09668637476,17273.294004594565,-187500.02235174447,-187500.02235174447,-187500.02235174447,-187500.02235174447,-187500.02235174447,1730653659.193705,1730653657.0235674,2000
29863.696380102207,-99455.20454111154,17275.126847639902,-187500.02235174447,-187500.02235174447,-187500.02235174447,-187500.02235174447,-187500.02235174447,1730653659.1978316,1730653657.0235674,2000
29865.797444081003,-99483.97123622552,17269.158931870334,-187500.02235174447,-187500.02235174447,-187500.02235174447,-187500.02235174447,-187500.02235174447,1730653659.201822,1730653657.0235674,2000
29857.32613293244,-99451.49415153197,17261.76050445563,-187500.02235174447,-187500.02235174447,-187500.02235174447,-187500.02235174447,-187500.02235174447,1730653659.2059047,1730653657.0235674,2000
29863.40580742429,-99418.74884590492,17281.877074465403,-187500.02235174447,-187500.02235174447,-187500.02235174447,-187500.02235174447,-187500.02235174447,1730653659.209872,1730653657.0235674,2000
29867.36206619288,-99433.25512805642,17278.94899594176,-187500.02235174447,-187500.02235174447,-187500.02235174447,-187500.02235174447,-187500.02235174447,1730653659.2127829,1730653657.0235674,2000
29861.01417076757,-99432.6739827006,17276.69146975177,-187500.02235174447,-187500.02235174447,-187500.02235174447,-187500.02235174447,-187500.02235174447,1730653659.2167752,1730653657.0235674,2000
29857.057911998974,-99426.14727331964,17279.776010486607,-187500.02235174447,-187500.02235174447,-187500.02235174447,-187500.02235174447,-187500.02235174447,1730653659.220713,1730653657.0235674,2000
29857.124967232343,-99443.84985492824,17263.54864401205,-187500.02235174447,-187500.02235174447,-187500.02235174447,-187500.02235174447,-187500.02235174447,1730653659.224854,1730653657.0235674,2000
29873.3523337069,-99433.29983154534,17261.46993177771,-187500.02235174447,-187500.02235174447,-187500.02235174447,-187500.02235174447,-187500.02235174447,1730653659.229668,1730653657.0235674,2000
29876.325115719454,-99431.98107862248,17272.019955160613,-187500.02235174447,-187500.02235174447,-187500.02235174447,-187500.02235174447,-187500.02235174447,1730653659.2338254,1730653657.0235674,2000
29870.04427552751,-99469.30849186284,17273.584577272486,-187500.02235174447,-187500.02235174447,-187500.02235174447,-187500.02235174447,-187500.02235174447,1730653659.2376952,1730653657.0235674,2000
29864.255173713587,-99470.71665176352,17268.533083025584,-187500.02235174447,-187500.02235174447,-187500.02235174447,-187500.02235174447,-187500.02235174447,1730653659.2408764,1730653657.0235674,2000
29859.82952831144,-99449.7730672089,17271.237644104676,-187500.02235174447,-187500.02235174447,-187500.02235174447,-187500.02235174447,-187500.02235174447,1730653659.244845,1730653657.0235674,2000
29855.739159076114,-99454.53398877788,17266.923757424804,-187500.02235174447,-187500.02235174447,-187500.02235174447,-187500.02235174447,-187500.02235174447,1730653659.2488184,1730653657.0235674,2000
29859.740121333616,-99441.21234908252,17267.616661502918,-187500.02235174447,-187500.02235174447,-187500.02235174447,-187500.02235174447,-187500.02235174447,1730653659.2528195,1730653657.0235674,2000
29859.158975977774,-99403.39319746416,17280.67008026482,-187500.02235174447,-187500.02235174447,-187500.02235174447,-187500.02235174447,-187500.02235174447,1730653659.257948,1730653657.0235674,2000
29863.696380102207,-99429.6788489436,17280.491266309175,-187500.02235174447,-187500.02235174447,-187500.02235174447,-187500.02235174447,-187500.02235174447,1730653659.261984,1730653657.0235674,2000
29871.96652555067,-99447.53789276336,17271.863492949426,-187500.02235174447,-187500.02235174447,-187500.02235174447,-187500.02235174447,-187500.02235174447,1730653659.2648988,1730653657.0235674,2000
29868.457301671184,-99452.20940735452,17271.394106315864,-187500.02235174447,-187500.02235174447,-187500.02235174447,-187500.02235174447,-187500.02235174447,1730653659.2689552,1730653657.0235674,2000
29860.90241204529,-99433.27747980088,17268.71189698123,-187500.02235174447,-187500.02235174447,-187500.02235174447,-187500.02235174447,-187500.02235174447,1730653659.2729309,1730653657.0235674,2000
29863.11523474637,-99434.3727152792,17272.04230690507,-187500.02235174447,-187500.02235174447,-187500.02235174447,-187500.02235174447,-187500.02235174447,1730653659.2768154,1730653657.0235674,2000
29866.80327258149,-99451.40474455414,17277.540836041073,-187500.02235174447,-187500.02235174447,-187500.02235174447,-187500.02235174447,-187500.02235174447,1730653659.2829783,1730653657.0235674,2000
29865.886851058825,-99465.73221275,17270.477684793197,-187500.02235174447,-187500.02235174447,-187500.02235174447,-187500.02235174447,-187500.02235174447,1730653659.2860243,1730653657.0235674,2000
29862.757606835083,-99421.60986919522,17263.03455388958,-187500.02235174447,-187500.02235174447,-187500.02235174447,-187500.02235174447,-187500.02235174447,1730653659.2909448,1730653657.0235674,2000
29868.05497027099,-99403.03556955286,17277.965519185724,-187500.02235174447,-187500.02235174447,-187500.02235174447,-187500.02235174447,-187500.02235174447,1730653659.29493,1730653657.0235674,2000
29868.43494992673,-99417.09481681524,17278.211388374733,-187500.02235174447,-187500.02235174447,-187500.02235174447,-187500.02235174447,-187500.02235174447,1730653659.29803,1730653657.0235674,2000
29870.446606927708,-99476.19282915509,17284.626339033406,-187500.02235174447,-187500.02235174447,-187500.02235174447,-187500.02235174447,-187500.02235174447,1730653659.3009813,1730653657.0235674,2000
29863.2493452131,-99469.59906454076,17267.951937669746,-187500.02235174447,-187500.02235174447,-187500.02235174447,-187500.02235174447,-187500.02235174447,1730653659.3049011,1730653657.0235674,2000
29862.35527543489,-99443.17930259458,17263.79451320106,-187500.02235174447,-187500.02235174447,-187500.02235174447,-187500.02235174447,-187500.02235174447,1730653659.3090334,1730653657.0235674,2000
29863.741083591118,-99437.3678490362,17272.779914472096,-187500.02235174447,-187500.02235174447,-187500.02235174447,-187500.02235174447,-187500.02235174447,1730653659.3139596,1730653657.0235674,2000
29861.37179867885,-99431.17641582208,17276.51265579613,-187500.02235174447,-187500.02235174447,-187500.02235174447,-187500.02235174447,-187500.02235174447,1730653659.3180056,1730653657.0235674,2000
29863.852842313398,-99450.84595094276,17274.90333019535,-187500.02235174447,-187500.02235174447,-187500.02235174447,-187500.02235174447,-187500.02235174447,1730653659.3208144,1730653657.0235674,2000
29866.915031303768,-99431.60109896674,17263.012202145124,-187500.02235174447,-187500.02235174447,-187500.02235174447,-187500.02235174447,-187500.02235174447,1730653659.3250437,1730653657.0235674,2000
29865.48451965863,-99422.8168633958,17263.347478311953,-187500.02235174447,-187500.02235174447,-187500.02235174447,-187500.02235174447,-187500.02235174447,1730653659.32881,1730653657.0235674,2000
29868.18908073772,-99417.72066566,17270.969423171213,-187500.02235174447,-187500.02235174447,-187500.02235174447,-187500.02235174447,-187500.02235174447,1730653659.3331065,1730653657.0235674,2000
29865.43981616972,-99432.04813385585,17271.058830149035,-187500.02235174447,-187500.02235174447,-187500.02235174447,-187500.02235174447,-187500.02235174447,1730653659.3370624,1730653657.0235674,2000
29862.779958579536,-99479.50088733446,17281.072411665013,-187500.02235174447,-187500.02235174447,-187500.02235174447,-187500.02235174447,-187500.02235174447,1730653659.3410585,1730653657.0235674,2000
29849.70418807318,-99453.08112538829,17274.255129606143,-187500.02235174447,-187500.02235174447,-187500.02235174447,-187500.02235174447,-187500.02235174447,1730653659.3458643,1730653657.0235674,2000
29855.35917942037,-99444.34159330626,17268.957766170235,-187500.02235174447,-187500.02235174447,-187500.02235174447,-187500.02235174447,-187500.02235174447,1730653659.3490372,1730653657.0235674,2000
29853.503984630584,-99461.30656734784,17265.023859146102,-187500.02235174447,-187500.02235174447,-187500.02235174447,-187500.02235174447,-187500.02235174447,1730653659.3529713,1730653657.0235674,2000
29856.76733932106,-99497.5387451099,17263.347478311953,-187500.02235174447,-187500.02235174447,-187500.02235174447,-187500.02235174447,-187500.02235174447,1730653659.3570795,1730653657.0235674,2000
29855.96267652067,-99494.2306869305,17264.84504519046,-187500.02235174447,-187500.02235174447,-187500.02235174447,-187500.02235174447,-187500.02235174447,1730653659.36107,1730653657.0235674,2000
29858.086092243924,-99439.20069208156,17265.314431824023,-187500.02235174447,-187500.02235174447,-187500.02235174447,-187500.02235174447,-187500.02235174447,1730653659.3650827,1730653657.0235674,2000
29863.62932486884,-99440.94412814906,17263.459237034233,-187500.02235174447,-187500.02235174447,-187500.02235174447,-187500.02235174447,-187500.02235174447,1730653659.370066,1730653657.0235674,2000
29867.0491417705,-99469.48730581847,17273.495170294664,-187500.02235174447,-187500.02235174447,-187500.02235174447,-187500.02235174447,-187500.02235174447,1730653659.3730538,1730653657.0235674,2000
29858.041388755013,-99441.1676455936,17269.360097570432,-187500.02235174447,-187500.02235174447,-187500.02235174447,-187500.02235174447,-187500.02235174447,1730653659.376155,1730653657.0235674,2000
29858.868403299857,-99422.99567735144,17267.84017894747,-187500.02235174447,-187500.02235174447,-187500.02235174447,-187500.02235174447,-187500.02235174447,1730653659.3810852,1730653657.0235674,2000
29866.467996414664,-99435.80322692434,17270.164760370822,-187500.02235174447,-187500.02235174447,-187500.02235174447,-187500.02235174447,-187500.02235174447,1730653659.385065,1730653657.0235674,2000
29857.57200212145,-99441.8158461828,17273.2269493612,-187500.02235174447,-187500.02235174447,-187500.02235174447,-187500.02235174447,-187500.02235174447,1730653659.389164,1730653657.0235674,2000
29863.986952780124,-99446.12973286268,17271.662327249327,-187500.02235174447,-187500.02235174447,-187500.02235174447,-187500.02235174447,-187500.02235174447,1730653659.393011,1730653657.0235674,2000
29865.372760936352,-99441.10059036023,17272.46699004972,-187500.02235174447,-187500.02235174447,-187500.02235174447,-187500.02235174447,-187500.02235174447,1730653659.3970392,1730653657.0235674,2000
29859.114272488867,-99470.00139594096,17265.739114968674,-187500.02235174447,-187500.02235174447,-187500.02235174447,-187500.02235174447,-187500.02235174447,1730653659.401098,1730653657.0235674,2000
29864.121063246857,-99428.33774427626,17262.18518760028,-187500.02235174447,-187500.02235174447,-187500.02235174447,-187500.02235174447,-187500.02235174447,1730653659.4039526,1730653657.0235674,2000
29862.1988132237,-99445.1239043622,17271.528216782597,-187500.02235174447,-187500.02235174447,-187500.02235174447,-187500.02235174447,-187500.02235174447,1730653659.4091988,1730653657.0235674,2000
29861.1482812343,-99438.19486358104,17268.68954523677,-187500.02235174447,-187500.02235174447,-187500.02235174447,-187500.02235174447,-187500.02235174447,1730653659.4129531,1730653657.0235674,2000
29859.18132772223,-99475.85755298824,17275.685641251283,-187500.02235174447,-187500.02235174447,-187500.02235174447,-187500.02235174447,-187500.02235174447,1730653659.4171915,1730653657.0235674,2000
29860.947115534203,-99481.62430305772,17276.646766262864,-187500.02235174447,-187500.02235174447,-187500.02235174447,-187500.02235174447,-187500.02235174447,1730653659.420967,1730653657.0235674,2000
29859.27073470005,-99422.92862211808,17267.527254525095,-187500.02235174447,-187500.02235174447,-187500.02235174447,-187500.02235174447,-187500.02235174447,1730653659.4262395,1730653657.0235674,2000
29858.644885855305,-99440.4747415155,17271.70703073824,-187500.02235174447,-187500.02235174447,-187500.02235174447,-187500.02235174447,-187500.02235174447,1730653659.4289837,1730653657.0235674,2000
29863.875194057848,-99431.221119311,17270.12005688191,-187500.02235174447,-187500.02235174447,-187500.02235174447,-187500.02235174447,-187500.02235174447,1730653659.4321642,1730653657.0235674,2000
