Fp1,Fp2,C3,C4,P7,P8,O1,O2,time_board,time_marker,marker
-763.155610937549,-187500.02235174447,15101.106774938917,-187500.02235174447,-187500.02235174447,-187500.02235174447,-187500.02235174447,-187500.02235174447,1729949572.009494,1729949572.0093913,2000
-807.0991405366827,-187500.02235174447,15404.66581638644,-187500.02235174447,-187500.02235174447,-187500.02235174447,-187500.02235174447,-187500.02235174447,1729949572.0123813,1729949572.0093913,2000
-526.1824162223836,-187500.02235174447,15447.53646225172,-187500.02235174447,-187500.02235174447,-187500.02235174447,-187500.02235174447,-187500.02235174447,1729949572.01547,1729949572.0093913,2000
-750.5715788092111,-187500.02235174447,15252.20456745679,-187500.02235174447,-187500.02235174447,-187500.02235174447,-187500.02235174447,-187500.02235174447,1729949572.0204976,1729949572.0093913,2000
-944.9647003370168,-187500.02235174447,15134.679095110789,-187500.02235174447,-187500.02235174447,-187500.02235174447,-187500.02235174447,-187500.02235174447,1729949572.0243769,1729949572.0093913,2000
-643.2385019348267,-187500.02235174447,15325.920620670391,-187500.02235174447,-187500.02235174447,-187500.02235174447,-187500.02235174447,-187500.02235174447,1729949572.0285916,1729949572.0093913,2000
-335.36557380742715,-187500.02235174447,15403.458822185854,-187500.02235174447,-187500.02235174447,-187500.02235174447,-187500.02235174447,-187500.02235174447,1729949572.0324254,1729949572.0093913,2000
-401.5714408840467,-187500.02235174447,15196.146392362882,-187500.02235174447,-187500.02235174447,-187500.02235174447,-187500.02235174447,-187500.02235174447,1729949572.0364156,1729949572.0093913,2000
-645.3172141691703,-187500.02235174447,15097.306978381514,-187500.02235174447,-187500.02235174447,-187500.02235174447,-187500.02235174447,-187500.02235174447,1729949572.0404365,1729949572.0093913,2000
-621.2890888797151,-187500.02235174447,15241.20750918478,-187500.02235174447,-187500.02235174447,-187500.02235174447,-187500.02235174447,-187500.02235174447,1729949572.043502,1729949572.0093913,2000
-566.6614254309446,-187500.02235174447,15332.55908877362,-187500.02235174447,-187500.02235174447,-187500.02235174447,-187500.02235174447,-187500.02235174447,1729949572.0484324,1729949572.0093913,2000
-714.965249891907,-187500.02235174447,15257.300765192602,-187500.02235174447,-187500.02235174447,-187500.02235174447,-187500.02235174447,-187500.02235174447,1729949572.0526044,1729949572.0093913,2000
-974.6478169736644,-187500.02235174447,15114.048434978538,-187500.02235174447,-187500.02235174447,-187500.02235174447,-187500.02235174447,-187500.02235174447,1729949572.056579,1729949572.0093913,2000
-920.1989674805365,-187500.02235174447,15106.270027908093,-187500.02235174447,-187500.02235174447,-187500.02235174447,-187500.02235174447,-187500.02235174447,1729949572.0605495,1729949572.0093913,2000
-501.8860699994648,-187500.02235174447,15211.211468125755,-187500.02235174447,-187500.02235174447,-187500.02235174447,-187500.02235174447,-187500.02235174447,1729949572.064561,1729949572.0093913,2000
-509.2174421808055,-187500.02235174447,15219.548668807587,-187500.02235174447,-187500.02235174447,-187500.02235174447,-187500.02235174447,-187500.02235174447,1729949572.0685582,1729949572.0093913,2000
-657.0518800082065,-187500.02235174447,15319.572725245089,-187500.02235174447,-187500.02235174447,-187500.02235174447,-187500.02235174447,-187500.02235174447,1729949572.07155,1729949572.0093913,2000
-586.6885884628998,-187500.02235174447,15422.301342761675,-187500.02235174447,-187500.02235174447,-187500.02235174447,-187500.02235174447,-187500.02235174447,1729949572.0765328,1729949572.0093913,2000
-509.8879945144647,-187500.02235174447,15530.193213247445,-187500.02235174447,-187500.02235174447,-187500.02235174447,-187500.02235174447,-187500.02235174447,1729949572.0805686,1729949572.0093913,2000
-557.5419136931794,-187500.02235174447,15460.232253102336,-187500.02235174447,-187500.02235174447,-187500.02235174447,-187500.02235174447,-187500.02235174447,1729949572.0846431,1729949572.0093913,2000
-718.9885638938623,-187500.02235174447,15338.124673142993,-187500.02235174447,-187500.02235174447,-187500.02235174447,-187500.02235174447,-187500.02235174447,1729949572.0886424,1729949572.0093913,2000
-674.0168540497845,-187500.02235174447,15337.454120809332,-187500.02235174447,-187500.02235174447,-187500.02235174447,-187500.02235174447,-187500.02235174447,1729949572.092655,1729949572.0093913,2000
-535.167817493417,-187500.02235174447,15400.866019829038,-187500.02235174447,-187500.02235174447,-187500.02235174447,-187500.02235174447,-187500.02235174447,1729949572.0966887,1729949572.0093913,2000
-536.330108205093,-187500.02235174447,15356.743676274262,-187500.02235174447,-187500.02235174447,-187500.02235174447,-187500.02235174447,-187500.02235174447,1729949572.0996056,1729949572.0093913,2000
-740.4909420598677,-187500.02235174447,15106.359434885911,-187500.02235174447,-187500.02235174447,-187500.02235174447,-187500.02235174447,-187500.02235174447,1729949572.1046813,1729949572.0093913,2000
-832.0660390932608,-187500.02235174447,15117.401196646832,-187500.02235174447,-187500.02235174447,-187500.02235174447,-187500.02235174447,-187500.02235174447,1729949572.1087768,1729949572.0093913,2000
-685.4609472109017,-187500.02235174447,15364.65619381144,-187500.02235174447,-187500.02235174447,-187500.02235174447,-187500.02235174447,-187500.02235174447,1729949572.1127264,1729949572.0093913,2000
-510.3350294035709,-187500.02235174447,15536.898736584037,-187500.02235174447,-187500.02235174447,-187500.02235174447,-187500.02235174447,-187500.02235174447,1729949572.1166334,1729949572.0093913,2000
-637.5611588431786,-187500.02235174447,15202.740156977196,-187500.02235174447,-187500.02235174447,-187500.02235174447,-187500.02235174447,-187500.02235174447,1729949572.119641,1729949572.0093913,2000
-714.2946975582478,-187500.02235174447,15105.42066161879,-187500.02235174447,-187500.02235174447,-187500.02235174447,-187500.02235174447,-187500.02235174447,1729949572.1235733,1729949572.0093913,2000
-633.8060657746871,-187500.02235174447,15297.153925556411,-187500.02235174447,-187500.02235174447,-187500.02235174447,-187500.02235174447,-187500.02235174447,1729949572.1276488,1729949572.0093913,2000
-533.4243814259031,-187500.02235174447,15443.2449273163,-187500.02235174447,-187500.02235174447,-187500.02235174447,-187500.02235174447,-187500.02235174447,1729949572.1317005,1729949572.0093913,2000
-601.3066293366707,-187500.02235174447,15325.65239973693,-187500.02235174447,-187500.02235174447,-187500.02235174447,-187500.02235174447,-187500.02235174447,1729949572.1367917,1729949572.0093913,2000
-730.5891192661667,-187500.02235174447,15148.984211562183,-187500.02235174447,-187500.02235174447,-187500.02235174447,-187500.02235174447,-187500.02235174447,1729949572.140647,1729949572.0093913,2000
-678.8001273632202,-187500.02235174447,15216.642942028397,-187500.02235174447,-187500.02235174447,-187500.02235174447,-187500.02235174447,-187500.02235174447,1729949572.1445975,1729949572.0093913,2000
-561.0958410615732,-187500.02235174447,15404.218781497337,-187500.02235174447,-187500.02235174447,-187500.02235174447,-187500.02235174447,-187500.02235174447,1729949572.147725,1729949572.0093913,2000
-629.939213983919,-187500.02235174447,15326.41235904841,-187500.02235174447,-187500.02235174447,-187500.02235174447,-187500.02235174447,-187500.02235174447,1729949572.1517844,1729949572.0093913,2000
-745.0059944398397,-187500.02235174447,15218.229915884724,-187500.02235174447,-187500.02235174447,-187500.02235174447,-187500.02235174447,-187500.02235174447,1729949572.1557796,1729949572.0093913,2000
-651.7321648278433,-187500.02235174447,15262.240500717224,-187500.02235174447,-187500.02235174447,-187500.02235174447,-187500.02235174447,-187500.02235174447,1729949572.1597855,1729949572.0093913,2000
-450.87938915245405,-187500.02235174447,15520.850184065126,-187500.02235174447,-187500.02235174447,-187500.02235174447,-187500.02235174447,-187500.02235174447,1729949572.1646988,1729949572.0093913,2000
-612.3036876086817,-187500.02235174447,15342.393856333954,-187500.02235174447,-187500.02235174447,-187500.02235174447,-187500.02235174447,-187500.02235174447,1729949572.1687715,1729949572.0093913,2000
-745.5424363067671,-187500.02235174447,15095.697652780733,-187500.02235174447,-187500.02235174447,-187500.02235174447,-187500.02235174447,-187500.02235174447,1729949572.17268,1729949572.0093913,2000
-693.194650792438,-187500.02235174447,15126.408949662324,-187500.02235174447,-187500.02235174447,-187500.02235174447,-187500.02235174447,-187500.02235174447,1729949572.175881,1729949572.0093913,2000
-568.6283789430116,-187500.02235174447,15387.700842344862,-187500.02235174447,-187500.02235174447,-187500.02235174447,-187500.02235174447,-187500.02235174447,1729949572.179783,1729949572.0093913,2000
-555.3067392476487,-187500.02235174447,15393.780516836709,-187500.02235174447,-187500.02235174447,-187500.02235174447,-187500.02235174447,-187500.02235174447,1729949572.18374,1729949572.0093913,2000
-707.6785811994769,-187500.02235174447,15224.846032243497,-187500.02235174447,-187500.02235174447,-187500.02235174447,-187500.02235174447,-187500.02235174447,1729949572.187827,1729949572.0093913,2000
-668.3395109581364,-187500.02235174447,15215.234782127713,-187500.02235174447,-187500.02235174447,-187500.02235174447,-187500.02235174447,-187500.02235174447,1729949572.1918888,1729949572.0093913,2000
-528.0599627566294,-187500.02235174447,15414.455880457865,-187500.02235174447,-187500.02235174447,-187500.02235174447,-187500.02235174447,-187500.02235174447,1729949572.1968195,1729949572.0093913,2000
-572.6963964338776,-187500.02235174447,15424.491813718298,-187500.02235174447,-187500.02235174447,-187500.02235174447,-187500.02235174447,-187500.02235174447,1729949572.2007856,1729949572.0093913,2000
-689.8642408685972,-187500.02235174447,15237.810044027574,-187500.02235174447,-187500.02235174447,-187500.02235174447,-187500.02235174447,-187500.02235174447,1729949572.2036884,1729949572.0093913,2000
-707.4550637549238,-187500.02235174447,15187.183342836302,-187500.02235174447,-187500.02235174447,-187500.02235174447,-187500.02235174447,-187500.02235174447,1729949572.207686,1729949572.0093913,2000
-546.8354280990873,-187500.02235174447,15412.444223456889,-187500.02235174447,-187500.02235174447,-187500.02235174447,-187500.02235174447,-187500.02235174447,1729949572.2117784,1729949572.0093913,2000
-505.28353515667146,-187500.02235174447,15402.207124496355,-187500.02235174447,-187500.02235174447,-187500.02235174447,-187500.02235174447,-187500.02235174447,1729949572.2157712,1729949572.0093913,2000
-644.4901996243239,-187500.02235174447,15208.886886702408,-187500.02235174447,-187500.02235174447,-187500.02235174447,-187500.02235174447,-187500.02235174447,1729949572.2197647,1729949572.0093913,2000
-736.6240902690996,-187500.02235174447,15157.05319131055,-187500.02235174447,-187500.02235174447,-187500.02235174447,-187500.02235174447,-187500.02235174447,1729949572.224775,1729949572.0093913,2000
-628.8216267611535,-187500.02235174447,15340.136330143969,-187500.02235174447,-187500.02235174447,-187500.02235174447,-187500.02235174447,-187500.02235174447,1729949572.2288525,1729949572.0093913,2000
-547.1930560103722,-187500.02235174447,15452.073866376146,-187500.02235174447,-187500.02235174447,-187500.02235174447,-187500.02235174447,-187500.02235174447,1729949572.2317903,1729949572.0093913,2000
-701.5094997298122,-187500.02235174447,15221.627381041932,-187500.02235174447,-187500.02235174447,-187500.02235174447,-187500.02235174447,-187500.02235174447,1729949572.235957,1729949572.0093913,2000
-759.3334626356915,-187500.02235174447,15146.302002227549,-187500.02235174447,-187500.02235174447,-187500.02235174447,-187500.02235174447,-187500.02235174447,1729949572.2400415,1729949572.0093913,2000
-591.9636001543522,-187500.02235174447,15343.489091812266,-187500.02235174447,-187500.02235174447,-187500.02235174447,-187500.02235174447,-187500.02235174447,1729949572.2439728,1729949572.0093913,2000
-403.9854292852198,-187500.02235174447,15498.856067521105,-187500.02235174447,-187500.02235174447,-187500.02235174447,-187500.02235174447,-187500.02235174447,1729949572.2479334,1729949572.0093913,2000
-449.8065054185993,-187500.02235174447,15364.65619381144,-187500.02235174447,-187500.02235174447,-187500.02235174447,-187500.02235174447,-187500.02235174447,1729949572.252982,1729949572.0093913,2000
-684.4551187104129,-187500.02235174447,15223.080244431523,-187500.02235174447,-187500.02235174447,-187500.02235174447,-187500.02235174447,-187500.02235174447,1729949572.2557888,1729949572.0093913,2000
-657.3648044305808,-187500.02235174447,15326.926449170882,-187500.02235174447,-187500.02235174447,-187500.02235174447,-187500.02235174447,-187500.02235174447,1729949572.2598853,1729949572.0093913,2000
-549.8752653450091,-187500.02235174447,15476.370212599066,-187500.02235174447,-187500.02235174447,-187500.02235174447,-187500.02235174447,-187500.02235174447,1729949572.2638412,1729949572.0093913,2000
-619.7915220012095,-187500.02235174447,15366.846664768062,-187500.02235174447,-187500.02235174447,-187500.02235174447,-187500.02235174447,-187500.02235174447,1729949572.267912,1729949572.0093913,2000
-722.5201395178008,-187500.02235174447,15225.047197943592,-187500.02235174447,-187500.02235174447,-187500.02235174447,-187500.02235174447,-187500.02235174447,1729949572.271799,1729949572.0093913,2000
-696.8603368831083,-187500.02235174447,15250.68464883383,-187500.02235174447,-187500.02235174447,-187500.02235174447,-187500.02235174447,-187500.02235174447,1729949572.2760465,1729949572.0093913,2000
-566.6390736864894,-187500.02235174447,15402.609455896552,-187500.02235174447,-187500.02235174447,-187500.02235174447,-187500.02235174447,-187500.02235174447,1729949572.2811,1729949572.0093913,2000
-596.5904112566008,-187500.02235174447,15352.966231461316,-187500.02235174447,-187500.02235174447,-187500.02235174447,-187500.02235174447,-187500.02235174447,1729949572.2840264,1729949572.0093913,2000
-752.9408637214738,-187500.02235174447,15158.48370295569,-187500.02235174447,-187500.02235174447,-187500.02235174447,-187500.02235174447,-187500.02235174447,1729949572.287058,1729949572.0093913,2000
-661.5222288992678,-187500.02235174447,15266.085000763536,-187500.02235174447,-187500.02235174447,-187500.02235174447,-187500.02235174447,-187500.02235174447,1729949572.291849,1729949572.0093913,2000
-479.0202354216856,-187500.02235174447,15468.033011917236,-187500.02235174447,-187500.02235174447,-187500.02235174447,-187500.02235174447,-187500.02235174447,1729949572.2960544,1729949572.0093913,2000
-476.11450864249576,-187500.02235174447,15440.160386581469,-187500.02235174447,-187500.02235174447,-187500.02235174447,-187500.02235174447,-187500.02235174447,1729949572.2999284,1729949572.0093913,2000
-659.7787928317539,-187500.02235174447,15242.481558618732,-187500.02235174447,-187500.02235174447,-187500.02235174447,-187500.02235174447,-187500.02235174447,1729949572.3040657,1729949572.0093913,2000
-701.5989067076334,-187500.02235174447,15235.977200982235,-187500.02235174447,-187500.02235174447,-187500.02235174447,-187500.02235174447,-187500.02235174447,1729949572.3089917,1729949572.0093913,2000
-576.4291377579138,-187500.02235174447,15386.71736558883,-187500.02235174447,-187500.02235174447,-187500.02235174447,-187500.02235174447,-187500.02235174447,1729949572.3120904,1729949572.0093913,2000
-505.4176456234033,-187500.02235174447,15413.38299672401,-187500.02235174447,-187500.02235174447,-187500.02235174447,-187500.02235174447,-187500.02235174447,1729949572.3150504,1729949572.0093913,2000
-634.1189901970614,-187500.02235174447,15231.886831746917,-187500.02235174447,-187500.02235174447,-187500.02235174447,-187500.02235174447,-187500.02235174447,1729949572.3200936,1729949572.0093913,2000
-812.6870766505095,-187500.02235174447,15154.840368609472,-187500.02235174447,-187500.02235174447,-187500.02235174447,-187500.02235174447,-187500.02235174447,1729949572.323924,1729949572.0093913,2000
-631.2132634178714,-187500.02235174447,15340.60571677753,-187500.02235174447,-187500.02235174447,-187500.02235174447,-187500.02235174447,-187500.02235174447,1729949572.3281093,1729949572.0093913,2000
-456.3555665440043,-187500.02235174447,15496.218561675378,-187500.02235174447,-187500.02235174447,-187500.02235174447,-187500.02235174447,-187500.02235174447,1729949572.3320365,1729949572.0093913,2000
-575.4456610018804,-187500.02235174447,15358.017725708214,-187500.02235174447,-187500.02235174447,-187500.02235174447,-187500.02235174447,-187500.02235174447,1729949572.336954,1729949572.0093913,2000
-698.2461450393373,-187500.02235174447,15198.113345874948,-187500.02235174447,-187500.02235174447,-187500.02235174447,-187500.02235174447,-187500.02235174447,1729949572.3401415,1729949572.0093913,2000
-694.8039763932201,-187500.02235174447,15283.720527138774,-187500.02235174447,-187500.02235174447,-187500.02235174447,-187500.02235174447,-187500.02235174447,1729949572.34302,1729949572.0093913,2000
-544.3990879534588,-187500.02235174447,15426.972857352835,-187500.02235174447,-187500.02235174447,-187500.02235174447,-187500.02235174447,-187500.02235174447,1729949572.3479812,1729949572.0093913,2000
-497.28161064167153,-187500.02235174447,15401.737737862795,-187500.02235174447,-187500.02235174447,-187500.02235174447,-187500.02235174447,-187500.02235174447,1729949572.351973,1729949572.0093913,2000
-665.0538045232064,-187500.02235174447,15239.754645795185,-187500.02235174447,-187500.02235174447,-187500.02235174447,-187500.02235174447,-187500.02235174447,1729949572.3560212,1729949572.0093913,2000
-656.6719003524662,-187500.02235174447,15298.293864523634,-187500.02235174447,-187500.02235174447,-187500.02235174447,-187500.02235174447,-187500.02235174447,1729949572.3600547,1729949572.0093913,2000
-527.6352796119785,-187500.02235174447,15483.858046991594,-187500.02235174447,-187500.02235174447,-187500.02235174447,-187500.02235174447,-187500.02235174447,1729949572.364012,1729949572.0093913,2000
-552.0210328127185,-187500.02235174447,15386.605606866551,-187500.02235174447,-187500.02235174447,-187500.02235174447,-187500.02235174447,-187500.02235174447,1729949572.3670871,1729949572.0093913,2000
-685.2821332552593,-187500.02235174447,15204.282427344611,-187500.02235174447,-187500.02235174447,-187500.02235174447,-187500.02235174447,-187500.02235174447,1729949572.3710992,1729949572.0093913,2000
-693.3734647480804,-187500.02235174447,15233.742026536707,-187500.02235174447,-187500.02235174447,-187500.02235174447,-187500.02235174447,-187500.02235174447,1729949572.376012,1729949572.0093913,2000
-510.4467881258474,-187500.02235174447,15449.481064019332,-187500.02235174447,-187500.02235174447,-187500.02235174447,-187500.02235174447,-187500.02235174447,1729949572.3801267,1729949572.0093913,2000
-518.0240294961965,-187500.02235174447,15458.10883737908,-187500.02235174447,-187500.02235174447,-187500.02235174447,-187500.02235174447,-187500.02235174447,1729949572.384148,1729949572.0093913,2000
-690.7806623912647,-187500.02235174447,15232.624439313942,-187500.02235174447,-187500.02235174447,-187500.02235174447,-187500.02235174447,-187500.02235174447,1729949572.388111,1729949572.0093913,2000
-681.4599849534018,-187500.02235174447,15233.742026536707,-187500.02235174447,-187500.02235174447,-187500.02235174447,-187500.02235174447,-187500.02235174447,1729949572.391054,1729949572.0093913,2000
-535.2348727267829,-187500.02235174447,15452.476197776345,-187500.02235174447,-187500.02235174447,-187500.02235174447,-187500.02235174447,-187500.02235174447,1729949572.3950636,1729949572.0093913,2000
-462.6140549914903,-187500.02235174447,15443.289630805211,-187500.02235174447,-187500.02235174447,-187500.02235174447,-187500.02235174447,-187500.02235174447,1729949572.399022,1729949572.0093913,2000
-650.5251706272568,-187500.02235174447,15240.87223301795,-187500.02235174447,-187500.02235174447,-187500.02235174447,-187500.02235174447,-187500.02235174447,1729949572.4040265,1729949572.0093913,2000
-769.3693958961244,-187500.02235174447,15192.257188827658,-187500.02235174447,-187500.02235174447,-187500.02235174447,-187500.02235174447,-187500.02235174447,1729949572.408074,1729949572.0093913,2000
-574.9986261127742,-187500.02235174447,15382.09055448658,-187500.02235174447,-187500.02235174447,-187500.02235174447,-187500.02235174447,-187500.02235174447,1729949572.4122057,1729949572.0093913,2000
-472.784098718655,-187500.02235174447,15476.101991665602,-187500.02235174447,-187500.02235174447,-187500.02235174447,-187500.02235174447,-187500.02235174447,1729949572.4161067,1729949572.0093913,2000
-677.6601883959995,-187500.02235174447,15290.493105708732,-187500.02235174447,-187500.02235174447,-187500.02235174447,-187500.02235174447,-187500.02235174447,1729949572.4191513,1729949572.0093913,2000
-704.1693573199937,-187500.02235174447,15227.751759022683,-187500.02235174447,-187500.02235174447,-187500.02235174447,-187500.02235174447,-187500.02235174447,1729949572.4232483,1729949572.0093913,2000
-558.1230590490173,-187500.02235174447,15387.007938266748,-187500.02235174447,-187500.02235174447,-187500.02235174447,-187500.02235174447,-187500.02235174447,1729949572.4272935,1729949572.0093913,2000
-475.8686394534874,-187500.02235174447,15503.147602456524,-187500.02235174447,-187500.02235174447,-187500.02235174447,-187500.02235174447,-187500.02235174447,1729949572.4322171,1729949572.0093913,2000
-621.7808272577319,-187500.02235174447,15315.728225198774,-187500.02235174447,-187500.02235174447,-187500.02235174447,-187500.02235174447,-187500.02235174447,1729949572.43614,1729949572.0093913,2000
-690.8253658801754,-187500.02235174447,15222.744968264697,-187500.02235174447,-187500.02235174447,-187500.02235174447,-187500.02235174447,-187500.02235174447,1729949572.44006,1729949572.0093913,2000
-612.2366323753157,-187500.02235174447,15358.80003676415,-187500.02235174447,-187500.02235174447,-187500.02235174447,-187500.02235174447,-187500.02235174447,1729949572.444232,1729949572.0093913,2000
-485.97162794728615,-187500.02235174447,15495.63741631954,-187500.02235174447,-187500.02235174447,-187500.02235174447,-187500.02235174447,-187500.02235174447,1729949572.4471984,1729949572.0093913,2000
-548.780029866699,-187500.02235174447,15388.080822000602,-187500.02235174447,-187500.02235174447,-187500.02235174447,-187500.02235174447,-187500.02235174447,1729949572.4512815,1729949572.0093913,2000
-696.7709299052871,-187500.02235174447,15200.594389509486,-187500.02235174447,-187500.02235174447,-187500.02235174447,-187500.02235174447,-187500.02235174447,1729949572.455278,1729949572.0093913,2000
-673.0557290382063,-187500.02235174447,15285.866294606483,-187500.02235174447,-187500.02235174447,-187500.02235174447,-187500.02235174447,-187500.02235174447,1729949572.459195,1729949572.0093913,2000
-544.4214396979141,-187500.02235174447,15432.314924277654,-187500.02235174447,-187500.02235174447,-187500.02235174447,-187500.02235174447,-187500.02235174447,1729949572.4631872,1729949572.0093913,2000
-574.3951290124809,-187500.02235174447,15372.74752530426,-187500.02235174447,-187500.02235174447,-187500.02235174447,-187500.02235174447,-187500.02235174447,1729949572.4682164,1729949572.0093913,2000
-647.775906059254,-187500.02235174447,15262.754590839697,-187500.02235174447,-187500.02235174447,-187500.02235174447,-187500.02235174447,-187500.02235174447,1729949572.4721787,1729949572.0093913,2000
-616.3270016106369,-187500.02235174447,15315.437652520855,-187500.02235174447,-187500.02235174447,-187500.02235174447,-187500.02235174447,-187500.02235174447,1729949572.475273,1729949572.0093913,2000
-509.9326980033753,-187500.02235174447,15471.63164277454,-187500.02235174447,-187500.02235174447,-187500.02235174447,-187500.02235174447,-187500.02235174447,1729949572.4793804,1729949572.0093913,2000
-512.0784654710848,-187500.02235174447,15381.107077730549,-187500.02235174447,-187500.02235174447,-187500.02235174447,-187500.02235174447,-187500.02235174447,1729949572.4832194,1729949572.0093913,2000
-708.125616088583,-187500.02235174447,15229.316381134557,-187500.02235174447,-187500.02235174447,-187500.02235174447,-187500.02235174447,-187500.02235174447,1729949572.487218,1729949572.0093913,2000
-716.708685959421,-187500.02235174447,15278.624329402965,-187500.02235174447,-187500.02235174447,-187500.02235174447,-187500.02235174447,-187500.02235174447,1729949572.491233,1729949572.0093913,2000
-500.3437996320486,-187500.02235174447,15484.282730136243,-187500.02235174447,-187500.02235174447,-187500.02235174447,-187500.02235174447,-187500.02235174447,1729949572.496292,1729949572.0093913,2000
-487.8715262259873,-187500.02235174447,15438.752226680785,-187500.02235174447,-187500.02235174447,-187500.02235174447,-187500.02235174447,-187500.02235174447,1729949572.4992893,1729949572.0093913,2000
-701.2189270518932,-187500.02235174447,15231.909183491372,-187500.02235174447,-187500.02235174447,-187500.02235174447,-187500.02235174447,-187500.02235174447,1729949572.5035217,1729949572.0093913,2000
-713.3782760355803,-187500.02235174447,15243.576794097042,-187500.02235174447,-187500.02235174447,-187500.02235174447,-187500.02235174447,-187500.02235174447,1729949572.5072453,1729949572.0093913,2000
-557.810134626643,-187500.02235174447,15419.216802026844,-187500.02235174447,-187500.02235174447,-187500.02235174447,-187500.02235174447,-187500.02235174447,1729949572.5114183,1729949572.0093913,2000
-507.5187096022021,-187500.02235174447,15480.706451023396,-187500.02235174447,-187500.02235174447,-187500.02235174447,-187500.02235174447,-187500.02235174447,1729949572.515242,1729949572.0093913,2000
-662.0363190217399,-187500.02235174447,15297.623312189977,-187500.02235174447,-187500.02235174447,-187500.02235174447,-187500.02235174447,-187500.02235174447,1729949572.5193825,1729949572.0093913,2000
-749.1187154196163,-187500.02235174447,15171.76063916214,-187500.02235174447,-187500.02235174447,-187500.02235174447,-187500.02235174447,-187500.02235174447,1729949572.5242088,1729949572.0093913,2000
-562.7722218957213,-187500.02235174447,15402.788269852195,-187500.02235174447,-187500.02235174447,-187500.02235174447,-187500.02235174447,-187500.02235174447,1729949572.5285635,1729949572.0093913,2000
-427.18654002982856,-187500.02235174447,15548.298126256244,-187500.02235174447,-187500.02235174447,-187500.02235174447,-187500.02235174447,-187500.02235174447,1729949572.5313468,1729949572.0093913,2000
-542.2309687412941,-187500.02235174447,15348.56293780362,-187500.02235174447,-187500.02235174447,-187500.02235174447,-187500.02235174447,-187500.02235174447,1729949572.5354164,1729949572.0093913,2000
-682.6669791539883,-187500.02235174447,15237.541823094109,-187500.02235174447,-187500.02235174447,-187500.02235174447,-187500.02235174447,-187500.02235174447,1729949572.5395875,1729949572.0093913,2000
-652.8050485616981,-187500.02235174447,15339.46577781031,-187500.02235174447,-187500.02235174447,-187500.02235174447,-187500.02235174447,-187500.02235174447,1729949572.5434496,1729949572.0093913,2000
-533.9831750372857,-187500.02235174447,15475.20792188739,-187500.02235174447,-187500.02235174447,-187500.02235174447,-187500.02235174447,-187500.02235174447,1729949572.54748,1729949572.0093913,2000
-620.7973505016984,-187500.02235174447,15316.756405443715,-187500.02235174447,-187500.02235174447,-187500.02235174447,-187500.02235174447,-187500.02235174447,1729949572.552388,1729949572.0093913,2000
-686.5561826892117,-187500.02235174447,15160.160083789837,-187500.02235174447,-187500.02235174447,-187500.02235174447,-187500.02235174447,-187500.02235174447,1729949572.5554757,1729949572.0093913,2000
-584.5651727396456,-187500.02235174447,15342.863242967516,-187500.02235174447,-187500.02235174447,-187500.02235174447,-187500.02235174447,-187500.02235174447,1729949572.559538,1729949572.0093913,2000
-474.3040173416159,-187500.02235174447,15518.145622986034,-187500.02235174447,-187500.02235174447,-187500.02235174447,-187500.02235174447,-187500.02235174447,1729949572.5634484,1729949572.0093913,2000
-560.2017712833609,-187500.02235174447,15441.456787759877,-187500.02235174447,-187500.02235174447,-187500.02235174447,-187500.02235174447,-187500.02235174447,1729949572.567438,1729949572.0093913,2000
-681.4376332089464,-187500.02235174447,15247.555404610088,-187500.02235174447,-187500.02235174447,-187500.02235174447,-187500.02235174447,-187500.02235174447,1729949572.5713522,1729949572.0093913,2000
-641.9421007564189,-187500.02235174447,15285.374556228468,-187500.02235174447,-187500.02235174447,-187500.02235174447,-187500.02235174447,-187500.02235174447,1729949572.5753295,1729949572.0093913,2000
-497.4827763417693,-187500.02235174447,15457.326526323144,-187500.02235174447,-187500.02235174447,-187500.02235174447,-187500.02235174447,-187500.02235174447,1729949572.580536,1729949572.0093913,2000
-518.0910847295625,-187500.02235174447,15422.569563695142,-187500.02235174447,-187500.02235174447,-187500.02235174447,-187500.02235174447,-187500.02235174447,1729949572.583518,1729949572.0093913,2000
-725.224700596893,-187500.02235174447,15209.423328569334,-187500.02235174447,-187500.02235174447,-187500.02235174447,-187500.02235174447,-187500.02235174447,1729949572.587459,1729949572.0093913,2000
-777.5948378556774,-187500.02235174447,15187.630377725409,-187500.02235174447,-187500.02235174447,-187500.02235174447,-187500.02235174447,-187500.02235174447,1729949572.591292,1729949572.0093913,2000
-541.940396063375,-187500.02235174447,15418.412139226455,-187500.02235174447,-187500.02235174447,-187500.02235174447,-187500.02235174447,-187500.02235174447,1729949572.5955017,1729949572.0093913,2000
-467.0620521380964,-187500.02235174447,15492.374061629063,-187500.02235174447,-187500.02235174447,-187500.02235174447,-187500.02235174447,-187500.02235174447,1729949572.599296,1729949572.0093913,2000
-618.6292312895335,-187500.02235174447,15318.969228144791,-187500.02235174447,-187500.02235174447,-187500.02235174447,-187500.02235174447,-187500.02235174447,1729949572.6034114,1729949572.0093913,2000
-653.5426561287233,-187500.02235174447,15296.59513194503,-187500.02235174447,-187500.02235174447,-187500.02235174447,-187500.02235174447,-187500.02235174447,1729949572.6084075,1729949572.0093913,2000
-547.6177391550231,-187500.02235174447,15410.164345522446,-187500.02235174447,-187500.02235174447,-187500.02235174447,-187500.02235174447,-187500.02235174447,1729949572.611342,1729949572.0093913,2000
-504.27770665618266,-187500.02235174447,15477.599558544109,-187500.02235174447,-187500.02235174447,-187500.02235174447,-187500.02235174447,-187500.02235174447,1729949572.6154044,1729949572.0093913,2000
-618.9421557119078,-187500.02235174447,15329.519251527698,-187500.02235174447,-187500.02235174447,-187500.02235174447,-187500.02235174447,-187500.02235174447,1729949572.6195076,1729949572.0093913,2000
-661.7680980882762,-187500.02235174447,15242.503910363188,-187500.02235174447,-187500.02235174447,-187500.02235174447,-187500.02235174447,-187500.02235174447,1729949572.6233222,1729949572.0093913,2000
-571.8917336334865,-187500.02235174447,15347.221833136302,-187500.02235174447,-187500.02235174447,-187500.02235174447,-187500.02235174447,-187500.02235174447,1729949572.6275263,1729949572.0093913,2000
-513.1737009493949,-187500.02235174447,15428.33631376461,-187500.02235174447,-187500.02235174447,-187500.02235174447,-187500.02235174447,-187500.02235174447,1729949572.6314876,1729949572.0093913,2000
-614.5388620542124,-187500.02235174447,15288.772021385674,-187500.02235174447,-187500.02235174447,-187500.02235174447,-187500.02235174447,-187500.02235174447,1729949572.6355424,1729949572.0093913,2000
-720.8661104281081,-187500.02235174447,15200.594389509486,-187500.02235174447,-187500.02235174447,-187500.02235174447,-187500.02235174447,-187500.02235174447,1729949572.638618,1729949572.0093913,2000
-642.0538594786954,-187500.02235174447,15350.306373871132,-187500.02235174447,-187500.02235174447,-187500.02235174447,-187500.02235174447,-187500.02235174447,1729949572.642498,1729949572.0093913,2000
-500.589668821057,-187500.02235174447,15491.725861039862,-187500.02235174447,-187500.02235174447,-187500.02235174447,-187500.02235174447,-187500.02235174447,1729949572.647569,1729949572.0093913,2000
-550.2552450007493,-187500.02235174447,15369.171246191412,-187500.02235174447,-187500.02235174447,-187500.02235174447,-187500.02235174447,-187500.02235174447,1729949572.6515713,1729949572.0093913,2000
-640.645699578011,-187500.02235174447,15230.836299757517,-187500.02235174447,-187500.02235174447,-187500.02235174447,-187500.02235174447,-187500.02235174447,1729949572.6554625,1729949572.0093913,2000
-639.6398710775222,-187500.02235174447,15308.106280339514,-187500.02235174447,-187500.02235174447,-187500.02235174447,-187500.02235174447,-187500.02235174447,1729949572.6595387,1729949572.0093913,2000
-534.2513959707494,-187500.02235174447,15503.68404432345,-187500.02235174447,-187500.02235174447,-187500.02235174447,-187500.02235174447,-187500.02235174447,1729949572.6625829,1729949572.0093913,2000
-545.7401926207773,-187500.02235174447,15464.59084327112,-187500.02235174447,-187500.02235174447,-187500.02235174447,-187500.02235174447,-187500.02235174447,1729949572.666492,1729949572.0093913,2000
-668.0265865357621,-187500.02235174447,15270.60005314351,-187500.02235174447,-187500.02235174447,-187500.02235174447,-187500.02235174447,-187500.02235174447,1729949572.6705413,1729949572.0093913,2000
-688.7243019013765,-187500.02235174447,15242.43685512982,-187500.02235174447,-187500.02235174447,-187500.02235174447,-187500.02235174447,-187500.02235174447,1729949572.6755924,1729949572.0093913,2000
-559.7994398831654,-187500.02235174447,15466.021354916258,-187500.02235174447,-187500.02235174447,-187500.02235174447,-187500.02235174447,-187500.02235174447,1729949572.6796553,1729949572.0093913,2000
-536.4418669273695,-187500.02235174447,15446.977668640337,-187500.02235174447,-187500.02235174447,-187500.02235174447,-187500.02235174447,-187500.02235174447,1729949572.683653,1729949572.0093913,2000
-673.1004325271169,-187500.02235174447,15249.701172077795,-187500.02235174447,-187500.02235174447,-187500.02235174447,-187500.02235174447,-187500.02235174447,1729949572.6875825,1729949572.0093913,2000
-645.4960281248127,-187500.02235174447,15272.052916533105,-187500.02235174447,-187500.02235174447,-187500.02235174447,-187500.02235174447,-187500.02235174447,1729949572.690599,1729949572.0093913,2000
-504.9929624787525,-187500.02235174447,15439.489834247808,-187500.02235174447,-187500.02235174447,-187500.02235174447,-187500.02235174447,-187500.02235174447,1729949572.6944351,1729949572.0093913,2000
-500.2767443986827,-187500.02235174447,15438.662819702962,-187500.02235174447,-187500.02235174447,-187500.02235174447,-187500.02235174447,-187500.02235174447,1729949572.698537,1729949572.0093913,2000
-628.6875162944217,-187500.02235174447,15284.16756202788,-187500.02235174447,-187500.02235174447,-187500.02235174447,-187500.02235174447,-187500.02235174447,1729949572.703618,1729949572.0093913,2000
-675.2685517392816,-187500.02235174447,15260.184140227337,-187500.02235174447,-187500.02235174447,-187500.02235174447,-187500.02235174447,-187500.02235174447,1729949572.7074769,1729949572.0093913,2000
-568.7848411541988,-187500.02235174447,15415.19348802489,-187500.02235174447,-187500.02235174447,-187500.02235174447,-187500.02235174447,-187500.02235174447,1729949572.7116582,1729949572.0093913,2000
-502.9589537333195,-187500.02235174447,15447.402351784987,-187500.02235174447,-187500.02235174447,-187500.02235174447,-187500.02235174447,-187500.02235174447,1729949572.7155418,1729949572.0093913,2000
-577.4796697473133,-187500.02235174447,15318.678655466874,-187500.02235174447,-187500.02235174447,-187500.02235174447,-187500.02235174447,-187500.02235174447,1729949572.7196662,1729949572.0093913,2000
-692.5911536921446,-187500.02235174447,15236.35718063798,-187500.02235174447,-187500.02235174447,-187500.02235174447,-187500.02235174447,-187500.02235174447,1729949572.7236404,1729949572.0093913,2000
-605.6875712499108,-187500.02235174447,15362.778647277197,-187500.02235174447,-187500.02235174447,-187500.02235174447,-187500.02235174447,-187500.02235174447,1729949572.7277143,1729949572.0093913,2000
-465.8997614264204,-187500.02235174447,15495.190381430431,-187500.02235174447,-187500.02235174447,-187500.02235174447,-187500.02235174447,-187500.02235174447,1729949572.730796,1729949572.0093913,2000
-535.5925006380678,-187500.02235174447,15357.973022219305,-187500.02235174447,-187500.02235174447,-187500.02235174447,-187500.02235174447,-187500.02235174447,1729949572.73472,1729949572.0093913,2000
-666.0372812792399,-187500.02235174447,15216.330017606024,-187500.02235174447,-187500.02235174447,-187500.02235174447,-187500.02235174447,-187500.02235174447,1729949572.7387214,1729949572.0093913,2000
-676.6096564066,-187500.02235174447,15334.950725430335,-187500.02235174447,-187500.02235174447,-187500.02235174447,-187500.02235174447,-187500.02235174447,1729949572.7428231,1729949572.0093913,2000
-505.61881132350106,-187500.02235174447,15526.97456204588,-187500.02235174447,-187500.02235174447,-187500.02235174447,-187500.02235174447,-187500.02235174447,1729949572.7478232,1729949572.0093913,2000
-536.6206808830119,-187500.02235174447,15403.034139041203,-187500.02235174447,-187500.02235174447,-187500.02235174447,-187500.02235174447,-187500.02235174447,1729949572.7516704,1729949572.0093913,2000
-700.3472090181361,-187500.02235174447,15192.659520227851,-187500.02235174447,-187500.02235174447,-187500.02235174447,-187500.02235174447,-187500.02235174447,1729949572.7557771,1729949572.0093913,2000
-668.8536010806085,-187500.02235174447,15256.965489025772,-187500.02235174447,-187500.02235174447,-187500.02235174447,-187500.02235174447,-187500.02235174447,1729949572.758592,1729949572.0093913,2000
-486.64218028094535,-187500.02235174447,15483.567474313675,-187500.02235174447,-187500.02235174447,-187500.02235174447,-187500.02235174447,-187500.02235174447,1729949572.7626915,1729949572.0093913,2000
-520.5274248751908,-187500.02235174447,15453.571433254652,-187500.02235174447,-187500.02235174447,-187500.02235174447,-187500.02235174447,-187500.02235174447,1729949572.7671766,1729949572.0093913,2000
-650.6816328384439,-187500.02235174447,15271.69528862182,-187500.02235174447,-187500.02235174447,-187500.02235174447,-187500.02235174447,-187500.02235174447,1729949572.770743,1729949572.0093913,2000
-675.5144209282901,-187500.02235174447,15274.556311912098,-187500.02235174447,-187500.02235174447,-187500.02235174447,-187500.02235174447,-187500.02235174447,1729949572.77569,1729949572.0093913,2000
-565.4767829748134,-187500.02235174447,15407.012749554247,-187500.02235174447,-187500.02235174447,-187500.02235174447,-187500.02235174447,-187500.02235174447,1729949572.7796247,1729949572.0093913,2000
-488.47502332628056,-187500.02235174447,15442.775540682738,-187500.02235174447,-187500.02235174447,-187500.02235174447,-187500.02235174447,-187500.02235174447,1729949572.7837992,1729949572.0093913,2000
-612.6836672644218,-187500.02235174447,15312.375463530478,-187500.02235174447,-187500.02235174447,-187500.02235174447,-187500.02235174447,-187500.02235174447,1729949572.7877345,1729949572.0093913,2000
-708.1479678330384,-187500.02235174447,15228.95875322327,-187500.02235174447,-187500.02235174447,-187500.02235174447,-187500.02235174447,-187500.02235174447,1729949572.790645,1729949572.0093913,2000
-559.1735910384168,-187500.02235174447,15381.464705641833,-187500.02235174447,-187500.02235174447,-187500.02235174447,-187500.02235174447,-187500.02235174447,1729949572.794604,1729949572.0093913,2000
-481.1212994004845,-187500.02235174447,15467.474218305852,-187500.02235174447,-187500.02235174447,-187500.02235174447,-187500.02235174447,-187500.02235174447,1729949572.7986517,1729949572.0093913,2000
-659.8011445762091,-187500.02235174447,15300.707852924808,-187500.02235174447,-187500.02235174447,-187500.02235174447,-187500.02235174447,-187500.02235174447,1729949572.803742,1729949572.0093913,2000
-674.8885720835415,-187500.02235174447,15262.106390250492,-187500.02235174447,-187500.02235174447,-187500.02235174447,-187500.02235174447,-187500.02235174447,1729949572.8077698,1729949572.0093913,2000
-570.2377045437938,-187500.02235174447,15412.176002523423,-187500.02235174447,-187500.02235174447,-187500.02235174447,-187500.02235174447,-187500.02235174447,1729949572.8118703,1729949572.0093913,2000
-516.8170352956099,-187500.02235174447,15482.449887090908,-187500.02235174447,-187500.02235174447,-187500.02235174447,-187500.02235174447,-187500.02235174447,1729949572.814826,1729949572.0093913,2000
-610.6273067745336,-187500.02235174447,15344.338458101569,-187500.02235174447,-187500.02235174447,-187500.02235174447,-187500.02235174447,-187500.02235174447,1729949572.8187244,1729949572.0093913,2000
-657.2306939638489,-187500.02235174447,15215.01126468316,-187500.02235174447,-187500.02235174447,-187500.02235174447,-187500.02235174447,-187500.02235174447,1729949572.8228943,1729949572.0093913,2000
-558.4359834713916,-187500.02235174447,15333.140234129458,-187500.02235174447,-187500.02235174447,-187500.02235174447,-187500.02235174447,-187500.02235174447,1729949572.826887,1729949572.0093913,2000
-482.3059418566158,-187500.02235174447,15462.690944992415,-187500.02235174447,-187500.02235174447,-187500.02235174447,-187500.02235174447,-187500.02235174447,1729949572.8308167,1729949572.0093913,2000
-632.420257618458,-187500.02235174447,15324.2665915807,-187500.02235174447,-187500.02235174447,-187500.02235174447,-187500.02235174447,-187500.02235174447,1729949572.8357325,1729949572.0093913,2000
-695.0274938377731,-187500.02235174447,15233.227936414236,-187500.02235174447,-187500.02235174447,-187500.02235174447,-187500.02235174447,-187500.02235174447,1729949572.838721,1729949572.0093913,2000
-598.2667920907488,-187500.02235174447,15354.55320531764,-187500.02235174447,-187500.02235174447,-187500.02235174447,-187500.02235174447,-187500.02235174447,1729949572.8427503,1729949572.0093913,2000
-480.20487787781695,-187500.02235174447,15490.943549983926,-187500.02235174447,-187500.02235174447,-187500.02235174447,-187500.02235174447,-187500.02235174447,1729949572.8468385,1729949572.0093913,2000
-527.4788174007914,-187500.02235174447,15395.52395290422,-187500.02235174447,-187500.02235174447,-187500.02235174447,-187500.02235174447,-187500.02235174447,1729949572.8518407,1729949572.0093913,2000
-684.2316012658598,-187500.02235174447,15244.984953997728,-187500.02235174447,-187500.02235174447,-187500.02235174447,-187500.02235174447,-187500.02235174447,1729949572.855792,1729949572.0093913,2000
-683.6504559100218,-187500.02235174447,15320.958533401315,-187500.02235174447,-187500.02235174447,-187500.02235174447,-187500.02235174447,-187500.02235174447,1729949572.858804,1729949572.0093913,2000
-512.5702038491015,-187500.02235174447,15480.706451023396,-187500.02235174447,-187500.02235174447,-187500.02235174447,-187500.02235174447,-187500.02235174447,1729949572.8628488,1729949572.0093913,2000
-513.5536806051351,-187500.02235174447,15436.181776068424,-187500.02235174447,-187500.02235174447,-187500.02235174447,-187500.02235174447,-187500.02235174447,1729949572.8673067,1729949572.0093913,2000
-661.4775254103572,-187500.02235174447,15258.530111137645,-187500.02235174447,-187500.02235174447,-187500.02235174447,-187500.02235174447,-187500.02235174447,1729949572.8709989,1729949572.0093913,2000
-672.6533976380107,-187500.02235174447,15274.913939823384,-187500.02235174447,-187500.02235174447,-187500.02235174447,-187500.02235174447,-187500.02235174447,1729949572.8748248,1729949572.0093913,2000
-536.911253560931,-187500.02235174447,15432.158462066467,-187500.02235174447,-187500.02235174447,-187500.02235174447,-187500.02235174447,-187500.02235174447,1729949572.8788583,1729949572.0093913,2000
-520.9968115087523,-187500.02235174447,15438.10402609158,-187500.02235174447,-187500.02235174447,-187500.02235174447,-187500.02235174447,-187500.02235174447,1729949572.8828075,1729949572.0093913,2000
-634.0295832192402,-187500.02235174447,15287.36386148499,-187500.02235174447,-187500.02235174447,-187500.02235174447,-187500.02235174447,-187500.02235174447,1729949572.886882,1729949572.0093913,2000
-662.5057056553013,-187500.02235174447,15259.602994871497,-187500.02235174447,-187500.02235174447,-187500.02235174447,-187500.02235174447,-187500.02235174447,1729949572.8918948,1729949572.0093913,2000
-565.5438382081793,-187500.02235174447,15384.638653354485,-187500.02235174447,-187500.02235174447,-187500.02235174447,-187500.02235174447,-187500.02235174447,1729949572.894944,1729949572.0093913,2000
-495.9852094632637,-187500.02235174447,15442.95435463838,-187500.02235174447,-187500.02235174447,-187500.02235174447,-187500.02235174447,-187500.02235174447,1729949572.8987908,1729949572.0093913,2000
-607.2074898728716,-187500.02235174447,15330.480376539275,-187500.02235174447,-187500.02235174447,-187500.02235174447,-187500.02235174447,-187500.02235174447,1729949572.9028423,1729949572.0093913,2000
-693.6640374259994,-187500.02235174447,15246.080189476035,-187500.02235174447,-187500.02235174447,-187500.02235174447,-187500.02235174447,-187500.02235174447,1729949572.9068725,1729949572.0093913,2000
-585.97333264033,-187500.02235174447,15390.248941212769,-187500.02235174447,-187500.02235174447,-187500.02235174447,-187500.02235174447,-187500.02235174447,1729949572.9110832,1729949572.0093913,2000
-478.461441810303,-187500.02235174447,15490.675329050462,-187500.02235174447,-187500.02235174447,-187500.02235174447,-187500.02235174447,-187500.02235174447,1729949572.9148695,1729949572.0093913,2000
-595.0928443780953,-187500.02235174447,15319.70683571182,-187500.02235174447,-187500.02235174447,-187500.02235174447,-187500.02235174447,-187500.02235174447,1729949572.9200735,1729949572.0093913,2000
-699.5425462177451,-187500.02235174447,15218.542840307098,-187500.02235174447,-187500.02235174447,-187500.02235174447,-187500.02235174447,-187500.02235174447,1729949572.92301,1729949572.0093913,2000
-590.9577716538635,-187500.02235174447,15374.692127071874,-187500.02235174447,-187500.02235174447,-187500.02235174447,-187500.02235174447,-187500.02235174447,1729949572.9269247,1729949572.0093913,2000
-456.5343804996468,-187500.02235174447,15529.656771380518,-187500.02235174447,-187500.02235174447,-187500.02235174447,-187500.02235174447,-187500.02235174447,1729949572.9310455,1729949572.0093913,2000
-610.001457929785,-187500.02235174447,15368.970080491315,-187500.02235174447,-187500.02235174447,-187500.02235174447,-187500.02235174447,-187500.02235174447,1729949572.9352086,1729949572.0093913,2000
-704.3481712756361,-187500.02235174447,15217.313494362055,-187500.02235174447,-187500.02235174447,-187500.02235174447,-187500.02235174447,-187500.02235174447,1729949572.9390917,1729949572.0093913,2000
-618.3386586116146,-187500.02235174447,15309.447385006832,-187500.02235174447,-187500.02235174447,-187500.02235174447,-187500.02235174447,-187500.02235174447,1729949572.9429224,1729949572.0093913,2000
-474.9969214197304,-187500.02235174447,15473.173913141956,-187500.02235174447,-187500.02235174447,-187500.02235174447,-187500.02235174447,-187500.02235174447,1729949572.9471376,1729949572.0093913,2000
-528.7975703236544,-187500.02235174447,15415.28289500271,-187500.02235174447,-187500.02235174447,-187500.02235174447,-187500.02235174447,-187500.02235174447,1729949572.9509993,1729949572.0093913,2000
-678.3083889852035,-187500.02235174447,15307.07810009457,-187500.02235174447,-187500.02235174447,-187500.02235174447,-187500.02235174447,-187500.02235174447,1729949572.954131,1729949572.0093913,2000
-644.9595862578853,-187500.02235174447,15317.583419988565,-187500.02235174447,-187500.02235174447,-187500.02235174447,-187500.02235174447,-187500.02235174447,1729949572.9589753,1729949572.0093913,2000
-484.4517093243253,-187500.02235174447,15473.486837564333,-187500.02235174447,-187500.02235174447,-187500.02235174447,-187500.02235174447,-187500.02235174447,1729949572.9631555,1729949572.0093913,2000
-531.0103930247299,-187500.02235174447,15415.171136280434,-187500.02235174447,-187500.02235174447,-187500.02235174447,-187500.02235174447,-187500.02235174447,1729949572.96698,1729949572.0093913,2000
-630.8332837621313,-187500.02235174447,15279.45134394781,-187500.02235174447,-187500.02235174447,-187500.02235174447,-187500.02235174447,-187500.02235174447,1729949572.9710622,1729949572.0093913,2000
-637.8517315210977,-187500.02235174447,15299.12087906848,-187500.02235174447,-187500.02235174447,-187500.02235174447,-187500.02235174447,-187500.02235174447,1729949572.9741094,1729949572.0093913,2000
-572.8975621339753,-187500.02235174447,15428.917459120448,-187500.02235174447,-187500.02235174447,-187500.02235174447,-187500.02235174447,-187500.02235174447,1729949572.9783287,1729949572.0093913,2000
-517.3534771625373,-187500.02235174447,15405.649293142476,-187500.02235174447,-187500.02235174447,-187500.02235174447,-187500.02235174447,-187500.02235174447,1729949572.9820197,1729949572.0093913,2000
-640.3774786445473,-187500.02235174447,15254.68561109133,-187500.02235174447,-187500.02235174447,-187500.02235174447,-187500.02235174447,-187500.02235174447,1729949572.9876351,1729949572.0093913,2000
-715.9710783923958,-187500.02235174447,15247.48834937672,-187500.02235174447,-187500.02235174447,-187500.02235174447,-187500.02235174447,-187500.02235174447,1729949572.9912212,1729949572.0093913,2000
-531.9491662918527,-187500.02235174447,15450.82216868665,-187500.02235174447,-187500.02235174447,-187500.02235174447,-187500.02235174447,-187500.02235174447,1729949572.995486,1729949572.0093913,2000
-466.8385346935433,-187500.02235174447,15508.512021125796,-187500.02235174447,-187500.02235174447,-187500.02235174447,-187500.02235174447,-187500.02235174447,1729949572.999041,1729949572.0093913,2000
-604.0782456491287,-187500.02235174447,15316.801108932628,-187500.02235174447,-187500.02235174447,-187500.02235174447,-187500.02235174447,-187500.02235174447,1729949573.0022829,1729949572.0093913,2000
-668.1830487469493,-187500.02235174447,15226.075378188538,-187500.02235174447,-187500.02235174447,-187500.02235174447,-187500.02235174447,-187500.02235174447,1729949573.0061522,1729949572.0093913,2000
-598.7585304687656,-187500.02235174447,15380.525932374709,-187500.02235174447,-187500.02235174447,-187500.02235174447,-187500.02235174447,-187500.02235174447,1729949573.0100791,1729949572.0093913,2000
-485.1893168913504,-187500.02235174447,15499.63837857704,-187500.02235174447,-187500.02235174447,-187500.02235174447,-187500.02235174447,-187500.02235174447,1729949573.0153196,1729949572.0093913,2000
-554.2785590027046,-187500.02235174447,15377.150818961958,-187500.02235174447,-187500.02235174447,-187500.02235174447,-187500.02235174447,-187500.02235174447,1729949573.01935,1729949572.0093913,2000
-680.8117843641978,-187500.02235174447,15262.911053050882,-187500.02235174447,-187500.02235174447,-187500.02235174447,-187500.02235174447,-187500.02235174447,1729949573.0234072,1729949572.0093913,2000
-613.5553852981789,-187500.02235174447,15381.911740530935,-187500.02235174447,-187500.02235174447,-187500.02235174447,-187500.02235174447,-187500.02235174447,1729949573.027362,1729949572.0093913,2000
-490.08434892706265,-187500.02235174447,15481.06407893468,-187500.02235174447,-187500.02235174447,-187500.02235174447,-187500.02235174447,-187500.02235174447,1729949573.0304992,1729949572.0093913,2000
-553.0715648021179,-187500.02235174447,15350.395780848954,-187500.02235174447,-187500.02235174447,-187500.02235174447,-187500.02235174447,-187500.02235174447,1729949573.034166,1729949572.0093913,2000
-703.8787846420747,-187500.02235174447,15204.371834322434,-187500.02235174447,-187500.02235174447,-187500.02235174447,-187500.02235174447,-187500.02235174447,1729949573.0384045,1729949572.0093913,2000
-655.3754991740584,-187500.02235174447,15342.773835989696,-187500.02235174447,-187500.02235174447,-187500.02235174447,-187500.02235174447,-187500.02235174447,1729949573.0421915,1729949572.0093913,2000
-496.7898722636548,-187500.02235174447,15545.750027388338,-187500.02235174447,-187500.02235174447,-187500.02235174447,-187500.02235174447,-187500.02235174447,1729949573.0474577,1729949572.0093913,2000
-506.557584590624,-187500.02235174447,15432.493738233296,-187500.02235174447,-187500.02235174447,-187500.02235174447,-187500.02235174447,-187500.02235174447,1729949573.0511403,1729949572.0093913,2000
-629.8274552616424,-187500.02235174447,15259.312422193578,-187500.02235174447,-187500.02235174447,-187500.02235174447,-187500.02235174447,-187500.02235174447,1729949573.0557976,1729949572.0093913,2000
-669.8147260921868,-187500.02235174447,15260.608823371986,-187500.02235174447,-187500.02235174447,-187500.02235174447,-187500.02235174447,-187500.02235174447,1729949573.0581832,1729949572.0093913,2000
-554.6808904029001,-187500.02235174447,15437.187604568911,-187500.02235174447,-187500.02235174447,-187500.02235174447,-187500.02235174447,-187500.02235174447,1729949573.062408,1729949572.0093913,2000
-481.6800930118672,-187500.02235174447,15461.77452346975,-187500.02235174447,-187500.02235174447,-187500.02235174447,-187500.02235174447,-187500.02235174447,1729949573.0662217,1729949572.0093913,2000
-623.5242633252458,-187500.02235174447,15296.50572496721,-187500.02235174447,-187500.02235174447,-187500.02235174447,-187500.02235174447,-187500.02235174447,1729949573.0703726,1729949572.0093913,2000
-665.612598134589,-187500.02235174447,15297.332739512056,-187500.02235174447,-187500.02235174447,-187500.02235174447,-187500.02235174447,-187500.02235174447,1729949573.0753503,1729949572.0093913,2000
-535.2348727267829,-187500.02235174447,15456.477160033844,-187500.02235174447,-187500.02235174447,-187500.02235174447,-187500.02235174447,-187500.02235174447,1729949573.079618,1729949572.0093913,2000
-501.684904299367,-187500.02235174447,15468.278881106244,-187500.02235174447,-187500.02235174447,-187500.02235174447,-187500.02235174447,-187500.02235174447,1729949573.083134,1729949572.0093913,2000
-625.8935482375084,-187500.02235174447,15301.60192270302,-187500.02235174447,-187500.02235174447,-187500.02235174447,-187500.02235174447,-187500.02235174447,1729949573.0862896,1729949572.0093913,2000
-674.0615575386951,-187500.02235174447,15273.68459387834,-187500.02235174447,-187500.02235174447,-187500.02235174447,-187500.02235174447,-187500.02235174447,1729949573.0901763,1729949572.0093913,2000
-567.0190533422295,-187500.02235174447,15407.81741235464,-187500.02235174447,-187500.02235174447,-187500.02235174447,-187500.02235174447,-187500.02235174447,1729949573.0944617,1729949572.0093913,2000
-492.90066872843136,-187500.02235174447,15468.144770639512,-187500.02235174447,-187500.02235174447,-187500.02235174447,-187500.02235174447,-187500.02235174447,1729949573.0982947,1729949572.0093913,2000
-618.7856935007208,-187500.02235174447,15311.526097241176,-187500.02235174447,-187500.02235174447,-187500.02235174447,-187500.02235174447,-187500.02235174447,1729949573.1037097,1729949572.0093913,2000
-631.0791529511396,-187500.02235174447,15270.331832210046,-187500.02235174447,-187500.02235174447,-187500.02235174447,-187500.02235174447,-187500.02235174447,1729949573.1073074,1729949572.0093913,2000
-545.360212965037,-187500.02235174447,15427.665761430952,-187500.02235174447,-187500.02235174447,-187500.02235174447,-187500.02235174447,-187500.02235174447,1729949573.110326,1729949572.0093913,2000
-500.81318626561006,-187500.02235174447,15495.950340741914,-187500.02235174447,-187500.02235174447,-187500.02235174447,-187500.02235174447,-187500.02235174447,1729949573.114486,1729949572.0093913,2000
-596.0539693896734,-187500.02235174447,15359.314126886622,-187500.02235174447,-187500.02235174447,-187500.02235174447,-187500.02235174447,-187500.02235174447,1729949573.1181717,1729949572.0093913,2000
-647.3065194256925,-187500.02235174447,15271.516474666176,-187500.02235174447,-187500.02235174447,-187500.02235174447,-187500.02235174447,-187500.02235174447,1729949573.1224265,1729949572.0093913,2000
-593.8634984330533,-187500.02235174447,15375.09445847207,-187500.02235174447,-187500.02235174447,-187500.02235174447,-187500.02235174447,-187500.02235174447,1729949573.1286216,1729949572.0093913,2000
-518.3146021741155,-187500.02235174447,15479.655919033996,-187500.02235174447,-187500.02235174447,-187500.02235174447,-187500.02235174447,-187500.02235174447,1729949573.131533,1729949572.0093913,2000
-546.1425240209728,-187500.02235174447,15398.988473294792,-187500.02235174447,-187500.02235174447,-187500.02235174447,-187500.02235174447,-187500.02235174447,1729949573.1353424,1729949572.0093913,2000
-641.517417611768,-187500.02235174447,15269.68363162084,-187500.02235174447,-187500.02235174447,-187500.02235174447,-187500.02235174447,-187500.02235174447,1729949573.1385703,1729949572.0093913,2000
-628.3075366386815,-187500.02235174447,15325.160661358914,-187500.02235174447,-187500.02235174447,-187500.02235174447,-187500.02235174447,-187500.02235174447,1729949573.1424313,1729949572.0093913,2000
-531.9491662918527,-187500.02235174447,15476.861950977082,-187500.02235174447,-187500.02235174447,-187500.02235174447,-187500.02235174447,-187500.02235174447,1729949573.1464536,1729949572.0093913,2000
-549.1376577779839,-187500.02235174447,15414.455880457865,-187500.02235174447,-187500.02235174447,-187500.02235174447,-187500.02235174447,-187500.02235174447,1729949573.1503663,1729949572.0093913,2000
-674.9556273169073,-187500.02235174447,15251.77988431214,-187500.02235174447,-187500.02235174447,-187500.02235174447,-187500.02235174447,-187500.02235174447,1729949573.1545897,1729949572.0093913,2000
-643.4396676349244,-187500.02235174447,15301.177239558368,-187500.02235174447,-187500.02235174447,-187500.02235174447,-187500.02235174447,-187500.02235174447,1729949573.1582596,1729949572.0093913,2000
-544.5331984201906,-187500.02235174447,15441.38973252651,-187500.02235174447,-187500.02235174447,-187500.02235174447,-187500.02235174447,-187500.02235174447,1729949573.1637614,1729949572.0093913,2000
-596.5904112566008,-187500.02235174447,15387.81260106714,-187500.02235174447,-187500.02235174447,-187500.02235174447,-187500.02235174447,-187500.02235174447,1729949573.1663244,1729949572.0093913,2000
-613.8459579760979,-187500.02235174447,15269.326003709555,-187500.02235174447,-187500.02235174447,-187500.02235174447,-187500.02235174447,-187500.02235174447,1729949573.170565,1729949572.0093913,2000
-592.5670972546455,-187500.02235174447,15311.369635029989,-187500.02235174447,-187500.02235174447,-187500.02235174447,-187500.02235174447,-187500.02235174447,1729949573.1743147,1729949572.0093913,2000
-518.7839888076769,-187500.02235174447,15462.221558358857,-187500.02235174447,-187500.02235174447,-187500.02235174447,-187500.02235174447,-187500.02235174447,1729949573.1787589,1729949572.0093913,2000
-520.2368521972719,-187500.02235174447,15483.746288269316,-187500.02235174447,-187500.02235174447,-187500.02235174447,-187500.02235174447,-187500.02235174447,1729949573.1822972,1729949572.0093913,2000
-624.0383534477179,-187500.02235174447,15296.036338333648,-187500.02235174447,-187500.02235174447,-187500.02235174447,-187500.02235174447,-187500.02235174447,1729949573.1864965,1729949572.0093913,2000
-683.8516216101195,-187500.02235174447,15260.11708499397,-187500.02235174447,-187500.02235174447,-187500.02235174447,-187500.02235174447,-187500.02235174447,1729949573.191356,1729949572.0093913,2000
-567.6449021869781,-187500.02235174447,15395.345138948578,-187500.02235174447,-187500.02235174447,-187500.02235174447,-187500.02235174447,-187500.02235174447,1729949573.1947095,1729949572.0093913,2000
-520.0133347527188,-187500.02235174447,15483.478067335853,-187500.02235174447,-187500.02235174447,-187500.02235174447,-187500.02235174447,-187500.02235174447,1729949573.1983416,1729949572.0093913,2000
-596.7021699788774,-187500.02235174447,15339.89046095496,-187500.02235174447,-187500.02235174447,-187500.02235174447,-187500.02235174447,-187500.02235174447,1729949573.2030766,1729949572.0093913,2000
-653.2073799618936,-187500.02235174447,15249.96939301126,-187500.02235174447,-187500.02235174447,-187500.02235174447,-187500.02235174447,-187500.02235174447,1729949573.206498,1729949572.0093913,2000
-596.5904112566008,-187500.02235174447,15360.923452487405,-187500.02235174447,-187500.02235174447,-187500.02235174447,-187500.02235174447,-187500.02235174447,1729949573.211108,1729949572.0093913,2000
-480.9648371892974,-187500.02235174447,15475.140866654025,-187500.02235174447,-187500.02235174447,-187500.02235174447,-187500.02235174447,-187500.02235174447,1729949573.2147567,1729949572.0093913,2000
-620.9761644573408,-187500.02235174447,15327.172318359892,-187500.02235174447,-187500.02235174447,-187500.02235174447,-187500.02235174447,-187500.02235174447,1729949573.2201269,1729949572.0093913,2000
-709.3549620336249,-187500.02235174447,15271.672936877363,-187500.02235174447,-187500.02235174447,-187500.02235174447,-187500.02235174447,-187500.02235174447,1729949573.2227955,1729949572.0093913,2000
-595.9869141563075,-187500.02235174447,15387.298510944667,-187500.02235174447,-187500.02235174447,-187500.02235174447,-187500.02235174447,-187500.02235174447,1729949573.2264016,1729949572.0093913,2000
-493.0571309396185,-187500.02235174447,15492.463468606886,-187500.02235174447,-187500.02235174447,-187500.02235174447,-187500.02235174447,-187500.02235174447,1729949573.2309363,1729949572.0093913,2000
-538.3864686949812,-187500.02235174447,15382.336423675588,-187500.02235174447,-187500.02235174447,-187500.02235174447,-187500.02235174447,-187500.02235174447,1729949573.2343469,1729949572.0093913,2000
-655.710775340888,-187500.02235174447,15255.758494825184,-187500.02235174447,-187500.02235174447,-187500.02235174447,-187500.02235174447,-187500.02235174447,1729949573.2385128,1729949572.0093913,2000
-622.4737313358464,-187500.02235174447,15314.02949262017,-187500.02235174447,-187500.02235174447,-187500.02235174447,-187500.02235174447,-187500.02235174447,1729949573.2423525,1729949572.0093913,2000
-528.2164249678165,-187500.02235174447,15498.49843960982,-187500.02235174447,-187500.02235174447,-187500.02235174447,-187500.02235174447,-187500.02235174447,1729949573.2477083,1729949572.0093913,2000
-555.4855532032911,-187500.02235174447,15444.161348838968,-187500.02235174447,-187500.02235174447,-187500.02235174447,-187500.02235174447,-187500.02235174447,1729949573.2503884,1729949572.0093913,2000
-659.1752957314606,-187500.02235174447,15247.77892205464,-187500.02235174447,-187500.02235174447,-187500.02235174447,-187500.02235174447,-187500.02235174447,1729949573.253745,1729949572.0093913,2000
-652.9615107728853,-187500.02235174447,15264.050992018105,-187500.02235174447,-187500.02235174447,-187500.02235174447,-187500.02235174447,-187500.02235174447,1729949573.258416,1729949572.0093913,2000
-510.8938230149535,-187500.02235174447,15453.683191976928,-187500.02235174447,-187500.02235174447,-187500.02235174447,-187500.02235174447,-187500.02235174447,1729949573.263016,1729949572.0093913,2000
-478.2602761102052,-187500.02235174447,15467.563625283674,-187500.02235174447,-187500.02235174447,-187500.02235174447,-187500.02235174447,-187500.02235174447,1729949573.2663448,1729949572.0093913,2000
-609.0626846626622,-187500.02235174447,15290.046070819626,-187500.02235174447,-187500.02235174447,-187500.02235174447,-187500.02235174447,-187500.02235174447,1729949573.2707396,1729949572.0093913,2000
-708.3044300442255,-187500.02235174447,15252.07045699006,-187500.02235174447,-187500.02235174447,-187500.02235174447,-187500.02235174447,-187500.02235174447,1729949573.2746382,1729949572.0093913,2000
-547.8189048551208,-187500.02235174447,15405.738700120295,-187500.02235174447,-187500.02235174447,-187500.02235174447,-187500.02235174447,-187500.02235174447,1729949573.2774365,1729949572.0093913,2000
-523.4778551432914,-187500.02235174447,15457.907671678982,-187500.02235174447,-187500.02235174447,-187500.02235174447,-187500.02235174447,-187500.02235174447,1729949573.2814896,1729949572.0093913,2000
-673.1227842715722,-187500.02235174447,15290.02371907517,-187500.02235174447,-187500.02235174447,-187500.02235174447,-187500.02235174447,-187500.02235174447,1729949573.2865996,1729949572.0093913,2000
-704.6163922090999,-187500.02235174447,15231.931535235828,-187500.02235174447,-187500.02235174447,-187500.02235174447,-187500.02235174447,-187500.02235174447,1729949573.290605,1729949572.0093913,2000
-575.8479924020759,-187500.02235174447,15406.275141987222,-187500.02235174447,-187500.02235174447,-187500.02235174447,-187500.02235174447,-187500.02235174447,1729949573.2946708,1729949572.0093913,2000
-468.2243428497724,-187500.02235174447,15511.238933949344,-187500.02235174447,-187500.02235174447,-187500.02235174447,-187500.02235174447,-187500.02235174447,1729949573.2984507,1729949572.0093913,2000
-587.9849896413076,-187500.02235174447,15356.52015882971,-187500.02235174447,-187500.02235174447,-187500.02235174447,-187500.02235174447,-187500.02235174447,1729949573.302683,1729949572.0093913,2000
-682.5552204317117,-187500.02235174447,15244.87319527545,-187500.02235174447,-187500.02235174447,-187500.02235174447,-187500.02235174447,-187500.02235174447,1729949573.3056295,1729949572.0093913,2000
-593.2600013327601,-187500.02235174447,15352.675658783395,-187500.02235174447,-187500.02235174447,-187500.02235174447,-187500.02235174447,-187500.02235174447,1729949573.3096352,1729949572.0093913,2000
-511.4302648818809,-187500.02235174447,15469.575282284652,-187500.02235174447,-187500.02235174447,-187500.02235174447,-187500.02235174447,-187500.02235174447,1729949573.3146515,1729949572.0093913,2000
-572.5175824782351,-187500.02235174447,15352.809769250129,-187500.02235174447,-187500.02235174447,-187500.02235174447,-187500.02235174447,-187500.02235174447,1729949573.318669,1729949572.0093913,2000
-634.096638452606,-187500.02235174447,15235.910145748872,-187500.02235174447,-187500.02235174447,-187500.02235174447,-187500.02235174447,-187500.02235174447,1729949573.3226204,1729949572.0093913,2000
-602.3124578371594,-187500.02235174447,15360.297603642655,-187500.02235174447,-187500.02235174447,-187500.02235174447,-187500.02235174447,-187500.02235174447,1729949573.3266652,1729949572.0093913,2000
-511.3408579040597,-187500.02235174447,15505.360425157598,-187500.02235174447,-187500.02235174447,-187500.02235174447,-187500.02235174447,-187500.02235174447,1729949573.3306963,1729949572.0093913,2000
-534.7654860932215,-187500.02235174447,15397.580313394108,-187500.02235174447,-187500.02235174447,-187500.02235174447,-187500.02235174447,-187500.02235174447,1729949573.333539,1729949572.0093913,2000
-642.2550251787932,-187500.02235174447,15237.318305649556,-187500.02235174447,-187500.02235174447,-187500.02235174447,-187500.02235174447,-187500.02235174447,1729949573.3377192,1729949572.0093913,2000
-678.8001273632202,-187500.02235174447,15297.824477890072,-187500.02235174447,-187500.02235174447,-187500.02235174447,-187500.02235174447,-187500.02235174447,1729949573.3426554,1729949572.0093913,2000
-548.8023816111543,-187500.02235174447,15450.732761708829,-187500.02235174447,-187500.02235174447,-187500.02235174447,-187500.02235174447,-187500.02235174447,1729949573.346669,1729949572.0093913,2000
-557.5195619487241,-187500.02235174447,15405.828107098116,-187500.02235174447,-187500.02235174447,-187500.02235174447,-187500.02235174447,-187500.02235174447,1729949573.3507009,1729949572.0093913,2000
-667.579551646656,-187500.02235174447,15256.16082622538,-187500.02235174447,-187500.02235174447,-187500.02235174447,-187500.02235174447,-187500.02235174447,1729949573.3547127,1729949572.0093913,2000
-679.4930314413347,-187500.02235174447,15252.897471534903,-187500.02235174447,-187500.02235174447,-187500.02235174447,-187500.02235174447,-187500.02235174447,1729949573.3575828,1729949572.0093913,2000
-529.9151575464199,-187500.02235174447,15445.457750017376,-187500.02235174447,-187500.02235174447,-187500.02235174447,-187500.02235174447,-187500.02235174447,1729949573.3616729,1729949572.0093913,2000
-492.8783169839761,-187500.02235174447,15472.548064297209,-187500.02235174447,-187500.02235174447,-187500.02235174447,-187500.02235174447,-187500.02235174447,1729949573.36557,1729949572.0093913,2000
-643.9314060129411,-187500.02235174447,15272.4552479333,-187500.02235174447,-187500.02235174447,-187500.02235174447,-187500.02235174447,-187500.02235174447,1729949573.370708,1729949572.0093913,2000
-662.4162986774801,-187500.02235174447,15222.543802564598,-187500.02235174447,-187500.02235174447,-187500.02235174447,-187500.02235174447,-187500.02235174447,1729949573.3745182,1729949572.0093913,2000
-513.2407561827607,-187500.02235174447,15410.991360067292,-187500.02235174447,-187500.02235174447,-187500.02235174447,-187500.02235174447,-187500.02235174447,1729949573.3790133,1729949572.0093913,2000
-519.8345207970764,-187500.02235174447,15466.49074154982,-187500.02235174447,-187500.02235174447,-187500.02235174447,-187500.02235174447,-187500.02235174447,1729949573.3814971,1729949572.0093913,2000
-629.358068628081,-187500.02235174447,15318.522193255689,-187500.02235174447,-187500.02235174447,-187500.02235174447,-187500.02235174447,-187500.02235174447,1729949573.3856945,1729949572.0093913,2000
-703.8564328976194,-187500.02235174447,15242.749779552196,-187500.02235174447,-187500.02235174447,-187500.02235174447,-187500.02235174447,-187500.02235174447,1729949573.389849,1729949572.0093913,2000
-553.5633031801348,-187500.02235174447,15387.05264175566,-187500.02235174447,-187500.02235174447,-187500.02235174447,-187500.02235174447,-187500.02235174447,1729949573.3940794,1729949572.0093913,2000
-469.0290056501634,-187500.02235174447,15504.35459665711,-187500.02235174447,-187500.02235174447,-187500.02235174447,-187500.02235174447,-187500.02235174447,1729949573.3986292,1729949572.0093913,2000
-603.519452037746,-187500.02235174447,15356.386048362978,-187500.02235174447,-187500.02235174447,-187500.02235174447,-187500.02235174447,-187500.02235174447,1729949573.4031053,1729949572.0093913,2000
-680.0518250527174,-187500.02235174447,15225.58363981052,-187500.02235174447,-187500.02235174447,-187500.02235174447,-187500.02235174447,-187500.02235174447,1729949573.4067285,1729949572.0093913,2000
-595.875155434031,-187500.02235174447,15351.111036671524,-187500.02235174447,-187500.02235174447,-187500.02235174447,-187500.02235174447,-187500.02235174447,1729949573.4097562,1729949572.0093913,2000
-532.9326430478862,-187500.02235174447,15476.750192254804,-187500.02235174447,-187500.02235174447,-187500.02235174447,-187500.02235174447,-187500.02235174447,1729949573.4139109,1729949572.0093913,2000
-574.7080534348552,-187500.02235174447,15365.058525211636,-187500.02235174447,-187500.02235174447,-187500.02235174447,-187500.02235174447,-187500.02235174447,1729949573.4176693,1729949572.0093913,2000
-671.4464034374241,-187500.02235174447,15254.01505875767,-187500.02235174447,-187500.02235174447,-187500.02235174447,-187500.02235174447,-187500.02235174447,1729949573.422286,1729949572.0093913,2000
-627.1899494159162,-187500.02235174447,15360.588176320574,-187500.02235174447,-187500.02235174447,-187500.02235174447,-187500.02235174447,-187500.02235174447,1729949573.4258091,1729949572.0093913,2000
-489.7714245046884,-187500.02235174447,15491.077660450655,-187500.02235174447,-187500.02235174447,-187500.02235174447,-187500.02235174447,-187500.02235174447,1729949573.4311209,1729949572.0093913,2000
-548.5565124221459,-187500.02235174447,15389.91366504594,-187500.02235174447,-187500.02235174447,-187500.02235174447,-187500.02235174447,-187500.02235174447,1729949573.4347596,1729949572.0093913,2000
-657.0965834971171,-187500.02235174447,15250.05879998908,-187500.02235174447,-187500.02235174447,-187500.02235174447,-187500.02235174447,-187500.02235174447,1729949573.4377096,1729949572.0093913,2000
-656.001348018807,-187500.02235174447,15300.283169780156,-187500.02235174447,-187500.02235174447,-187500.02235174447,-187500.02235174447,-187500.02235174447,1729949573.441713,1729949572.0093913,2000
-525.0424772551629,-187500.02235174447,15458.377058312542,-187500.02235174447,-187500.02235174447,-187500.02235174447,-187500.02235174447,-187500.02235174447,1729949573.4457128,1729949572.0093913,2000
-527.9705557788081,-187500.02235174447,15420.490851460798,-187500.02235174447,-187500.02235174447,-187500.02235174447,-187500.02235174447,-187500.02235174447,1729949573.4496565,1729949572.0093913,2000
-655.0402230072287,-187500.02235174447,15237.228898671736,-187500.02235174447,-187500.02235174447,-187500.02235174447,-187500.02235174447,-187500.02235174447,1729949573.4540324,1729949572.0093913,2000
-654.4814293958461,-187500.02235174447,15239.151148694891,-187500.02235174447,-187500.02235174447,-187500.02235174447,-187500.02235174447,-187500.02235174447,1729949573.4586916,1729949572.0093913,2000
-564.3144922631374,-187500.02235174447,15451.045686131203,-187500.02235174447,-187500.02235174447,-187500.02235174447,-187500.02235174447,-187500.02235174447,1729949573.46285,1729949572.0093913,2000
-500.9920002212525,-187500.02235174447,15485.132096425546,-187500.02235174447,-187500.02235174447,-187500.02235174447,-187500.02235174447,-187500.02235174447,1729949573.4657135,1729949572.0093913,2000
-611.9907631863074,-187500.02235174447,15323.998370647238,-187500.02235174447,-187500.02235174447,-187500.02235174447,-187500.02235174447,-187500.02235174447,1729949573.470348,1729949572.0093913,2000
-674.5085924278012,-187500.02235174447,15265.727372852252,-187500.02235174447,-187500.02235174447,-187500.02235174447,-187500.02235174447,-187500.02235174447,1729949573.4737928,1729949572.0093913,2000
-547.327166477104,-187500.02235174447,15432.046703344193,-187500.02235174447,-187500.02235174447,-187500.02235174447,-187500.02235174447,-187500.02235174447,1729949573.4780452,1729949572.0093913,2000
-504.7694450341994,-187500.02235174447,15465.954299682891,-187500.02235174447,-187500.02235174447,-187500.02235174447,-187500.02235174447,-187500.02235174447,1729949573.4817514,1729949572.0093913,2000
-638.2317111768378,-187500.02235174447,15293.085908065548,-187500.02235174447,-187500.02235174447,-187500.02235174447,-187500.02235174447,-187500.02235174447,1729949573.485946,1729949572.0093913,2000
-723.771837207298,-187500.02235174447,15203.544819777588,-187500.02235174447,-187500.02235174447,-187500.02235174447,-187500.02235174447,-187500.02235174447,1729949573.490864,1729949572.0093913,2000
-591.7847861987098,-187500.02235174447,15353.256804139235,-187500.02235174447,-187500.02235174447,-187500.02235174447,-187500.02235174447,-187500.02235174447,1729949573.4945047,1729949572.0093913,2000
-462.88227592495394,-187500.02235174447,15474.000927686802,-187500.02235174447,-187500.02235174447,-187500.02235174447,-187500.02235174447,-187500.02235174447,1729949573.4979484,1729949572.0093913,2000
-577.4349662584027,-187500.02235174447,15360.208196664837,-187500.02235174447,-187500.02235174447,-187500.02235174447,-187500.02235174447,-187500.02235174447,1729949573.5017643,1729949572.0093913,2000
-698.8719938840859,-187500.02235174447,15250.930518022838,-187500.02235174447,-187500.02235174447,-187500.02235174447,-187500.02235174447,-187500.02235174447,1729949573.506035,1729949572.0093913,2000
-621.4679028353576,-187500.02235174447,15359.872920498005,-187500.02235174447,-187500.02235174447,-187500.02235174447,-187500.02235174447,-187500.02235174447,1729949573.5098612,1729949572.0093913,2000
-491.47015708329167,-187500.02235174447,15468.815322973172,-187500.02235174447,-187500.02235174447,-187500.02235174447,-187500.02235174447,-187500.02235174447,1729949573.5143492,1729949572.0093913,2000
-550.9257973344085,-187500.02235174447,15353.145045416955,-187500.02235174447,-187500.02235174447,-187500.02235174447,-187500.02235174447,-187500.02235174447,1729949573.5179036,1729949572.0093913,2000
-659.9576067873963,-187500.02235174447,15235.3960556264,-187500.02235174447,-187500.02235174447,-187500.02235174447,-187500.02235174447,-187500.02235174447,1729949573.5211153,1729949572.0093913,2000
-653.4756008953573,-187500.02235174447,15335.04013240816,-187500.02235174447,-187500.02235174447,-187500.02235174447,-187500.02235174447,-187500.02235174447,1729949573.525813,1729949572.0093913,2000
-521.4438463978585,-187500.02235174447,15497.291445409232,-187500.02235174447,-187500.02235174447,-187500.02235174447,-187500.02235174447,-187500.02235174447,1729949573.5300484,1729949572.0093913,2000
-534.2513959707494,-187500.02235174447,15390.606569124053,-187500.02235174447,-187500.02235174447,-187500.02235174447,-187500.02235174447,-187500.02235174447,1729949573.5339828,1729949572.0093913,2000
-659.1752957314606,-187500.02235174447,15221.560325808565,-187500.02235174447,-187500.02235174447,-187500.02235174447,-187500.02235174447,-187500.02235174447,1729949573.5380523,1729949572.0093913,2000
-648.4911618818238,-187500.02235174447,15280.278358492656,-187500.02235174447,-187500.02235174447,-187500.02235174447,-187500.02235174447,-187500.02235174447,1729949573.5417876,1729949572.0093913,2000
-525.6012708665456,-187500.02235174447,15447.469407018354,-187500.02235174447,-187500.02235174447,-187500.02235174447,-187500.02235174447,-187500.02235174447,1729949573.545983,1729949572.0093913,2000
-558.8606666160425,-187500.02235174447,15426.1905462969,-187500.02235174447,-187500.02235174447,-187500.02235174447,-187500.02235174447,-187500.02235174447,1729949573.549009,1729949572.0093913,2000
-672.0275487932621,-187500.02235174447,15280.524227681664,-187500.02235174447,-187500.02235174447,-187500.02235174447,-187500.02235174447,-187500.02235174447,1729949573.5544083,1729949572.0093913,2000
-677.8613540960973,-187500.02235174447,15278.26670149168,-187500.02235174447,-187500.02235174447,-187500.02235174447,-187500.02235174447,-187500.02235174447,1729949573.557956,1729949572.0093913,2000
-543.5720734086125,-187500.02235174447,15427.62105794204,-187500.02235174447,-187500.02235174447,-187500.02235174447,-187500.02235174447,-187500.02235174447,1729949573.56216,1729949572.0093913,2000
-526.8753203004981,-187500.02235174447,15424.737682907304,-187500.02235174447,-187500.02235174447,-187500.02235174447,-187500.02235174447,-187500.02235174447,1729949573.5659652,1729949572.0093913,2000
-610.0908649076063,-187500.02235174447,15302.585399459052,-187500.02235174447,-187500.02235174447,-187500.02235174447,-187500.02235174447,-187500.02235174447,1729949573.570404,1729949572.0093913,2000
-673.2121912493934,-187500.02235174447,15260.385305927432,-187500.02235174447,-187500.02235174447,-187500.02235174447,-187500.02235174447,-187500.02235174447,1729949573.5732331,1729949572.0093913,2000
-568.8071928986541,-187500.02235174447,15414.500583946776,-187500.02235174447,-187500.02235174447,-187500.02235174447,-187500.02235174447,-187500.02235174447,1729949573.5772212,1729949572.0093913,2000
-502.2884013996603,-187500.02235174447,15447.312944807169,-187500.02235174447,-187500.02235174447,-187500.02235174447,-187500.02235174447,-187500.02235174447,1729949573.5818768,1729949572.0093913,2000
-604.1005973935839,-187500.02235174447,15285.732184139752,-187500.02235174447,-187500.02235174447,-187500.02235174447,-187500.02235174447,-187500.02235174447,1729949573.5860548,1729949572.0093913,2000
-658.6835573534438,-187500.02235174447,15267.73902985323,-187500.02235174447,-187500.02235174447,-187500.02235174447,-187500.02235174447,-187500.02235174447,1729949573.5899472,1729949572.0093913,2000
-602.4689200483466,-187500.02235174447,15398.586141894595,-187500.02235174447,-187500.02235174447,-187500.02235174447,-187500.02235174447,-187500.02235174447,1729949573.5946724,1729949572.0093913,2000
-508.63629682496753,-187500.02235174447,15475.699660265407,-187500.02235174447,-187500.02235174447,-187500.02235174447,-187500.02235174447,-187500.02235174447,1729949573.5982268,1729949572.0093913,2000
-586.487422762802,-187500.02235174447,15345.23252787978,-187500.02235174447,-187500.02235174447,-187500.02235174447,-187500.02235174447,-187500.02235174447,1729949573.6010306,1729949572.0093913,2000
-686.8467553671308,-187500.02235174447,15241.811006285074,-187500.02235174447,-187500.02235174447,-187500.02235174447,-187500.02235174447,-187500.02235174447,1729949573.6051128,1729949572.0093913,2000
-627.4805220938351,-187500.02235174447,15351.312202371622,-187500.02235174447,-187500.02235174447,-187500.02235174447,-187500.02235174447,-187500.02235174447,1729949573.6101043,1729949572.0093913,2000
-498.4886048422581,-187500.02235174447,15466.714258994372,-187500.02235174447,-187500.02235174447,-187500.02235174447,-187500.02235174447,-187500.02235174447,1729949573.6141987,1729949572.0093913,2000
-559.2182945273274,-187500.02235174447,15351.17809190489,-187500.02235174447,-187500.02235174447,-187500.02235174447,-187500.02235174447,-187500.02235174447,1729949573.618153,1729949572.0093913,2000
-720.4861307723679,-187500.02235174447,15215.503003061176,-187500.02235174447,-187500.02235174447,-187500.02235174447,-187500.02235174447,-187500.02235174447,1729949573.6225655,1729949572.0093913,2000
-655.710775340888,-187500.02235174447,15320.355036301022,-187500.02235174447,-187500.02235174447,-187500.02235174447,-187500.02235174447,-187500.02235174447,1729949573.6250336,1729949572.0093913,2000
-501.5507938326352,-187500.02235174447,15486.87553249306,-187500.02235174447,-187500.02235174447,-187500.02235174447,-187500.02235174447,-187500.02235174447,1729949573.6295023,1729949572.0093913,2000
-522.8743580429981,-187500.02235174447,15415.305246747166,-187500.02235174447,-187500.02235174447,-187500.02235174447,-187500.02235174447,-187500.02235174447,1729949573.6330738,1729949572.0093913,2000
-681.1470605310275,-187500.02235174447,15257.032544259137,-187500.02235174447,-187500.02235174447,-187500.02235174447,-187500.02235174447,-187500.02235174447,1729949573.6382356,1729949572.0093913,2000
-688.3890257345469,-187500.02235174447,15306.675768694377,-187500.02235174447,-187500.02235174447,-187500.02235174447,-187500.02235174447,-187500.02235174447,1729949573.6421368,1729949572.0093913,2000
-523.2543376987384,-187500.02235174447,15457.39358155651,-187500.02235174447,-187500.02235174447,-187500.02235174447,-187500.02235174447,-187500.02235174447,1729949573.6460216,1729949572.0093913,2000
-505.52940434567984,-187500.02235174447,15445.81537792866,-187500.02235174447,-187500.02235174447,-187500.02235174447,-187500.02235174447,-187500.02235174447,1729949573.6499412,1729949572.0093913,2000
-652.0450892502176,-187500.02235174447,15273.729297367252,-187500.02235174447,-187500.02235174447,-187500.02235174447,-187500.02235174447,-187500.02235174447,1729949573.653598,1729949572.0093913,2000
-697.3073717722144,-187500.02235174447,15218.095805417992,-187500.02235174447,-187500.02235174447,-187500.02235174447,-187500.02235174447,-187500.02235174447,1729949573.657062,1729949572.0093913,2000
-584.3640070395478,-187500.02235174447,15384.973929521317,-187500.02235174447,-187500.02235174447,-187500.02235174447,-187500.02235174447,-187500.02235174447,1729949573.6616373,1729949572.0093913,2000
-512.3466864045484,-187500.02235174447,15448.743456452306,-187500.02235174447,-187500.02235174447,-187500.02235174447,-187500.02235174447,-187500.02235174447,1729949573.6650517,1729949572.0093913,2000
-557.0278235707073,-187500.02235174447,15295.052861577617,-187500.02235174447,-187500.02235174447,-187500.02235174447,-187500.02235174447,-187500.02235174447,1729949573.6702728,1729949572.0093913,2000
-649.161714215483,-187500.02235174447,15284.033451561148,-187500.02235174447,-187500.02235174447,-187500.02235174447,-187500.02235174447,-187500.02235174447,1729949573.674107,1729949572.0093913,2000
-616.55051905519,-187500.02235174447,15395.702766859862,-187500.02235174447,-187500.02235174447,-187500.02235174447,-187500.02235174447,-187500.02235174447,1729949573.6785915,1729949572.0093913,2000
-525.5789191220903,-187500.02235174447,15453.236157087822,-187500.02235174447,-187500.02235174447,-187500.02235174447,-187500.02235174447,-187500.02235174447,1729949573.6812248,1729949572.0093913,2000
-615.1200074100503,-187500.02235174447,15337.252955109234,-187500.02235174447,-187500.02235174447,-187500.02235174447,-187500.02235174447,-187500.02235174447,1729949573.6854124,1729949572.0093913,2000
-687.6290664230664,-187500.02235174447,15252.517491879164,-187500.02235174447,-187500.02235174447,-187500.02235174447,-187500.02235174447,-187500.02235174447,1729949573.689391,1729949572.0093913,2000
-598.5573647686679,-187500.02235174447,15372.99339449327,-187500.02235174447,-187500.02235174447,-187500.02235174447,-187500.02235174447,-187500.02235174447,1729949573.6930988,1729949572.0093913,2000
-502.2436979107497,-187500.02235174447,15455.96306991137,-187500.02235174447,-187500.02235174447,-187500.02235174447,-187500.02235174447,-187500.02235174447,1729949573.6982076,1729949572.0093913,2000
-598.2667920907488,-187500.02235174447,15329.452196294333,-187500.02235174447,-187500.02235174447,-187500.02235174447,-187500.02235174447,-187500.02235174447,1729949573.7027931,1729949572.0093913,2000
-710.5843079786669,-187500.02235174447,15224.622514798944,-187500.02235174447,-187500.02235174447,-187500.02235174447,-187500.02235174447,-187500.02235174447,1729949573.706143,1729949572.0093913,2000
-626.5417488267123,-187500.02235174447,15343.08676041207,-187500.02235174447,-187500.02235174447,-187500.02235174447,-187500.02235174447,-187500.02235174447,1729949573.709088,1729949572.0093913,2000
-496.4322443523699,-187500.02235174447,15490.92119823947,-187500.02235174447,-187500.02235174447,-187500.02235174447,-187500.02235174447,-187500.02235174447,1729949573.7135935,1729949572.0093913,2000
-547.7742013662101,-187500.02235174447,15387.4326214114,-187500.02235174447,-187500.02235174447,-187500.02235174447,-187500.02235174447,-187500.02235174447,1729949573.7172267,1729949572.0093913,2000
-647.8876647815305,-187500.02235174447,15234.189061425814,-187500.02235174447,-187500.02235174447,-187500.02235174447,-187500.02235174447,-187500.02235174447,1729949573.7216249,1729949572.0093913,2000
-606.2687166057488,-187500.02235174447,15311.79431817464,-187500.02235174447,-187500.02235174447,-187500.02235174447,-187500.02235174447,-187500.02235174447,1729949573.7260983,1729949572.0093913,2000
-543.8402943420762,-187500.02235174447,15437.858156902572,-187500.02235174447,-187500.02235174447,-187500.02235174447,-187500.02235174447,-187500.02235174447,1729949573.7303388,1729949572.0093913,2000
-575.9150476354417,-187500.02235174447,15379.207179451843,-187500.02235174447,-187500.02235174447,-187500.02235174447,-187500.02235174447,-187500.02235174447,1729949573.7342863,1729949572.0093913,2000
-658.3929846755249,-187500.02235174447,15237.765340538665,-187500.02235174447,-187500.02235174447,-187500.02235174447,-187500.02235174447,-187500.02235174447,1729949573.7377777,1729949572.0093913,2000
-637.3599931430809,-187500.02235174447,15292.79533538763,-187500.02235174447,-187500.02235174447,-187500.02235174447,-187500.02235174447,-187500.02235174447,1729949573.7411904,1729949572.0093913,2000
-542.7227071193108,-187500.02235174447,15442.775540682738,-187500.02235174447,-187500.02235174447,-187500.02235174447,-187500.02235174447,-187500.02235174447,1729949573.7455957,1729949572.0093913,2000
-547.4612769438359,-187500.02235174447,15424.447110229386,-187500.02235174447,-187500.02235174447,-187500.02235174447,-187500.02235174447,-187500.02235174447,1729949573.749322,1729949572.0093913,2000
-672.0499005377175,-187500.02235174447,15307.83805940605,-187500.02235174447,-187500.02235174447,-187500.02235174447,-187500.02235174447,-187500.02235174447,1729949573.7544737,1729949572.0093913,2000
-677.5260779292677,-187500.02235174447,15289.733146397251,-187500.02235174447,-187500.02235174447,-187500.02235174447,-187500.02235174447,-187500.02235174447,1729949573.7581613,1729949572.0093913,2000
-545.8966548319644,-187500.02235174447,15425.67645617443,-187500.02235174447,-187500.02235174447,-187500.02235174447,-187500.02235174447,-187500.02235174447,1729949573.761662,1729949572.0093913,2000
-498.3544943755263,-187500.02235174447,15452.900880920994,-187500.02235174447,-187500.02235174447,-187500.02235174447,-187500.02235174447,-187500.02235174447,1729949573.7653444,1729949572.0093913,2000
-631.2356151623268,-187500.02235174447,15277.082059035549,-187500.02235174447,-187500.02235174447,-187500.02235174447,-187500.02235174447,-187500.02235174447,1729949573.769452,1729949572.0093913,2000
-702.0459415967396,-187500.02235174447,15225.941267721806,-187500.02235174447,-187500.02235174447,-187500.02235174447,-187500.02235174447,-187500.02235174447,1729949573.7732928,1729949572.0093913,2000
-611.0072864302739,-187500.02235174447,15367.696031057363,-187500.02235174447,-187500.02235174447,-187500.02235174447,-187500.02235174447,-187500.02235174447,1729949573.7775176,1729949572.0093913,2000
-519.9686312638082,-187500.02235174447,15433.253697544778,-187500.02235174447,-187500.02235174447,-187500.02235174447,-187500.02235174447,-187500.02235174447,1729949573.781486,1729949572.0093913,2000
-589.9966466422852,-187500.02235174447,15328.915754427404,-187500.02235174447,-187500.02235174447,-187500.02235174447,-187500.02235174447,-187500.02235174447,1729949573.7862756,1729949572.0093913,2000
-684.2092495214044,-187500.02235174447,15248.024791243648,-187500.02235174447,-187500.02235174447,-187500.02235174447,-187500.02235174447,-187500.02235174447,1729949573.789622,1729949572.0093913,2000
-598.6691234909443,-187500.02235174447,15348.4735308258,-187500.02235174447,-187500.02235174447,-187500.02235174447,-187500.02235174447,-187500.02235174447,1729949573.7933607,1729949572.0093913,2000
-459.0824793675517,-187500.02235174447,15461.215729858368,-187500.02235174447,-187500.02235174447,-187500.02235174447,-187500.02235174447,-187500.02235174447,1729949573.797794,1729949572.0093913,2000
-565.9238178639196,-187500.02235174447,15361.862225754528,-187500.02235174447,-187500.02235174447,-187500.02235174447,-187500.02235174447,-187500.02235174447,1729949573.8013763,1729949572.0093913,2000
-679.2471622523263,-187500.02235174447,15260.698230349808,-187500.02235174447,-187500.02235174447,-187500.02235174447,-187500.02235174447,-187500.02235174447,1729949573.8058,1729949572.0093913,2000
-654.3696706735695,-187500.02235174447,15332.626144006988,-187500.02235174447,-187500.02235174447,-187500.02235174447,-187500.02235174447,-187500.02235174447,1729949573.809363,1729949572.0093913,2000
-521.6003086090457,-187500.02235174447,15486.227331903856,-187500.02235174447,-187500.02235174447,-187500.02235174447,-187500.02235174447,-187500.02235174447,1729949573.8145983,1729949572.0093913,2000
-542.4321344413918,-187500.02235174447,15393.780516836709,-187500.02235174447,-187500.02235174447,-187500.02235174447,-187500.02235174447,-187500.02235174447,1729949573.8173652,1729949572.0093913,2000
-660.3822899320471,-187500.02235174447,15222.476747331231,-187500.02235174447,-187500.02235174447,-187500.02235174447,-187500.02235174447,-187500.02235174447,1729949573.8206406,1729949572.0093913,2000
-668.0265865357621,-187500.02235174447,15289.464925463788,-187500.02235174447,-187500.02235174447,-187500.02235174447,-187500.02235174447,-187500.02235174447,1729949573.825269,1729949572.0093913,2000
-543.0356315416851,-187500.02235174447,15481.131134168048,-187500.02235174447,-187500.02235174447,-187500.02235174447,-187500.02235174447,-187500.02235174447,1729949573.8297684,1729949572.0093913,2000
-517.7558085627328,-187500.02235174447,15436.740569679809,-187500.02235174447,-187500.02235174447,-187500.02235174447,-187500.02235174447,-187500.02235174447,1729949573.833336,1729949572.0093913,2000
-680.9905983198403,-187500.02235174447,15228.86934624545,-187500.02235174447,-187500.02235174447,-187500.02235174447,-187500.02235174447,-187500.02235174447,1729949573.8376527,1729949572.0093913,2000
-692.3899879920468,-187500.02235174447,15250.036448244626,-187500.02235174447,-187500.02235174447,-187500.02235174447,-187500.02235174447,-187500.02235174447,1729949573.8412497,1729949572.0093913,2000
-522.9861167652747,-187500.02235174447,15449.05638087468,-187500.02235174447,-187500.02235174447,-187500.02235174447,-187500.02235174447,-187500.02235174447,1729949573.8463364,1729949572.0093913,2000
-479.7354912442555,-187500.02235174447,15454.756075710784,-187500.02235174447,-187500.02235174447,-187500.02235174447,-187500.02235174447,-187500.02235174447,1729949573.8493304,1729949572.0093913,2000
-625.4241616039469,-187500.02235174447,15273.863407833984,-187500.02235174447,-187500.02235174447,-187500.02235174447,-187500.02235174447,-187500.02235174447,1729949573.853534,1729949572.0093913,2000
-706.9186218879964,-187500.02235174447,15226.835337500015,-187500.02235174447,-187500.02235174447,-187500.02235174447,-187500.02235174447,-187500.02235174447,1729949573.8573442,1729949572.0093913,2000
-590.5554402536679,-187500.02235174447,15380.592987608075,-187500.02235174447,-187500.02235174447,-187500.02235174447,-187500.02235174447,-187500.02235174447,1729949573.8615391,1729949572.0093913,2000
-537.8947303169645,-187500.02235174447,15451.112741364568,-187500.02235174447,-187500.02235174447,-187500.02235174447,-187500.02235174447,-187500.02235174447,1729949573.865308,1729949572.0093913,2000
-616.4387603329135,-187500.02235174447,15337.051789409135,-187500.02235174447,-187500.02235174447,-187500.02235174447,-187500.02235174447,-187500.02235174447,1729949573.8707929,1729949572.0093913,2000
-656.7836590747427,-187500.02235174447,15272.656413633396,-187500.02235174447,-187500.02235174447,-187500.02235174447,-187500.02235174447,-187500.02235174447,1729949573.8732884,1729949572.0093913,2000
-566.0802800751067,-187500.02235174447,15390.80773482415,-187500.02235174447,-187500.02235174447,-187500.02235174447,-187500.02235174447,-187500.02235174447,1729949573.8763504,1729949572.0093913,2000
-525.6236226110009,-187500.02235174447,15458.44411354591,-187500.02235174447,-187500.02235174447,-187500.02235174447,-187500.02235174447,-187500.02235174447,1729949573.88142,1729949572.0093913,2000
-619.1880249009163,-187500.02235174447,15317.471661266289,-187500.02235174447,-187500.02235174447,-187500.02235174447,-187500.02235174447,-187500.02235174447,1729949573.8859634,1729949572.0093913,2000
-658.3259294421589,-187500.02235174447,15264.319212951568,-187500.02235174447,-187500.02235174447,-187500.02235174447,-187500.02235174447,-187500.02235174447,1729949573.8895037,1729949572.0093913,2000
-575.4680127463356,-187500.02235174447,15370.914682258926,-187500.02235174447,-187500.02235174447,-187500.02235174447,-187500.02235174447,-187500.02235174447,1729949573.893579,1729949572.0093913,2000
-490.68784602735593,-187500.02235174447,15483.031032446746,-187500.02235174447,-187500.02235174447,-187500.02235174447,-187500.02235174447,-187500.02235174447,1729949573.8978603,1729949572.0093913,2000
-599.2502688467823,-187500.02235174447,15357.682449541386,-187500.02235174447,-187500.02235174447,-187500.02235174447,-187500.02235174447,-187500.02235174447,1729949573.9003437,1729949572.0093913,2000
-686.4444239669352,-187500.02235174447,15221.67208453084,-187500.02235174447,-187500.02235174447,-187500.02235174447,-187500.02235174447,-187500.02235174447,1729949573.9045749,1729949572.0093913,2000
-634.9460047419077,-187500.02235174447,15304.440594248845,-187500.02235174447,-187500.02235174447,-187500.02235174447,-187500.02235174447,-187500.02235174447,1729949573.9094136,1729949572.0093913,2000
-501.17081417689496,-187500.02235174447,15477.376041099556,-187500.02235174447,-187500.02235174447,-187500.02235174447,-187500.02235174447,-187500.02235174447,1729949573.9139814,1729949572.0093913,2000
-567.264922531238,-187500.02235174447,15371.160551447934,-187500.02235174447,-187500.02235174447,-187500.02235174447,-187500.02235174447,-187500.02235174447,1729949573.917482,1729949572.0093913,2000
-696.0556740827172,-187500.02235174447,15225.471881088244,-187500.02235174447,-187500.02235174447,-187500.02235174447,-187500.02235174447,-187500.02235174447,1729949573.921811,1729949572.0093913,2000
-629.4027721169916,-187500.02235174447,15304.261780293202,-187500.02235174447,-187500.02235174447,-187500.02235174447,-187500.02235174447,-187500.02235174447,1729949573.9245262,1729949572.0093913,2000
-513.8442532830541,-187500.02235174447,15464.143808382012,-187500.02235174447,-187500.02235174447,-187500.02235174447,-187500.02235174447,-187500.02235174447,1729949573.928764,1729949572.0093913,2000
-530.652765113445,-187500.02235174447,15420.75907239426,-187500.02235174447,-187500.02235174447,-187500.02235174447,-187500.02235174447,-187500.02235174447,1729949573.9323564,1729949572.0093913,2000
-655.934292785441,-187500.02235174447,15267.78373334214,-187500.02235174447,-187500.02235174447,-187500.02235174447,-187500.02235174447,-187500.02235174447,1729949573.9366107,1729949572.0093913,2000
-678.3977959630247,-187500.02235174447,15289.554332441608,-187500.02235174447,-187500.02235174447,-187500.02235174447,-187500.02235174447,-187500.02235174447,1729949573.9413457,1729949572.0093913,2000
-552.6915851463777,-187500.02235174447,15442.239098815811,-187500.02235174447,-187500.02235174447,-187500.02235174447,-187500.02235174447,-187500.02235174447,1729949573.9464035,1729949572.0093913,2000
-509.7091805588223,-187500.02235174447,15443.96018313887,-187500.02235174447,-187500.02235174447,-187500.02235174447,-187500.02235174447,-187500.02235174447,1729949573.9505484,1729949572.0093913,2000
-654.4367259069355,-187500.02235174447,15261.480541405745,-187500.02235174447,-187500.02235174447,-187500.02235174447,-187500.02235174447,-187500.02235174447,1729949573.9536998,1729949572.0093913,2000
-655.6437201075221,-187500.02235174447,15229.696360790296,-187500.02235174447,-187500.02235174447,-187500.02235174447,-187500.02235174447,-187500.02235174447,1729949573.9564345,1729949572.0093913,2000
-549.8305618560985,-187500.02235174447,15417.741586892796,-187500.02235174447,-187500.02235174447,-187500.02235174447,-187500.02235174447,-187500.02235174447,1729949573.9611197,1729949572.0093913,2000
-509.8656427700094,-187500.02235174447,15484.05921269169,-187500.02235174447,-187500.02235174447,-187500.02235174447,-187500.02235174447,-187500.02235174447,1729949573.9647987,1729949572.0093913,2000
-619.2103766453715,-187500.02235174447,15331.910888184417,-187500.02235174447,-187500.02235174447,-187500.02235174447,-187500.02235174447,-187500.02235174447,1729949573.9700572,1729949572.0093913,2000
-684.2316012658598,-187500.02235174447,15239.329962650534,-187500.02235174447,-187500.02235174447,-187500.02235174447,-187500.02235174447,-187500.02235174447,1729949573.9735072,1729949572.0093913,2000
-577.0326348582071,-187500.02235174447,15367.561920590631,-187500.02235174447,-187500.02235174447,-187500.02235174447,-187500.02235174447,-187500.02235174447,1729949573.9781532,1729949572.0093913,2000
-487.1786221478727,-187500.02235174447,15457.371229812055,-187500.02235174447,-187500.02235174447,-187500.02235174447,-187500.02235174447,-187500.02235174447,1729949573.980726,1729949572.0093913,2000
-621.4679028353576,-187500.02235174447,15332.290867840156,-187500.02235174447,-187500.02235174447,-187500.02235174447,-187500.02235174447,-187500.02235174447,1729949573.9845347,1729949572.0093913,2000
-714.9205464029964,-187500.02235174447,15222.566154309054,-187500.02235174447,-187500.02235174447,-187500.02235174447,-187500.02235174447,-187500.02235174447,1729949573.9890623,1729949572.0093913,2000
-602.35716132607,-187500.02235174447,15319.103338611523,-187500.02235174447,-187500.02235174447,-187500.02235174447,-187500.02235174447,-187500.02235174447,1729949573.992542,1729949572.0093913,2000
-515.878262028487,-187500.02235174447,15464.412029315476,-187500.02235174447,-187500.02235174447,-187500.02235174447,-187500.02235174447,-187500.02235174447,1729949573.997796,1729949572.0093913,2000
-588.6778937194221,-187500.02235174447,15391.210066224345,-187500.02235174447,-187500.02235174447,-187500.02235174447,-187500.02235174447,-187500.02235174447,1729949574.0015807,1729949572.0093913,2000
-656.8954177970193,-187500.02235174447,15249.656468588886,-187500.02235174447,-187500.02235174447,-187500.02235174447,-187500.02235174447,-187500.02235174447,1729949574.0056298,1729949572.0093913,2000
-608.1015596510839,-187500.02235174447,15309.22386756228,-187500.02235174447,-187500.02235174447,-187500.02235174447,-187500.02235174447,-187500.02235174447,1729949574.00852,1729949572.0093913,2000
-525.7353813332775,-187500.02235174447,15461.215729858368,-187500.02235174447,-187500.02235174447,-187500.02235174447,-187500.02235174447,-187500.02235174447,1729949574.0131204,1729949572.0093913,2000
-569.6118556990452,-187500.02235174447,15392.707633102851,-187500.02235174447,-187500.02235174447,-187500.02235174447,-187500.02235174447,-187500.02235174447,1729949574.016521,1729949572.0093913,2000
-689.3054472572145,-187500.02235174447,15257.993669270716,-187500.02235174447,-187500.02235174447,-187500.02235174447,-187500.02235174447,-187500.02235174447,1729949574.0207329,1729949572.0093913,2000
-627.4358186049245,-187500.02235174447,15298.115050567993,-187500.02235174447,-187500.02235174447,-187500.02235174447,-187500.02235174447,-187500.02235174447,1729949574.025546,1729949572.0093913,2000
-518.0463812406518,-187500.02235174447,15454.621965244052,-187500.02235174447,-187500.02235174447,-187500.02235174447,-187500.02235174447,-187500.02235174447,1729949574.030124,1729949572.0093913,2000
-540.554587907146,-187500.02235174447,15434.170119067448,-187500.02235174447,-187500.02235174447,-187500.02235174447,-187500.02235174447,-187500.02235174447,1729949574.0327072,1729949572.0093913,2000
-668.7418423583321,-187500.02235174447,15261.92757629485,-187500.02235174447,-187500.02235174447,-187500.02235174447,-187500.02235174447,-187500.02235174447,1729949574.0367763,1729949572.0093913,2000
-677.9060575850079,-187500.02235174447,15252.472788390254,-187500.02235174447,-187500.02235174447,-187500.02235174447,-187500.02235174447,-187500.02235174447,1729949574.040514,1729949572.0093913,2000
-553.5409514356794,-187500.02235174447,15437.81345341366,-187500.02235174447,-187500.02235174447,-187500.02235174447,-187500.02235174447,-187500.02235174447,1729949574.0446944,1729949572.0093913,2000
-509.2174421808055,-187500.02235174447,15450.889223920016,-187500.02235174447,-187500.02235174447,-187500.02235174447,-187500.02235174447,-187500.02235174447,1729949574.0485215,1729949572.0093913,2000
-623.5019115807905,-187500.02235174447,15268.49898916471,-187500.02235174447,-187500.02235174447,-187500.02235174447,-187500.02235174447,-187500.02235174447,1729949574.0540042,1729949572.0093913,2000
-670.3064644702035,-187500.02235174447,15238.838224272517,-187500.02235174447,-187500.02235174447,-187500.02235174447,-187500.02235174447,-187500.02235174447,1729949574.057622,1729949572.0093913,2000
-550.0540793006516,-187500.02235174447,15411.058415300658,-187500.02235174447,-187500.02235174447,-187500.02235174447,-187500.02235174447,-187500.02235174447,1729949574.061302,1729949572.0093913,2000
-525.5118638887244,-187500.02235174447,15467.608328772583,-187500.02235174447,-187500.02235174447,-187500.02235174447,-187500.02235174447,-187500.02235174447,1729949574.0646355,1729949572.0093913,2000
-631.8167605181648,-187500.02235174447,15316.17526008788,-187500.02235174447,-187500.02235174447,-187500.02235174447,-187500.02235174447,-187500.02235174447,1729949574.0693,1729949572.0093913,2000
-680.2529907528151,-187500.02235174447,15234.881965503928,-187500.02235174447,-187500.02235174447,-187500.02235174447,-187500.02235174447,-187500.02235174447,1729949574.072906,1729949572.0093913,2000
-606.2910683502041,-187500.02235174447,15350.149911659946,-187500.02235174447,-187500.02235174447,-187500.02235174447,-187500.02235174447,-187500.02235174447,1729949574.076763,1729949572.0093913,2000
-496.7451687747442,-187500.02235174447,15466.893072950015,-187500.02235174447,-187500.02235174447,-187500.02235174447,-187500.02235174447,-187500.02235174447,1729949574.0815318,1729949572.0093913,2000
-559.4641637163357,-187500.02235174447,15361.594004821063,-187500.02235174447,-187500.02235174447,-187500.02235174447,-187500.02235174447,-187500.02235174447,1729949574.0857892,1729949572.0093913,2000
-639.9974989888071,-187500.02235174447,15242.459206874277,-187500.02235174447,-187500.02235174447,-187500.02235174447,-187500.02235174447,-187500.02235174447,1729949574.0891335,1729949572.0093913,2000
-629.8051035171871,-187500.02235174447,15326.524117770688,-187500.02235174447,-187500.02235174447,-187500.02235174447,-187500.02235174447,-187500.02235174447,1729949574.0927172,1729949572.0093913,2000
-560.6041026835564,-187500.02235174447,15440.741531937309,-187500.02235174447,-187500.02235174447,-187500.02235174447,-187500.02235174447,-187500.02235174447,1729949574.0971012,1729949572.0093913,2000
-604.3688183270476,-187500.02235174447,15347.333591858578,-187500.02235174447,-187500.02235174447,-187500.02235174447,-187500.02235174447,-187500.02235174447,1729949574.100652,1729949572.0093913,2000
-693.127595559072,-187500.02235174447,15253.5009686352,-187500.02235174447,-187500.02235174447,-187500.02235174447,-187500.02235174447,-187500.02235174447,1729949574.1047928,1729949572.0093913,2000
-618.875100478542,-187500.02235174447,15320.712664212308,-187500.02235174447,-187500.02235174447,-187500.02235174447,-187500.02235174447,-187500.02235174447,1729949574.109724,1729949572.0093913,2000
-492.3865786059593,-187500.02235174447,15471.005793929791,-187500.02235174447,-187500.02235174447,-187500.02235174447,-187500.02235174447,-187500.02235174447,1729949574.1144032,1729949572.0093913,2000
-524.8860150439757,-187500.02235174447,15405.962217564847,-187500.02235174447,-187500.02235174447,-187500.02235174447,-187500.02235174447,-187500.02235174447,1729949574.1165972,1729949572.0093913,2000
-639.0810774661395,-187500.02235174447,15248.248308688202,-187500.02235174447,-187500.02235174447,-187500.02235174447,-187500.02235174447,-187500.02235174447,1729949574.121274,1729949572.0093913,2000
-667.7583656022985,-187500.02235174447,15253.232747701735,-187500.02235174447,-187500.02235174447,-187500.02235174447,-187500.02235174447,-187500.02235174447,1729949574.1246,1729949572.0093913,2000
-553.1609717799391,-187500.02235174447,15450.173968097446,-187500.02235174447,-187500.02235174447,-187500.02235174447,-187500.02235174447,-187500.02235174447,1729949574.1291044,1729949572.0093913,2000
-535.1454657489617,-187500.02235174447,15436.87468014654,-187500.02235174447,-187500.02235174447,-187500.02235174447,-187500.02235174447,-187500.02235174447,1729949574.132734,1729949572.0093913,2000
-652.000385761307,-187500.02235174447,15258.753628582195,-187500.02235174447,-187500.02235174447,-187500.02235174447,-187500.02235174447,-187500.02235174447,1729949574.1370597,1729949572.0093913,2000
-660.158772487494,-187500.02235174447,15271.874102577462,-187500.02235174447,-187500.02235174447,-187500.02235174447,-187500.02235174447,-187500.02235174447,1729949574.1408515,1729949572.0093913,2000
-545.7848961096879,-187500.02235174447,15452.118569865055,-187500.02235174447,-187500.02235174447,-187500.02235174447,-187500.02235174447,-187500.02235174447,1729949574.1444414,1729949572.0093913,2000
-521.7791225646881,-187500.02235174447,15443.91547964996,-187500.02235174447,-187500.02235174447,-187500.02235174447,-187500.02235174447,-187500.02235174447,1729949574.1487336,1729949572.0093913,2000
-621.0879231796174,-187500.02235174447,15270.64475663242,-187500.02235174447,-187500.02235174447,-187500.02235174447,-187500.02235174447,-187500.02235174447,1729949574.1532316,1729949572.0093913,2000
-632.420257618458,-187500.02235174447,15224.890735732406,-187500.02235174447,-187500.02235174447,-187500.02235174447,-187500.02235174447,-187500.02235174447,1729949574.1567693,1729949572.0093913,2000
-559.5759224386123,-187500.02235174447,15381.531760875198,-187500.02235174447,-187500.02235174447,-187500.02235174447,-187500.02235174447,-187500.02235174447,1729949574.1612835,1729949572.0093913,2000
-560.9617305948414,-187500.02235174447,15470.82697997415,-187500.02235174447,-187500.02235174447,-187500.02235174447,-187500.02235174447,-187500.02235174447,1729949574.164662,1729949572.0093913,2000
-618.8974522229972,-187500.02235174447,15347.51240581422,-187500.02235174447,-187500.02235174447,-187500.02235174447,-187500.02235174447,-187500.02235174447,1729949574.168852,1729949572.0093913,2000
-660.6505108655108,-187500.02235174447,15263.335736195531,-187500.02235174447,-187500.02235174447,-187500.02235174447,-187500.02235174447,-187500.02235174447,1729949574.1722388,1729949572.0093913,2000
-597.7974054571874,-187500.02235174447,15364.052696711147,-187500.02235174447,-187500.02235174447,-187500.02235174447,-187500.02235174447,-187500.02235174447,1729949574.1774428,1729949572.0093913,2000
-485.0999099135292,-187500.02235174447,15467.451866561398,-187500.02235174447,-187500.02235174447,-187500.02235174447,-187500.02235174447,-187500.02235174447,1729949574.1811252,1729949572.0093913,2000
-580.0054168707629,-187500.02235174447,15343.109112156524,-187500.02235174447,-187500.02235174447,-187500.02235174447,-187500.02235174447,-187500.02235174447,1729949574.1847832,1729949572.0093913,2000
-695.742749660343,-187500.02235174447,15233.96554398126,-187500.02235174447,-187500.02235174447,-187500.02235174447,-187500.02235174447,-187500.02235174447,1729949574.1890545,1729949572.0093913,2000
-621.8255307466425,-187500.02235174447,15327.574649760089,-187500.02235174447,-187500.02235174447,-187500.02235174447,-187500.02235174447,-187500.02235174447,1729949574.1928637,1729949572.0093913,2000
-508.8821660139759,-187500.02235174447,15455.62779374454,-187500.02235174447,-187500.02235174447,-187500.02235174447,-187500.02235174447,-187500.02235174447,1729949574.1974976,1729949572.0093913,2000
-589.97429489783,-187500.02235174447,15347.914737214416,-187500.02235174447,-187500.02235174447,-187500.02235174447,-187500.02235174447,-187500.02235174447,1729949574.1996813,1729949572.0093913,2000
-692.0100083363067,-187500.02235174447,15217.53701180661,-187500.02235174447,-187500.02235174447,-187500.02235174447,-187500.02235174447,-187500.02235174447,1729949574.2038968,1729949572.0093913,2000
-639.5057606107904,-187500.02235174447,15348.160606403424,-187500.02235174447,-187500.02235174447,-187500.02235174447,-187500.02235174447,-187500.02235174447,1729949574.2087872,1729949572.0093913,2000
-502.6013258220346,-187500.02235174447,15485.534427825742,-187500.02235174447,-187500.02235174447,-187500.02235174447,-187500.02235174447,-187500.02235174447,1729949574.2128425,1729949572.0093913,2000
-538.6993931173555,-187500.02235174447,15412.488926945798,-187500.02235174447,-187500.02235174447,-187500.02235174447,-187500.02235174447,-187500.02235174447,1729949574.2171197,1729949572.0093913,2000
-685.1033192996168,-187500.02235174447,15239.575831839542,-187500.02235174447,-187500.02235174447,-187500.02235174447,-187500.02235174447,-187500.02235174447,1729949574.22093,1729949572.0093913,2000
-657.2753974527595,-187500.02235174447,15270.197721743312,-187500.02235174447,-187500.02235174447,-187500.02235174447,-187500.02235174447,-187500.02235174447,1729949574.2248328,1729949572.0093913,2000
-521.6003086090457,-187500.02235174447,15437.969915624848,-187500.02235174447,-187500.02235174447,-187500.02235174447,-187500.02235174447,-187500.02235174447,1729949574.2279203,1729949572.0093913,2000
-490.7772530051772,-187500.02235174447,15420.803775883172,-187500.02235174447,-187500.02235174447,-187500.02235174447,-187500.02235174447,-187500.02235174447,1729949574.2316923,1729949572.0093913,2000
-660.874028310064,-187500.02235174447,15242.615669085464,-187500.02235174447,-187500.02235174447,-187500.02235174447,-187500.02235174447,-187500.02235174447,1729949574.2369592,1729949572.0093913,2000
-725.515273274812,-187500.02235174447,15249.879986033438,-187500.02235174447,-187500.02235174447,-187500.02235174447,-187500.02235174447,-187500.02235174447,1729949574.2407243,1729949572.0093913,2000
-548.8917885889755,-187500.02235174447,15435.645334201496,-187500.02235174447,-187500.02235174447,-187500.02235174447,-187500.02235174447,-187500.02235174447,1729949574.2450783,1729949572.0093913,2000
-510.9161747594088,-187500.02235174447,15426.48111897482,-187500.02235174447,-187500.02235174447,-187500.02235174447,-187500.02235174447,-187500.02235174447,1729949574.2488248,1729949572.0093913,2000
-602.2901060927041,-187500.02235174447,15260.295898949613,-187500.02235174447,-187500.02235174447,-187500.02235174447,-187500.02235174447,-187500.02235174447,1729949574.2521026,1729949572.0093913,2000
-695.742749660343,-187500.02235174447,15252.4504366458,-187500.02235174447,-187500.02235174447,-187500.02235174447,-187500.02235174447,-187500.02235174447,1729949574.2578764,1729949572.0093913,2000
-616.1705393994498,-187500.02235174447,15396.19450523788,-187500.02235174447,-187500.02235174447,-187500.02235174447,-187500.02235174447,-187500.02235174447,1729949574.26113,1729949572.0093913,2000
-514.4701021278026,-187500.02235174447,15460.813398458173,-187500.02235174447,-187500.02235174447,-187500.02235174447,-187500.02235174447,-187500.02235174447,1729949574.2648196,1729949572.0093913,2000
-596.2551350897712,-187500.02235174447,15335.33070508608,-187500.02235174447,-187500.02235174447,-187500.02235174447,-187500.02235174447,-187500.02235174447,1729949574.2690887,1729949572.0093913,2000
-641.2491966783043,-187500.02235174447,15267.269643219668,-187500.02235174447,-187500.02235174447,-187500.02235174447,-187500.02235174447,-187500.02235174447,1729949574.2728677,1729949572.0093913,2000
-613.8906614650085,-187500.02235174447,15372.769877048717,-187500.02235174447,-187500.02235174447,-187500.02235174447,-187500.02235174447,-187500.02235174447,1729949574.275888,1729949572.0093913,2000
-534.1396372484729,-187500.02235174447,15464.792008971215,-187500.02235174447,-187500.02235174447,-187500.02235174447,-187500.02235174447,-187500.02235174447,1729949574.280456,1729949572.0093913,2000
-601.6419055035002,-187500.02235174447,15332.961420173817,-187500.02235174447,-187500.02235174447,-187500.02235174447,-187500.02235174447,-187500.02235174447,1729949574.2840743,1729949572.0093913,2000
-665.0538045232064,-187500.02235174447,15227.64000030041,-187500.02235174447,-187500.02235174447,-187500.02235174447,-187500.02235174447,-187500.02235174447,1729949574.288268,1729949572.0093913,2000
-617.2210713888493,-187500.02235174447,15302.004254103214,-187500.02235174447,-187500.02235174447,-187500.02235174447,-187500.02235174447,-187500.02235174447,1729949574.2919855,1729949572.0093913,2000
-547.5059804327465,-187500.02235174447,15432.851366144583,-187500.02235174447,-187500.02235174447,-187500.02235174447,-187500.02235174447,-187500.02235174447,1729949574.29756,1729949572.0093913,2000
-583.6263994725227,-187500.02235174447,15360.09643794256,-187500.02235174447,-187500.02235174447,-187500.02235174447,-187500.02235174447,-187500.02235174447,1729949574.300959,1729949572.0093913,2000
-661.0304905212511,-187500.02235174447,15249.365895910969,-187500.02235174447,-187500.02235174447,-187500.02235174447,-187500.02235174447,-187500.02235174447,1729949574.30404,1729949572.0093913,2000
-651.7321648278433,-187500.02235174447,15318.969228144791,-187500.02235174447,-187500.02235174447,-187500.02235174447,-187500.02235174447,-187500.02235174447,1729949574.3079264,1729949572.0093913,2000
-515.00654399473,-187500.02235174447,15474.269148620268,-187500.02235174447,-187500.02235174447,-187500.02235174447,-187500.02235174447,-187500.02235174447,1729949574.3125572,1729949572.0093913,2000
-500.3437996320486,-187500.02235174447,15407.124508276524,-187500.02235174447,-187500.02235174447,-187500.02235174447,-187500.02235174447,-187500.02235174447,1729949574.3160636,1729949572.0093913,2000
-615.7011527658883,-187500.02235174447,15269.281300220646,-187500.02235174447,-187500.02235174447,-187500.02235174447,-187500.02235174447,-187500.02235174447,1729949574.320462,1729949572.0093913,2000
-682.6222756650777,-187500.02235174447,15286.112163795491,-187500.02235174447,-187500.02235174447,-187500.02235174447,-187500.02235174447,-187500.02235174447,1729949574.324937,1729949572.0093913,2000
-573.1210795785283,-187500.02235174447,15430.146805065491,-187500.02235174447,-187500.02235174447,-187500.02235174447,-187500.02235174447,-187500.02235174447,1729949574.3294125,1729949572.0093913,2000
-559.9335503498972,-187500.02235174447,15406.1857350094,-187500.02235174447,-187500.02235174447,-187500.02235174447,-187500.02235174447,-187500.02235174447,1729949574.3319736,1729949572.0093913,2000
-663.1762579889605,-187500.02235174447,15248.002439499192,-187500.02235174447,-187500.02235174447,-187500.02235174447,-187500.02235174447,-187500.02235174447,1729949574.33602,1729949572.0093913,2000
-667.4901446688348,-187500.02235174447,15248.002439499192,-187500.02235174447,-187500.02235174447,-187500.02235174447,-187500.02235174447,-187500.02235174447,1729949574.3400598,1729949572.0093913,2000
-547.8189048551208,-187500.02235174447,15442.842595916103,-187500.02235174447,-187500.02235174447,-187500.02235174447,-187500.02235174447,-187500.02235174447,1729949574.3445575,1729949572.0093913,2000
-510.6032503370345,-187500.02235174447,15455.06900013316,-187500.02235174447,-187500.02235174447,-187500.02235174447,-187500.02235174447,-187500.02235174447,1729949574.347993,1729949572.0093913,2000
-638.388173388025,-187500.02235174447,15267.82843683105,-187500.02235174447,-187500.02235174447,-187500.02235174447,-187500.02235174447,-187500.02235174447,1729949574.353297,1729949572.0093913,2000
-692.9711333478849,-187500.02235174447,15233.563212581064,-187500.02235174447,-187500.02235174447,-187500.02235174447,-187500.02235174447,-187500.02235174447,1729949574.357978,1729949572.0093913,2000
-592.1424141099947,-187500.02235174447,15402.09536577408,-187500.02235174447,-187500.02235174447,-187500.02235174447,-187500.02235174447,-187500.02235174447,1729949574.362504,1729949572.0093913,2000
-501.394331621448,-187500.02235174447,15479.231235889343,-187500.02235174447,-187500.02235174447,-187500.02235174447,-187500.02235174447,-187500.02235174447,1729949574.3650403,1729949572.0093913,2000
-589.393149541992,-187500.02235174447,15327.529946271176,-187500.02235174447,-187500.02235174447,-187500.02235174447,-187500.02235174447,-187500.02235174447,1729949574.3681629,1729949572.0093913,2000
-670.5746854036672,-187500.02235174447,15216.2406106282,-187500.02235174447,-187500.02235174447,-187500.02235174447,-187500.02235174447,-187500.02235174447,1729949574.372501,1729949572.0093913,2000
-613.1530538979833,-187500.02235174447,15337.968210931804,-187500.02235174447,-187500.02235174447,-187500.02235174447,-187500.02235174447,-187500.02235174447,1729949574.3761332,1729949572.0093913,2000
-522.0473434981518,-187500.02235174447,15484.372137114064,-187500.02235174447,-187500.02235174447,-187500.02235174447,-187500.02235174447,-187500.02235174447,1729949574.3813396,1729949572.0093913,2000
-557.7654311377324,-187500.02235174447,15380.905912030448,-187500.02235174447,-187500.02235174447,-187500.02235174447,-187500.02235174447,-187500.02235174447,1729949574.3854556,1729949572.0093913,2000
-654.7272985848545,-187500.02235174447,15206.852877956971,-187500.02235174447,-187500.02235174447,-187500.02235174447,-187500.02235174447,-187500.02235174447,1729949574.3883283,1729949572.0093913,2000
-656.8954177970193,-187500.02235174447,15268.63309963144,-187500.02235174447,-187500.02235174447,-187500.02235174447,-187500.02235174447,-187500.02235174447,1729949574.392136,1729949572.0093913,2000
