Fp1,Fp2,C3,C4,P7,P8,O1,O2,time_board,time_marker,marker
8421.153834003668,-187500.02235174447,25308.58967406627,-187500.02235174447,-187500.02235174447,-187500.02235174447,-187500.02235174447,-187500.02235174447,1729948348.4151957,1729948348.413602,2000
8413.487185655498,-187500.02235174447,25403.718698468056,-187500.02235174447,-187500.02235174447,-187500.02235174447,-187500.02235174447,-187500.02235174447,1729948348.4193764,1729948348.413602,2000
8278.415593912077,-187500.02235174447,25416.861524207776,-187500.02235174447,-187500.02235174447,-187500.02235174447,-187500.02235174447,-187500.02235174447,1729948348.424379,1729948348.413602,2000
8430.809787608361,-187500.02235174447,25396.230864075525,-187500.02235174447,-187500.02235174447,-187500.02235174447,-187500.02235174447,-187500.02235174447,1729948348.427363,1729948348.413602,2000
8608.595563005872,-187500.02235174447,25421.51068705448,-187500.02235174447,-187500.02235174447,-187500.02235174447,-187500.02235174447,-187500.02235174447,1729948348.4303827,1729948348.413602,2000
8413.084854255301,-187500.02235174447,25468.047019010428,-187500.02235174447,-187500.02235174447,-187500.02235174447,-187500.02235174447,-187500.02235174447,1729948348.4352655,1729948348.413602,2000
8349.762362213416,-187500.02235174447,25422.4494603216,-187500.02235174447,-187500.02235174447,-187500.02235174447,-187500.02235174447,-187500.02235174447,1729948348.4393277,1729948348.413602,2000
8635.797636007981,-187500.02235174447,25290.663575013117,-187500.02235174447,-187500.02235174447,-187500.02235174447,-187500.02235174447,-187500.02235174447,1729948348.4432266,1729948348.413602,2000
8603.94640015917,-187500.02235174447,25462.57084161888,-187500.02235174447,-187500.02235174447,-187500.02235174447,-187500.02235174447,-187500.02235174447,1729948348.4472442,1729948348.413602,2000
8275.554570621798,-187500.02235174447,25540.176098367705,-187500.02235174447,-187500.02235174447,-187500.02235174447,-187500.02235174447,-187500.02235174447,1729948348.4512012,1729948348.413602,2000
8319.676914176574,-187500.02235174447,25444.42122512117,-187500.02235174447,-187500.02235174447,-187500.02235174447,-187500.02235174447,-187500.02235174447,1729948348.4554217,1729948348.413602,2000
8434.028438809924,-187500.02235174447,25364.40197997117,-187500.02235174447,-187500.02235174447,-187500.02235174447,-187500.02235174447,-187500.02235174447,1729948348.4584064,1729948348.413602,2000
8792.818640806514,-187500.02235174447,25396.141457097707,-187500.02235174447,-187500.02235174447,-187500.02235174447,-187500.02235174447,-187500.02235174447,1729948348.4633708,1729948348.413602,2000
9361.938758127542,-187500.02235174447,25412.27941659444,-187500.02235174447,-187500.02235174447,-187500.02235174447,-187500.02235174447,-187500.02235174447,1729948348.467175,1729948348.413602,2000
8421.533813659407,-187500.02235174447,25425.17637314515,-187500.02235174447,-187500.02235174447,-187500.02235174447,-187500.02235174447,-187500.02235174447,1729948348.4713745,1729948348.413602,2000
7774.763736100643,-187500.02235174447,25392.587529729317,-187500.02235174447,-187500.02235174447,-187500.02235174447,-187500.02235174447,-187500.02235174447,1729948348.47535,1729948348.413602,2000
8410.268534453933,-187500.02235174447,25371.50983470796,-187500.02235174447,-187500.02235174447,-187500.02235174447,-187500.02235174447,-187500.02235174447,1729948348.4793837,1729948348.413602,2000
8625.404074836264,-187500.02235174447,25284.919176688098,-187500.02235174447,-187500.02235174447,-187500.02235174447,-187500.02235174447,-187500.02235174447,1729948348.48343,1729948348.413602,2000
8265.250416427902,-187500.02235174447,25378.952965611574,-187500.02235174447,-187500.02235174447,-187500.02235174447,-187500.02235174447,-187500.02235174447,1729948348.48645,1729948348.413602,2000
8051.970070835361,-187500.02235174447,25544.489985047578,-187500.02235174447,-187500.02235174447,-187500.02235174447,-187500.02235174447,-187500.02235174447,1729948348.4914165,1729948348.413602,2000
8227.475968298431,-187500.02235174447,25556.358761353345,-187500.02235174447,-187500.02235174447,-187500.02235174447,-187500.02235174447,-187500.02235174447,1729948348.4953356,1729948348.413602,2000
8624.577060291418,-187500.02235174447,25444.667094310174,-187500.02235174447,-187500.02235174447,-187500.02235174447,-187500.02235174447,-187500.02235174447,1729948348.499428,1729948348.413602,2000
8982.786116932168,-187500.02235174447,25346.788805340388,-187500.02235174447,-187500.02235174447,-187500.02235174447,-187500.02235174447,-187500.02235174447,1729948348.5034113,1729948348.413602,2000
8324.974277612482,-187500.02235174447,25330.136755721185,-187500.02235174447,-187500.02235174447,-187500.02235174447,-187500.02235174447,-187500.02235174447,1729948348.5073173,1729948348.413602,2000
8059.122629061059,-187500.02235174447,25425.8022219899,-187500.02235174447,-187500.02235174447,-187500.02235174447,-187500.02235174447,-187500.02235174447,1729948348.51047,1729948348.413602,2000
8490.891276704226,-187500.02235174447,25435.65934129469,-187500.02235174447,-187500.02235174447,-187500.02235174447,-187500.02235174447,-187500.02235174447,1729948348.5144289,1729948348.413602,2000
8394.04116797938,-187500.02235174447,25344.82185182832,-187500.02235174447,-187500.02235174447,-187500.02235174447,-187500.02235174447,-187500.02235174447,1729948348.5183885,1729948348.413602,2000
8240.484683571422,-187500.02235174447,25304.499304830948,-187500.02235174447,-187500.02235174447,-187500.02235174447,-187500.02235174447,-187500.02235174447,1729948348.523348,1729948348.413602,2000
8310.982085583459,-187500.02235174447,25332.327226677804,-187500.02235174447,-187500.02235174447,-187500.02235174447,-187500.02235174447,-187500.02235174447,1729948348.5274048,1729948348.413602,2000
8382.507667840442,-187500.02235174447,25411.83238170533,-187500.02235174447,-187500.02235174447,-187500.02235174447,-187500.02235174447,-187500.02235174447,1729948348.531436,1729948348.413602,2000
8441.359810991265,-187500.02235174447,25376.315459765847,-187500.02235174447,-187500.02235174447,-187500.02235174447,-187500.02235174447,-187500.02235174447,1729948348.5343392,1729948348.413602,2000
8392.320083656321,-187500.02235174447,25246.98826634744,-187500.02235174447,-187500.02235174447,-187500.02235174447,-187500.02235174447,-187500.02235174447,1729948348.538502,1729948348.413602,2000
8462.683375201628,-187500.02235174447,25237.600533676214,-187500.02235174447,-187500.02235174447,-187500.02235174447,-187500.02235174447,-187500.02235174447,1729948348.5423136,1729948348.413602,2000
8293.4583179305,-187500.02235174447,25376.673087677133,-187500.02235174447,-187500.02235174447,-187500.02235174447,-187500.02235174447,-187500.02235174447,1729948348.5465195,1729948348.413602,2000
8356.154961127635,-187500.02235174447,25440.442614608124,-187500.02235174447,-187500.02235174447,-187500.02235174447,-187500.02235174447,-187500.02235174447,1729948348.551429,1729948348.413602,2000
8295.604085398209,-187500.02235174447,25183.50931209437,-187500.02235174447,-187500.02235174447,-187500.02235174447,-187500.02235174447,-187500.02235174447,1729948348.5555377,1729948348.413602,2000
8418.851604324771,-187500.02235174447,25018.061699636182,-187500.02235174447,-187500.02235174447,-187500.02235174447,-187500.02235174447,-187500.02235174447,1729948348.5593884,1729948348.413602,2000
8335.390190528655,-187500.02235174447,25365.83249161631,-187500.02235174447,-187500.02235174447,-187500.02235174447,-187500.02235174447,-187500.02235174447,1729948348.5625029,1729948348.413602,2000
8267.306776917789,-187500.02235174447,25553.94477295217,-187500.02235174447,-187500.02235174447,-187500.02235174447,-187500.02235174447,-187500.02235174447,1729948348.5665712,1729948348.413602,2000
8320.526280465876,-187500.02235174447,25363.10557879276,-187500.02235174447,-187500.02235174447,-187500.02235174447,-187500.02235174447,-187500.02235174447,1729948348.57055,1729948348.413602,2000
8346.163731356113,-187500.02235174447,25150.473433789422,-187500.02235174447,-187500.02235174447,-187500.02235174447,-187500.02235174447,-187500.02235174447,1729948348.574523,1729948348.413602,2000
8398.511516870441,-187500.02235174447,25176.17793991303,-187500.02235174447,-187500.02235174447,-187500.02235174447,-187500.02235174447,-187500.02235174447,1729948348.578546,1729948348.413602,2000
8388.989673732482,-187500.02235174447,25454.27834442596,-187500.02235174447,-187500.02235174447,-187500.02235174447,-187500.02235174447,-187500.02235174447,1729948348.5835102,1729948348.413602,2000
8373.99165320297,-187500.02235174447,25421.108355654284,-187500.02235174447,-187500.02235174447,-187500.02235174447,-187500.02235174447,-187500.02235174447,1729948348.587548,1729948348.413602,2000
8281.678948602552,-187500.02235174447,25277.1184178732,-187500.02235174447,-187500.02235174447,-187500.02235174447,-187500.02235174447,-187500.02235174447,1729948348.590653,1729948348.413602,2000
8177.966854329927,-187500.02235174447,25279.44299929655,-187500.02235174447,-187500.02235174447,-187500.02235174447,-187500.02235174447,-187500.02235174447,1729948348.594637,1729948348.413602,2000
8139.99124050036,-187500.02235174447,25509.956539864128,-187500.02235174447,-187500.02235174447,-187500.02235174447,-187500.02235174447,-187500.02235174447,1729948348.598574,1729948348.413602,2000
8115.851356488629,-187500.02235174447,25682.04262042554,-187500.02235174447,-187500.02235174447,-187500.02235174447,-187500.02235174447,-187500.02235174447,1729948348.6025622,1729948348.413602,2000
8335.904280651126,-187500.02235174447,25998.990356801794,-187500.02235174447,-187500.02235174447,-187500.02235174447,-187500.02235174447,-187500.02235174447,1729948348.6074526,1729948348.413602,2000
8397.416281392132,-187500.02235174447,25532.86707793082,-187500.02235174447,-187500.02235174447,-187500.02235174447,-187500.02235174447,-187500.02235174447,1729948348.6115785,1729948348.413602,2000
8501.217782642578,-187500.02235174447,25571.26737490504,-187500.02235174447,-187500.02235174447,-187500.02235174447,-187500.02235174447,-187500.02235174447,1729948348.6156263,1729948348.413602,2000
8397.75155755896,-187500.02235174447,25689.68691702925,-187500.02235174447,-187500.02235174447,-187500.02235174447,-187500.02235174447,-187500.02235174447,1729948348.6184573,1729948348.413602,2000
8289.502059161909,-187500.02235174447,25442.36486463128,-187500.02235174447,-187500.02235174447,-187500.02235174447,-187500.02235174447,-187500.02235174447,1729948348.6225135,1729948348.413602,2000
8349.807065702327,-187500.02235174447,25429.780832502944,-187500.02235174447,-187500.02235174447,-187500.02235174447,-187500.02235174447,-187500.02235174447,1729948348.6264367,1729948348.413602,2000
8465.611453725274,-187500.02235174447,25729.33891169297,-187500.02235174447,-187500.02235174447,-187500.02235174447,-187500.02235174447,-187500.02235174447,1729948348.6306095,1729948348.413602,2000
8577.481934724085,-187500.02235174447,25663.915355672285,-187500.02235174447,-187500.02235174447,-187500.02235174447,-187500.02235174447,-187500.02235174447,1729948348.635558,1729948348.413602,2000
8544.602518630329,-187500.02235174447,25350.700360620067,-187500.02235174447,-187500.02235174447,-187500.02235174447,-187500.02235174447,-187500.02235174447,1729948348.6395173,1729948348.413602,2000
8318.112292064701,-187500.02235174447,25165.627916530124,-187500.02235174447,-187500.02235174447,-187500.02235174447,-187500.02235174447,-187500.02235174447,1729948348.6435251,1729948348.413602,2000
8170.613130404131,-187500.02235174447,25235.61122841969,-187500.02235174447,-187500.02235174447,-187500.02235174447,-187500.02235174447,-187500.02235174447,1729948348.6466787,1729948348.413602,2000
8197.323465028223,-187500.02235174447,25477.591213892843,-187500.02235174447,-187500.02235174447,-187500.02235174447,-187500.02235174447,-187500.02235174447,1729948348.650436,1729948348.413602,2000
8209.505165756365,-187500.02235174447,25561.365552111336,-187500.02235174447,-187500.02235174447,-187500.02235174447,-187500.02235174447,-187500.02235174447,1729948348.6546576,1729948348.413602,2000
8193.456613237455,-187500.02235174447,25493.19273152265,-187500.02235174447,-187500.02235174447,-187500.02235174447,-187500.02235174447,-187500.02235174447,1729948348.658707,1729948348.413602,2000
8320.749797910428,-187500.02235174447,25433.245352893515,-187500.02235174447,-187500.02235174447,-187500.02235174447,-187500.02235174447,-187500.02235174447,1729948348.662681,1729948348.413602,2000
8555.666632135706,-187500.02235174447,25564.31598237944,-187500.02235174447,-187500.02235174447,-187500.02235174447,-187500.02235174447,-187500.02235174447,1729948348.667556,1729948348.413602,2000
8600.191307090678,-187500.02235174447,25435.7040447836,-187500.02235174447,-187500.02235174447,-187500.02235174447,-187500.02235174447,-187500.02235174447,1729948348.6706147,1729948348.413602,2000
8386.687444053585,-187500.02235174447,25392.45341926258,-187500.02235174447,-187500.02235174447,-187500.02235174447,-187500.02235174447,-187500.02235174447,1729948348.674606,1729948348.413602,2000
8475.267407329966,-187500.02235174447,25729.540077393067,-187500.02235174447,-187500.02235174447,-187500.02235174447,-187500.02235174447,-187500.02235174447,1729948348.678584,1729948348.413602,2000
8372.874065980204,-187500.02235174447,25603.3421281984,-187500.02235174447,-187500.02235174447,-187500.02235174447,-187500.02235174447,-187500.02235174447,1729948348.682638,1729948348.413602,2000
8343.70503946603,-187500.02235174447,25393.12397159624,-187500.02235174447,-187500.02235174447,-187500.02235174447,-187500.02235174447,-187500.02235174447,1729948348.6866405,1729948348.413602,2000
8242.742209761407,-187500.02235174447,25314.669348558116,-187500.02235174447,-187500.02235174447,-187500.02235174447,-187500.02235174447,-187500.02235174447,1729948348.6915643,1729948348.413602,2000
8302.331960479256,-187500.02235174447,25308.299101388347,-187500.02235174447,-187500.02235174447,-187500.02235174447,-187500.02235174447,-187500.02235174447,1729948348.6956427,1729948348.413602,2000
8615.278734598009,-187500.02235174447,25527.59206623937,-187500.02235174447,-187500.02235174447,-187500.02235174447,-187500.02235174447,-187500.02235174447,1729948348.698559,1729948348.413602,2000
8471.668776472661,-187500.02235174447,25415.855695707287,-187500.02235174447,-187500.02235174447,-187500.02235174447,-187500.02235174447,-187500.02235174447,1729948348.7026627,1729948348.413602,2000
8204.632485465108,-187500.02235174447,25337.62459011371,-187500.02235174447,-187500.02235174447,-187500.02235174447,-187500.02235174447,-187500.02235174447,1729948348.7066915,1729948348.413602,2000
8298.845088344227,-187500.02235174447,25430.89841972571,-187500.02235174447,-187500.02235174447,-187500.02235174447,-187500.02235174447,-187500.02235174447,1729948348.7105818,1729948348.413602,2000
8395.359920902243,-187500.02235174447,25505.307377017427,-187500.02235174447,-187500.02235174447,-187500.02235174447,-187500.02235174447,-187500.02235174447,1729948348.7168174,1729948348.413602,2000
8407.563973374841,-187500.02235174447,25523.43464177068,-187500.02235174447,-187500.02235174447,-187500.02235174447,-187500.02235174447,-187500.02235174447,1729948348.719565,1729948348.413602,2000
8394.488202868486,-187500.02235174447,25495.539664690456,-187500.02235174447,-187500.02235174447,-187500.02235174447,-187500.02235174447,-187500.02235174447,1729948348.7238069,1729948348.413602,2000
8256.980270979437,-187500.02235174447,25314.57994158029,-187500.02235174447,-187500.02235174447,-187500.02235174447,-187500.02235174447,-187500.02235174447,1729948348.726692,1729948348.413602,2000
8302.421367457076,-187500.02235174447,25324.213543440528,-187500.02235174447,-187500.02235174447,-187500.02235174447,-187500.02235174447,-187500.02235174447,1729948348.7307868,1729948348.413602,2000
8491.874753460259,-187500.02235174447,25496.05375481293,-187500.02235174447,-187500.02235174447,-187500.02235174447,-187500.02235174447,-187500.02235174447,1729948348.7346752,1729948348.413602,2000
8396.18693544709,-187500.02235174447,25457.47464388307,-187500.02235174447,-187500.02235174447,-187500.02235174447,-187500.02235174447,-187500.02235174447,1729948348.7387888,1729948348.413602,2000
8242.451637083488,-187500.02235174447,25349.403959441657,-187500.02235174447,-187500.02235174447,-187500.02235174447,-187500.02235174447,-187500.02235174447,1729948348.7426398,1729948348.413602,2000
8312.837280373249,-187500.02235174447,25516.349138778347,-187500.02235174447,-187500.02235174447,-187500.02235174447,-187500.02235174447,-187500.02235174447,1729948348.7467468,1729948348.413602,2000
8569.748231142548,-187500.02235174447,25611.724032369144,-187500.02235174447,-187500.02235174447,-187500.02235174447,-187500.02235174447,-187500.02235174447,1729948348.7516253,1729948348.413602,2000
8469.098325860301,-187500.02235174447,25482.106266272815,-187500.02235174447,-187500.02235174447,-187500.02235174447,-187500.02235174447,-187500.02235174447,1729948348.7548451,1729948348.413602,2000
8229.82290146624,-187500.02235174447,25366.8383201168,-187500.02235174447,-187500.02235174447,-187500.02235174447,-187500.02235174447,-187500.02235174447,1729948348.7578535,1729948348.413602,2000
8495.719253506571,-187500.02235174447,25480.22871973857,-187500.02235174447,-187500.02235174447,-187500.02235174447,-187500.02235174447,-187500.02235174447,1729948348.7627294,1729948348.413602,2000
8457.989508866014,-187500.02235174447,25562.594898056377,-187500.02235174447,-187500.02235174447,-187500.02235174447,-187500.02235174447,-187500.02235174447,1729948348.766781,1729948348.413602,2000
8338.139455096658,-187500.02235174447,25440.442614608124,-187500.02235174447,-187500.02235174447,-187500.02235174447,-187500.02235174447,-187500.02235174447,1729948348.770775,1729948348.413602,2000
8254.968613978459,-187500.02235174447,25331.34374992177,-187500.02235174447,-187500.02235174447,-187500.02235174447,-187500.02235174447,-187500.02235174447,1729948348.7746878,1729948348.413602,2000
8263.104648960192,-187500.02235174447,25449.04803622342,-187500.02235174447,-187500.02235174447,-187500.02235174447,-187500.02235174447,-187500.02235174447,1729948348.7788527,1729948348.413602,2000
8559.287614737465,-187500.02235174447,25580.76686629854,-187500.02235174447,-187500.02235174447,-187500.02235174447,-187500.02235174447,-187500.02235174447,1729948348.7818806,1729948348.413602,2000
8503.341198365832,-187500.02235174447,25408.03258514793,-187500.02235174447,-187500.02235174447,-187500.02235174447,-187500.02235174447,-187500.02235174447,1729948348.785735,1729948348.413602,2000
8216.47891002642,-187500.02235174447,25348.86751757473,-187500.02235174447,-187500.02235174447,-187500.02235174447,-187500.02235174447,-187500.02235174447,1729948348.7907104,1729948348.413602,2000
8263.417573382565,-187500.02235174447,25401.93055891163,-187500.02235174447,-187500.02235174447,-187500.02235174447,-187500.02235174447,-187500.02235174447,1729948348.7947705,1729948348.413602,2000
8326.918879380093,-187500.02235174447,25431.658379037188,-187500.02235174447,-187500.02235174447,-187500.02235174447,-187500.02235174447,-187500.02235174447,1729948348.7987933,1729948348.413602,2000
8535.527710381473,-187500.02235174447,25524.351063293347,-187500.02235174447,-187500.02235174447,-187500.02235174447,-187500.02235174447,-187500.02235174447,1729948348.802796,1729948348.413602,2000
8407.631028608206,-187500.02235174447,25417.12974514124,-187500.02235174447,-187500.02235174447,-187500.02235174447,-187500.02235174447,-187500.02235174447,1729948348.8068328,1729948348.413602,2000
8256.644994812608,-187500.02235174447,25375.13081730972,-187500.02235174447,-187500.02235174447,-187500.02235174447,-187500.02235174447,-187500.02235174447,1729948348.8097684,1729948348.413602,2000
8439.974002835037,-187500.02235174447,25554.8835462193,-187500.02235174447,-187500.02235174447,-187500.02235174447,-187500.02235174447,-187500.02235174447,1729948348.8138592,1729948348.413602,2000
8442.008011580469,-187500.02235174447,25493.23743501156,-187500.02235174447,-187500.02235174447,-187500.02235174447,-187500.02235174447,-187500.02235174447,1729948348.8187215,1729948348.413602,2000
8338.02769637438,-187500.02235174447,25383.33390752481,-187500.02235174447,-187500.02235174447,-187500.02235174447,-187500.02235174447,-187500.02235174447,1729948348.82282,1729948348.413602,2000
8356.914920439116,-187500.02235174447,25468.583460877355,-187500.02235174447,-187500.02235174447,-187500.02235174447,-187500.02235174447,-187500.02235174447,1729948348.8267596,1729948348.413602,2000
8509.622038557773,-187500.02235174447,25592.702697837674,-187500.02235174447,-187500.02235174447,-187500.02235174447,-187500.02235174447,-187500.02235174447,1729948348.830876,1729948348.413602,2000
8466.594930481308,-187500.02235174447,25545.58522052589,-187500.02235174447,-187500.02235174447,-187500.02235174447,-187500.02235174447,-187500.02235174447,1729948348.8347504,1729948348.413602,2000
8332.819739916295,-187500.02235174447,25415.92275094065,-187500.02235174447,-187500.02235174447,-187500.02235174447,-187500.02235174447,-187500.02235174447,1729948348.837783,1729948348.413602,2000
8296.319341220778,-187500.02235174447,25379.020020844942,-187500.02235174447,-187500.02235174447,-187500.02235174447,-187500.02235174447,-187500.02235174447,1729948348.841781,1729948348.413602,2000
8440.152816790678,-187500.02235174447,25557.610459042844,-187500.02235174447,-187500.02235174447,-187500.02235174447,-187500.02235174447,-187500.02235174447,1729948348.8467772,1729948348.413602,2000
8529.939774267646,-187500.02235174447,25589.037011747005,-187500.02235174447,-187500.02235174447,-187500.02235174447,-187500.02235174447,-187500.02235174447,1729948348.8508065,1729948348.413602,2000
8375.712737526028,-187500.02235174447,25372.98504984201,-187500.02235174447,-187500.02235174447,-187500.02235174447,-187500.02235174447,-187500.02235174447,1729948348.8548656,1729948348.413602,2000
8282.416556169577,-187500.02235174447,25368.849977117778,-187500.02235174447,-187500.02235174447,-187500.02235174447,-187500.02235174447,-187500.02235174447,1729948348.858812,1729948348.413602,2000
8317.329981008766,-187500.02235174447,25489.10236228733,-187500.02235174447,-187500.02235174447,-187500.02235174447,-187500.02235174447,-187500.02235174447,1729948348.8618412,1729948348.413602,2000
8401.238429693989,-187500.02235174447,25543.417101313724,-187500.02235174447,-187500.02235174447,-187500.02235174447,-187500.02235174447,-187500.02235174447,1729948348.865894,1729948348.413602,2000
8355.484408793976,-187500.02235174447,25437.6039430623,-187500.02235174447,-187500.02235174447,-187500.02235174447,-187500.02235174447,-187500.02235174447,1729948348.8699112,1729948348.413602,2000
8315.921821108082,-187500.02235174447,25373.7897126424,-187500.02235174447,-187500.02235174447,-187500.02235174447,-187500.02235174447,-187500.02235174447,1729948348.874879,1729948348.413602,2000
8414.71653160054,-187500.02235174447,25466.37063817628,-187500.02235174447,-187500.02235174447,-187500.02235174447,-187500.02235174447,-187500.02235174447,1729948348.878952,1729948348.413602,2000
8488.656102258696,-187500.02235174447,25569.30042139297,-187500.02235174447,-187500.02235174447,-187500.02235174447,-187500.02235174447,-187500.02235174447,1729948348.8829525,1729948348.413602,2000
8450.904005873681,-187500.02235174447,25475.0654667694,-187500.02235174447,-187500.02235174447,-187500.02235174447,-187500.02235174447,-187500.02235174447,1729948348.885958,1729948348.413602,2000
8416.147043245679,-187500.02235174447,25353.94136356609,-187500.02235174447,-187500.02235174447,-187500.02235174447,-187500.02235174447,-187500.02235174447,1729948348.889933,1729948348.413602,2000
8317.93347810906,-187500.02235174447,25382.32807902433,-187500.02235174447,-187500.02235174447,-187500.02235174447,-187500.02235174447,-187500.02235174447,1729948348.8938863,1729948348.413602,2000
8398.936200015092,-187500.02235174447,25555.82231948642,-187500.02235174447,-187500.02235174447,-187500.02235174447,-187500.02235174447,-187500.02235174447,1729948348.8982267,1729948348.413602,2000
8423.612525893752,-187500.02235174447,25540.01963615652,-187500.02235174447,-187500.02235174447,-187500.02235174447,-187500.02235174447,-187500.02235174447,1729948348.9020157,1729948348.413602,2000
8310.93738209455,-187500.02235174447,25392.162846584662,-187500.02235174447,-187500.02235174447,-187500.02235174447,-187500.02235174447,-187500.02235174447,1729948348.9071054,1729948348.413602,2000
8316.815890886295,-187500.02235174447,25395.761477441967,-187500.02235174447,-187500.02235174447,-187500.02235174447,-187500.02235174447,-187500.02235174447,1729948348.9110568,1729948348.413602,2000
8521.177890441168,-187500.02235174447,25554.19064214118,-187500.02235174447,-187500.02235174447,-187500.02235174447,-187500.02235174447,-187500.02235174447,1729948348.91397,1729948348.413602,2000
8514.181794426655,-187500.02235174447,25577.34704939688,-187500.02235174447,-187500.02235174447,-187500.02235174447,-187500.02235174447,-187500.02235174447,1729948348.9179573,1729948348.413602,2000
8424.57365090533,-187500.02235174447,25489.549397176437,-187500.02235174447,-187500.02235174447,-187500.02235174447,-187500.02235174447,-187500.02235174447,1729948348.922284,1729948348.413602,2000
8340.396981286643,-187500.02235174447,25453.630143836755,-187500.02235174447,-187500.02235174447,-187500.02235174447,-187500.02235174447,-187500.02235174447,1729948348.9259596,1729948348.413602,2000
8377.925560227104,-187500.02235174447,25522.98760688157,-187500.02235174447,-187500.02235174447,-187500.02235174447,-187500.02235174447,-187500.02235174447,1729948348.9301505,1729948348.413602,2000
8402.266609938933,-187500.02235174447,25519.567789979912,-187500.02235174447,-187500.02235174447,-187500.02235174447,-187500.02235174447,-187500.02235174447,1729948348.9349437,1729948348.413602,2000
8338.608841730218,-187500.02235174447,25404.52336126845,-187500.02235174447,-187500.02235174447,-187500.02235174447,-187500.02235174447,-187500.02235174447,1729948348.938954,1729948348.413602,2000
8300.722634878473,-187500.02235174447,25356.04242754489,-187500.02235174447,-187500.02235174447,-187500.02235174447,-187500.02235174447,-187500.02235174447,1729948348.9420369,1729948348.413602,2000
8363.08400190878,-187500.02235174447,25493.37154547829,-187500.02235174447,-187500.02235174447,-187500.02235174447,-187500.02235174447,-187500.02235174447,1729948348.9461064,1729948348.413602,2000
8526.20703294361,-187500.02235174447,25599.765849085557,-187500.02235174447,-187500.02235174447,-187500.02235174447,-187500.02235174447,-187500.02235174447,1729948348.9503033,1729948348.413602,2000
8430.988601564002,-187500.02235174447,25508.458972985623,-187500.02235174447,-187500.02235174447,-187500.02235174447,-187500.02235174447,-187500.02235174447,1729948348.9540744,1729948348.413602,2000
8341.246347575945,-187500.02235174447,25439.74971053001,-187500.02235174447,-187500.02235174447,-187500.02235174447,-187500.02235174447,-187500.02235174447,1729948348.958278,1729948348.413602,2000
8416.728188601517,-187500.02235174447,25478.37352494878,-187500.02235174447,-187500.02235174447,-187500.02235174447,-187500.02235174447,-187500.02235174447,1729948348.963158,1729948348.413602,2000
8492.366491838276,-187500.02235174447,25522.518220248014,-187500.02235174447,-187500.02235174447,-187500.02235174447,-187500.02235174447,-187500.02235174447,1729948348.966952,1729948348.413602,2000
8412.682522855106,-187500.02235174447,25452.71372231409,-187500.02235174447,-187500.02235174447,-187500.02235174447,-187500.02235174447,-187500.02235174447,1729948348.9701605,1729948348.413602,2000
8374.706909025539,-187500.02235174447,25385.50202673698,-187500.02235174447,-187500.02235174447,-187500.02235174447,-187500.02235174447,-187500.02235174447,1729948348.9741373,1729948348.413602,2000
8393.705891812551,-187500.02235174447,25479.893443571746,-187500.02235174447,-187500.02235174447,-187500.02235174447,-187500.02235174447,-187500.02235174447,1729948348.9781528,1729948348.413602,2000
8355.707926238529,-187500.02235174447,25483.3132604734,-187500.02235174447,-187500.02235174447,-187500.02235174447,-187500.02235174447,-187500.02235174447,1729948348.9821937,1729948348.413602,2000
8385.346339386266,-187500.02235174447,25445.47175711057,-187500.02235174447,-187500.02235174447,-187500.02235174447,-187500.02235174447,-187500.02235174447,1729948348.9870763,1729948348.413602,2000
8421.556165403863,-187500.02235174447,25436.70987328409,-187500.02235174447,-187500.02235174447,-187500.02235174447,-187500.02235174447,-187500.02235174447,1729948348.990131,1729948348.413602,2000
8386.285112653388,-187500.02235174447,25494.8691123568,-187500.02235174447,-187500.02235174447,-187500.02235174447,-187500.02235174447,-187500.02235174447,1729948348.9941409,1729948348.413602,2000
8474.574503251852,-187500.02235174447,25577.324697652424,-187500.02235174447,-187500.02235174447,-187500.02235174447,-187500.02235174447,-187500.02235174447,1729948348.9980428,1729948348.413602,2000
8501.508355320497,-187500.02235174447,25556.11289216434,-187500.02235174447,-187500.02235174447,-187500.02235174447,-187500.02235174447,-187500.02235174447,1729948349.0021312,1729948348.413602,2000
8336.4183707736,-187500.02235174447,25397.03552687592,-187500.02235174447,-187500.02235174447,-187500.02235174447,-187500.02235174447,-187500.02235174447,1729948349.007198,1729948348.413602,2000
8360.535903040874,-187500.02235174447,25458.815748550387,-187500.02235174447,-187500.02235174447,-187500.02235174447,-187500.02235174447,-187500.02235174447,1729948349.0100749,1729948348.413602,2000
8441.113941802258,-187500.02235174447,25551.15080489526,-187500.02235174447,-187500.02235174447,-187500.02235174447,-187500.02235174447,-187500.02235174447,1729948349.0141835,1729948348.413602,2000
8490.44424181512,-187500.02235174447,25532.509450019534,-187500.02235174447,-187500.02235174447,-187500.02235174447,-187500.02235174447,-187500.02235174447,1729948349.018094,1729948348.413602,2000
8380.496010839464,-187500.02235174447,25433.692387782623,-187500.02235174447,-187500.02235174447,-187500.02235174447,-187500.02235174447,-187500.02235174447,1729948349.0241692,1729948348.413602,2000
8334.563175983809,-187500.02235174447,25416.88387595223,-187500.02235174447,-187500.02235174447,-187500.02235174447,-187500.02235174447,-187500.02235174447,1729948349.027161,1729948348.413602,2000
8399.830269793305,-187500.02235174447,25524.395766782254,-187500.02235174447,-187500.02235174447,-187500.02235174447,-187500.02235174447,-187500.02235174447,1729948349.030166,1729948348.413602,2000
8428.842834096293,-187500.02235174447,25528.64259822877,-187500.02235174447,-187500.02235174447,-187500.02235174447,-187500.02235174447,-187500.02235174447,1729948349.0351934,1729948348.413602,2000
8429.021648051936,-187500.02235174447,25491.18107452167,-187500.02235174447,-187500.02235174447,-187500.02235174447,-187500.02235174447,-187500.02235174447,1729948349.0381913,1729948348.413602,2000
8371.600016546252,-187500.02235174447,25428.41737609117,-187500.02235174447,-187500.02235174447,-187500.02235174447,-187500.02235174447,-187500.02235174447,1729948349.0411837,1729948348.413602,2000
8453.519159974952,-187500.02235174447,25507.34138576286,-187500.02235174447,-187500.02235174447,-187500.02235174447,-187500.02235174447,-187500.02235174447,1729948349.0461583,1729948348.413602,2000
8491.047738915413,-187500.02235174447,25542.72419723561,-187500.02235174447,-187500.02235174447,-187500.02235174447,-187500.02235174447,-187500.02235174447,1729948349.0501437,1729948348.413602,2000
8371.175333401601,-187500.02235174447,25457.094664227327,-187500.02235174447,-187500.02235174447,-187500.02235174447,-187500.02235174447,-187500.02235174447,1729948349.0543592,1729948348.413602,2000
8365.050955420847,-187500.02235174447,25377.790674899898,-187500.02235174447,-187500.02235174447,-187500.02235174447,-187500.02235174447,-187500.02235174447,1729948349.0582068,1729948348.413602,2000
8471.758183450484,-187500.02235174447,25476.98771679255,-187500.02235174447,-187500.02235174447,-187500.02235174447,-187500.02235174447,-187500.02235174447,1729948349.063182,1729948348.413602,2000
8483.001110911502,-187500.02235174447,25603.386831687312,-187500.02235174447,-187500.02235174447,-187500.02235174447,-187500.02235174447,-187500.02235174447,1729948349.066291,1729948348.413602,2000
8369.431897334087,-187500.02235174447,25487.89536808674,-187500.02235174447,-187500.02235174447,-187500.02235174447,-187500.02235174447,-187500.02235174447,1729948349.0702932,1729948348.413602,2000
8317.59820194223,-187500.02235174447,25344.44187217258,-187500.02235174447,-187500.02235174447,-187500.02235174447,-187500.02235174447,-187500.02235174447,1729948349.0741608,1729948348.413602,2000
8417.421092679631,-187500.02235174447,25440.710835541588,-187500.02235174447,-187500.02235174447,-187500.02235174447,-187500.02235174447,-187500.02235174447,1729948349.0784185,1729948348.413602,2000
8467.645462470706,-187500.02235174447,25620.01652956206,-187500.02235174447,-187500.02235174447,-187500.02235174447,-187500.02235174447,-187500.02235174447,1729948349.0824313,1729948348.413602,2000
8452.043944840902,-187500.02235174447,25589.126418724827,-187500.02235174447,-187500.02235174447,-187500.02235174447,-187500.02235174447,-187500.02235174447,1729948349.086446,1729948348.413602,2000
8362.771077486406,-187500.02235174447,25439.92852448565,-187500.02235174447,-187500.02235174447,-187500.02235174447,-187500.02235174447,-187500.02235174447,1729948349.090319,1729948348.413602,2000
8345.001440644437,-187500.02235174447,25396.923768153643,-187500.02235174447,-187500.02235174447,-187500.02235174447,-187500.02235174447,-187500.02235174447,1729948349.093285,1729948348.413602,2000
8518.629791573261,-187500.02235174447,25563.779540512507,-187500.02235174447,-187500.02235174447,-187500.02235174447,-187500.02235174447,-187500.02235174447,1729948349.097445,1729948348.413602,2000
8535.371248170286,-187500.02235174447,25590.959261770164,-187500.02235174447,-187500.02235174447,-187500.02235174447,-187500.02235174447,-187500.02235174447,1729948349.1024222,1729948348.413602,2000
8357.741934983962,-187500.02235174447,25410.75949797148,-187500.02235174447,-187500.02235174447,-187500.02235174447,-187500.02235174447,-187500.02235174447,1729948349.106186,1729948348.413602,2000
8346.923690667592,-187500.02235174447,25394.018041374453,-187500.02235174447,-187500.02235174447,-187500.02235174447,-187500.02235174447,-187500.02235174447,1729948349.110228,1729948348.413602,2000
8457.095439087801,-187500.02235174447,25560.62794454431,-187500.02235174447,-187500.02235174447,-187500.02235174447,-187500.02235174447,-187500.02235174447,1729948349.1142738,1729948348.413602,2000
8417.845775824282,-187500.02235174447,25588.52292162453,-187500.02235174447,-187500.02235174447,-187500.02235174447,-187500.02235174447,-187500.02235174447,1729948349.1182172,1729948348.413602,2000
8400.813746549338,-187500.02235174447,25436.732225028543,-187500.02235174447,-187500.02235174447,-187500.02235174447,-187500.02235174447,-187500.02235174447,1729948349.1214552,1729948348.413602,2000
8335.434894017566,-187500.02235174447,25385.904358137173,-187500.02235174447,-187500.02235174447,-187500.02235174447,-187500.02235174447,-187500.02235174447,1729948349.1252308,1729948348.413602,2000
8425.959459061558,-187500.02235174447,25533.023540142007,-187500.02235174447,-187500.02235174447,-187500.02235174447,-187500.02235174447,-187500.02235174447,1729948349.1303866,1729948348.413602,2000
8493.797003483416,-187500.02235174447,25595.49666589459,-187500.02235174447,-187500.02235174447,-187500.02235174447,-187500.02235174447,-187500.02235174447,1729948349.134241,1729948348.413602,2000
8365.98972868797,-187500.02235174447,25437.93921922913,-187500.02235174447,-187500.02235174447,-187500.02235174447,-187500.02235174447,-187500.02235174447,1729948349.1383736,1729948348.413602,2000
8391.783641789394,-187500.02235174447,25404.389250801712,-187500.02235174447,-187500.02235174447,-187500.02235174447,-187500.02235174447,-187500.02235174447,1729948349.142372,1729948348.413602,2000
8446.523063960442,-187500.02235174447,25477.56886214839,-187500.02235174447,-187500.02235174447,-187500.02235174447,-187500.02235174447,-187500.02235174447,1729948349.1454585,1729948348.413602,2000
8450.658136684673,-187500.02235174447,25586.39950590128,-187500.02235174447,-187500.02235174447,-187500.02235174447,-187500.02235174447,-187500.02235174447,1729948349.1494555,1729948348.413602,2000
8466.460820014576,-187500.02235174447,25524.641635971268,-187500.02235174447,-187500.02235174447,-187500.02235174447,-187500.02235174447,-187500.02235174447,1729948349.1533527,1729948348.413602,2000
8474.462744529576,-187500.02235174447,25421.287169609925,-187500.02235174447,-187500.02235174447,-187500.02235174447,-187500.02235174447,-187500.02235174447,1729948349.158367,1729948348.413602,2000
8434.073142298836,-187500.02235174447,25504.502714217037,-187500.02235174447,-187500.02235174447,-187500.02235174447,-187500.02235174447,-187500.02235174447,1729948349.162392,1729948348.413602,2000
8426.875880584226,-187500.02235174447,25577.30234590797,-187500.02235174447,-187500.02235174447,-187500.02235174447,-187500.02235174447,-187500.02235174447,1729948349.166458,1729948348.413602,2000
8415.118863000735,-187500.02235174447,25508.59308345236,-187500.02235174447,-187500.02235174447,-187500.02235174447,-187500.02235174447,-187500.02235174447,1729948349.170523,1729948348.413602,2000
8320.191004299046,-187500.02235174447,25411.78767821642,-187500.02235174447,-187500.02235174447,-187500.02235174447,-187500.02235174447,-187500.02235174447,1729948349.173409,1729948348.413602,2000
8357.741934983962,-187500.02235174447,25455.775911304467,-187500.02235174447,-187500.02235174447,-187500.02235174447,-187500.02235174447,-187500.02235174447,1729948349.1774445,1729948348.413602,2000
8425.065389283347,-187500.02235174447,25527.212086583622,-187500.02235174447,-187500.02235174447,-187500.02235174447,-187500.02235174447,-187500.02235174447,1729948349.1814563,1729948348.413602,2000
8502.380073354254,-187500.02235174447,25536.28689483248,-187500.02235174447,-187500.02235174447,-187500.02235174447,-187500.02235174447,-187500.02235174447,1729948349.1854768,1729948348.413602,2000
8423.701932871572,-187500.02235174447,25451.41732113568,-187500.02235174447,-187500.02235174447,-187500.02235174447,-187500.02235174447,-187500.02235174447,1729948349.190373,1729948348.413602,2000
8352.042240147859,-187500.02235174447,25437.380425617743,-187500.02235174447,-187500.02235174447,-187500.02235174447,-187500.02235174447,-187500.02235174447,1729948349.1943872,1729948348.413602,2000
8539.26045170551,-187500.02235174447,25599.02824151853,-187500.02235174447,-187500.02235174447,-187500.02235174447,-187500.02235174447,-187500.02235174447,1729948349.1973684,1729948348.413602,2000
8541.652088362229,-187500.02235174447,25592.278014693024,-187500.02235174447,-187500.02235174447,-187500.02235174447,-187500.02235174447,-187500.02235174447,1729948349.2014053,1729948348.413602,2000
8364.380403087187,-187500.02235174447,25425.31048361188,-187500.02235174447,-187500.02235174447,-187500.02235174447,-187500.02235174447,-187500.02235174447,1729948349.205413,1729948348.413602,2000
8275.152239221601,-187500.02235174447,25375.577852198825,-187500.02235174447,-187500.02235174447,-187500.02235174447,-187500.02235174447,-187500.02235174447,1729948349.2093437,1729948348.413602,2000
8424.104264271768,-187500.02235174447,25537.069205888416,-187500.02235174447,-187500.02235174447,-187500.02235174447,-187500.02235174447,-187500.02235174447,1729948349.2135234,1729948348.413602,2000
8484.319863834366,-187500.02235174447,25592.278014693024,-187500.02235174447,-187500.02235174447,-187500.02235174447,-187500.02235174447,-187500.02235174447,1729948349.218488,1729948348.413602,2000
8394.80112729086,-187500.02235174447,25487.33657447536,-187500.02235174447,-187500.02235174447,-187500.02235174447,-187500.02235174447,-187500.02235174447,1729948349.2225993,1729948348.413602,2000
8369.52130431191,-187500.02235174447,25409.08311713733,-187500.02235174447,-187500.02235174447,-187500.02235174447,-187500.02235174447,-187500.02235174447,1729948349.225496,1729948348.413602,2000
8447.439485483108,-187500.02235174447,25479.938147060653,-187500.02235174447,-187500.02235174447,-187500.02235174447,-187500.02235174447,-187500.02235174447,1729948349.2296655,1729948348.413602,2000
8563.601501417339,-187500.02235174447,25571.93792723869,-187500.02235174447,-187500.02235174447,-187500.02235174447,-187500.02235174447,-187500.02235174447,1729948349.2334735,1729948348.413602,2000
8409.799147820371,-187500.02235174447,25495.562016434917,-187500.02235174447,-187500.02235174447,-187500.02235174447,-187500.02235174447,-187500.02235174447,1729948349.2374444,1729948348.413602,2000
8306.489384947943,-187500.02235174447,25404.053974634884,-187500.02235174447,-187500.02235174447,-187500.02235174447,-187500.02235174447,-187500.02235174447,1729948349.241429,1729948348.413602,2000
8415.677656612117,-187500.02235174447,25503.586292694366,-187500.02235174447,-187500.02235174447,-187500.02235174447,-187500.02235174447,-187500.02235174447,1729948349.2465496,1729948348.413602,2000
8558.952338570636,-187500.02235174447,25580.29747966498,-187500.02235174447,-187500.02235174447,-187500.02235174447,-187500.02235174447,-187500.02235174447,1729948349.25049,1729948348.413602,2000
8500.435471586641,-187500.02235174447,25510.71649917561,-187500.02235174447,-187500.02235174447,-187500.02235174447,-187500.02235174447,-187500.02235174447,1729948349.25367,1729948348.413602,2000
8308.054007059814,-187500.02235174447,25428.28326562444,-187500.02235174447,-187500.02235174447,-187500.02235174447,-187500.02235174447,-187500.02235174447,1729948349.25768,1729948348.413602,2000
8354.836208204772,-187500.02235174447,25507.408440996223,-187500.02235174447,-187500.02235174447,-187500.02235174447,-187500.02235174447,-187500.02235174447,1729948349.2616742,1729948348.413602,2000
8475.15564860769,-187500.02235174447,25591.942738526195,-187500.02235174447,-187500.02235174447,-187500.02235174447,-187500.02235174447,-187500.02235174447,1729948349.2656653,1729948348.413602,2000
8470.215913083066,-187500.02235174447,25508.50367647453,-187500.02235174447,-187500.02235174447,-187500.02235174447,-187500.02235174447,-187500.02235174447,1729948349.2695425,1729948348.413602,2000
8380.540714328376,-187500.02235174447,25404.52336126845,-187500.02235174447,-187500.02235174447,-187500.02235174447,-187500.02235174447,-187500.02235174447,1729948349.2746525,1729948348.413602,2000
8399.740862815484,-187500.02235174447,25406.155038613684,-187500.02235174447,-187500.02235174447,-187500.02235174447,-187500.02235174447,-187500.02235174447,1729948349.2794943,1729948348.413602,2000
8504.01175069949,-187500.02235174447,25562.036104445,-187500.02235174447,-187500.02235174447,-187500.02235174447,-187500.02235174447,-187500.02235174447,1729948349.2835069,1729948348.413602,2000
8447.953575605581,-187500.02235174447,25568.24988940357,-187500.02235174447,-187500.02235174447,-187500.02235174447,-187500.02235174447,-187500.02235174447,1729948349.2867074,1729948348.413602,2000
8350.36585931371,-187500.02235174447,25422.11418415477,-187500.02235174447,-187500.02235174447,-187500.02235174447,-187500.02235174447,-187500.02235174447,1729948349.2896996,1729948348.413602,2000
8365.542693798863,-187500.02235174447,25442.498975098013,-187500.02235174447,-187500.02235174447,-187500.02235174447,-187500.02235174447,-187500.02235174447,1729948349.2936924,1729948348.413602,2000
8460.403497267187,-187500.02235174447,25546.99338042657,-187500.02235174447,-187500.02235174447,-187500.02235174447,-187500.02235174447,-187500.02235174447,1729948349.2976928,1729948348.413602,2000
8443.326764503332,-187500.02235174447,25520.171287080204,-187500.02235174447,-187500.02235174447,-187500.02235174447,-187500.02235174447,-187500.02235174447,1729948349.3015296,1729948348.413602,2000
8390.531944099897,-187500.02235174447,25435.100547683305,-187500.02235174447,-187500.02235174447,-187500.02235174447,-187500.02235174447,-187500.02235174447,1729948349.3068032,1729948348.413602,2000
8359.373612329198,-187500.02235174447,25436.70987328409,-187500.02235174447,-187500.02235174447,-187500.02235174447,-187500.02235174447,-187500.02235174447,1729948349.3095412,1729948348.413602,2000
8457.073087343346,-187500.02235174447,25556.15759565325,-187500.02235174447,-187500.02235174447,-187500.02235174447,-187500.02235174447,-187500.02235174447,1729948349.3137643,1729948348.413602,2000
8507.699788534617,-187500.02235174447,25605.8455235774,-187500.02235174447,-187500.02235174447,-187500.02235174447,-187500.02235174447,-187500.02235174447,1729948349.3176315,1729948348.413602,2000
8421.779682848417,-187500.02235174447,25461.05092299592,-187500.02235174447,-187500.02235174447,-187500.02235174447,-187500.02235174447,-187500.02235174447,1729948349.3220627,1729948348.413602,2000
8368.18019964459,-187500.02235174447,25413.17348637265,-187500.02235174447,-187500.02235174447,-187500.02235174447,-187500.02235174447,-187500.02235174447,1729948349.3256755,1729948348.413602,2000
8500.323712864365,-187500.02235174447,25539.214973356127,-187500.02235174447,-187500.02235174447,-187500.02235174447,-187500.02235174447,-187500.02235174447,1729948349.3296945,1729948348.413602,2000
8551.330393711376,-187500.02235174447,25593.395601915792,-187500.02235174447,-187500.02235174447,-187500.02235174447,-187500.02235174447,-187500.02235174447,1729948349.333718,1729948348.413602,2000
8376.316234626322,-187500.02235174447,25457.832271794352,-187500.02235174447,-187500.02235174447,-187500.02235174447,-187500.02235174447,-187500.02235174447,1729948349.3370602,1729948348.413602,2000
8300.633227900653,-187500.02235174447,25374.8402446318,-187500.02235174447,-187500.02235174447,-187500.02235174447,-187500.02235174447,-187500.02235174447,1729948349.3420043,1729948348.413602,2000
8402.37836866121,-187500.02235174447,25486.889539586253,-187500.02235174447,-187500.02235174447,-187500.02235174447,-187500.02235174447,-187500.02235174447,1729948349.3463852,1729948348.413602,2000
8511.387826369742,-187500.02235174447,25581.683287821208,-187500.02235174447,-187500.02235174447,-187500.02235174447,-187500.02235174447,-187500.02235174447,1729948349.3498223,1729948348.413602,2000
8500.793099497927,-187500.02235174447,25502.781629893976,-187500.02235174447,-187500.02235174447,-187500.02235174447,-187500.02235174447,-187500.02235174447,1729948349.3543675,1729948348.413602,2000
8390.129612699702,-187500.02235174447,25417.085041652328,-187500.02235174447,-187500.02235174447,-187500.02235174447,-187500.02235174447,-187500.02235174447,1729948349.3580897,1729948348.413602,2000
8421.667924126139,-187500.02235174447,25455.19476594863,-187500.02235174447,-187500.02235174447,-187500.02235174447,-187500.02235174447,-187500.02235174447,1729948349.3619273,1729948348.413602,2000
8538.098160993834,-187500.02235174447,25585.19251170069,-187500.02235174447,-187500.02235174447,-187500.02235174447,-187500.02235174447,-187500.02235174447,1729948349.3652787,1729948348.413602,2000
8407.116938485735,-187500.02235174447,25504.547417705944,-187500.02235174447,-187500.02235174447,-187500.02235174447,-187500.02235174447,-187500.02235174447,1729948349.3687916,1729948348.413602,2000
8358.948929184548,-187500.02235174447,25423.45528882209,-187500.02235174447,-187500.02235174447,-187500.02235174447,-187500.02235174447,-187500.02235174447,1729948349.3741646,1729948348.413602,2000
8389.816688277328,-187500.02235174447,25452.02081823597,-187500.02235174447,-187500.02235174447,-187500.02235174447,-187500.02235174447,-187500.02235174447,1729948349.3778577,1729948348.413602,2000
8442.544453447397,-187500.02235174447,25573.77077028403,-187500.02235174447,-187500.02235174447,-187500.02235174447,-187500.02235174447,-187500.02235174447,1729948349.3819554,1729948348.413602,2000
8478.597817253807,-187500.02235174447,25553.05070317396,-187500.02235174447,-187500.02235174447,-187500.02235174447,-187500.02235174447,-187500.02235174447,1729948349.385903,1729948348.413602,2000
8412.459005410554,-187500.02235174447,25441.6049053198,-187500.02235174447,-187500.02235174447,-187500.02235174447,-187500.02235174447,-187500.02235174447,1729948349.3898818,1729948348.413602,2000
8323.834338645262,-187500.02235174447,25449.47271936807,-187500.02235174447,-187500.02235174447,-187500.02235174447,-187500.02235174447,-187500.02235174447,1729948349.392767,1729948348.413602,2000
8429.915717830148,-187500.02235174447,25540.86900244582,-187500.02235174447,-187500.02235174447,-187500.02235174447,-187500.02235174447,-187500.02235174447,1729948349.3973997,1729948348.413602,2000
8524.0612654759,-187500.02235174447,25593.999099016084,-187500.02235174447,-187500.02235174447,-187500.02235174447,-187500.02235174447,-187500.02235174447,1729948349.4017022,1729948348.413602,2000
8481.972930666558,-187500.02235174447,25460.51448112899,-187500.02235174447,-187500.02235174447,-187500.02235174447,-187500.02235174447,-187500.02235174447,1729948349.406361,1729948348.413602,2000
8341.536920253864,-187500.02235174447,25407.02675664744,-187500.02235174447,-187500.02235174447,-187500.02235174447,-187500.02235174447,-187500.02235174447,1729948349.4097393,1729948348.413602,2000
8388.14030744318,-187500.02235174447,25540.220801856616,-187500.02235174447,-187500.02235174447,-187500.02235174447,-187500.02235174447,-187500.02235174447,1729948349.41415,1729948348.413602,2000
8501.374244853765,-187500.02235174447,25607.72307011164,-187500.02235174447,-187500.02235174447,-187500.02235174447,-187500.02235174447,-187500.02235174447,1729948349.4168532,1729948348.413602,2000
8393.795298790372,-187500.02235174447,25477.25593772601,-187500.02235174447,-187500.02235174447,-187500.02235174447,-187500.02235174447,-187500.02235174447,1729948349.4213235,1729948348.413602,2000
8323.811986900806,-187500.02235174447,25378.751799911475,-187500.02235174447,-187500.02235174447,-187500.02235174447,-187500.02235174447,-187500.02235174447,1729948349.4250083,1729948348.413602,2000
8419.633915380708,-187500.02235174447,25471.33272544536,-187500.02235174447,-187500.02235174447,-187500.02235174447,-187500.02235174447,-187500.02235174447,1729948349.43002,1729948348.413602,2000
8493.797003483416,-187500.02235174447,25573.10021795037,-187500.02235174447,-187500.02235174447,-187500.02235174447,-187500.02235174447,-187500.02235174447,1729948349.434852,1729948348.413602,2000
8423.009028793458,-187500.02235174447,25498.780667636474,-187500.02235174447,-187500.02235174447,-187500.02235174447,-187500.02235174447,-187500.02235174447,1729948349.438894,1729948348.413602,2000
8394.108223212746,-187500.02235174447,25370.816930629844,-187500.02235174447,-187500.02235174447,-187500.02235174447,-187500.02235174447,-187500.02235174447,1729948349.4418411,1729948348.413602,2000
8463.845665913304,-187500.02235174447,25481.189844750148,-187500.02235174447,-187500.02235174447,-187500.02235174447,-187500.02235174447,-187500.02235174447,1729948349.446411,1729948348.413602,2000
8500.502526820008,-187500.02235174447,25627.325549998943,-187500.02235174447,-187500.02235174447,-187500.02235174447,-187500.02235174447,-187500.02235174447,1729948349.4490435,1729948348.413602,2000
8407.362807674743,-187500.02235174447,25532.352987808343,-187500.02235174447,-187500.02235174447,-187500.02235174447,-187500.02235174447,-187500.02235174447,1729948349.4529765,1729948348.413602,2000
8338.27356556339,-187500.02235174447,25434.96643721657,-187500.02235174447,-187500.02235174447,-187500.02235174447,-187500.02235174447,-187500.02235174447,1729948349.4579682,1729948348.413602,2000
8416.772892090428,-187500.02235174447,25478.217062737596,-187500.02235174447,-187500.02235174447,-187500.02235174447,-187500.02235174447,-187500.02235174447,1729948349.4624996,1729948348.413602,2000
8533.650163847227,-187500.02235174447,25609.98059630163,-187500.02235174447,-187500.02235174447,-187500.02235174447,-187500.02235174447,-187500.02235174447,1729948349.466374,1729948348.413602,2000
8473.903950918193,-187500.02235174447,25528.64259822877,-187500.02235174447,-187500.02235174447,-187500.02235174447,-187500.02235174447,-187500.02235174447,1729948349.4689696,1729948348.413602,2000
8352.712792481518,-187500.02235174447,25400.79061994441,-187500.02235174447,-187500.02235174447,-187500.02235174447,-187500.02235174447,-187500.02235174447,1729948349.4729984,1729948348.413602,2000
8373.365804358222,-187500.02235174447,25459.933335773152,-187500.02235174447,-187500.02235174447,-187500.02235174447,-187500.02235174447,-187500.02235174447,1729948349.4768496,1729948348.413602,2000
8503.899991977214,-187500.02235174447,25579.850444775875,-187500.02235174447,-187500.02235174447,-187500.02235174447,-187500.02235174447,-187500.02235174447,1729948349.4810295,1729948348.413602,2000
8454.793209408905,-187500.02235174447,25568.473406848123,-187500.02235174447,-187500.02235174447,-187500.02235174447,-187500.02235174447,-187500.02235174447,1729948349.485989,1729948348.413602,2000
8328.438798003053,-187500.02235174447,25409.41839330416,-187500.02235174447,-187500.02235174447,-187500.02235174447,-187500.02235174447,-187500.02235174447,1729948349.4897933,1729948348.413602,2000
8385.748670786461,-187500.02235174447,25405.283320579925,-187500.02235174447,-187500.02235174447,-187500.02235174447,-187500.02235174447,-187500.02235174447,1729948349.4938655,1729948348.413602,2000
8501.173079153667,-187500.02235174447,25581.929157010218,-187500.02235174447,-187500.02235174447,-187500.02235174447,-187500.02235174447,-187500.02235174447,1729948349.4975595,1729948348.413602,2000
8494.556962794895,-187500.02235174447,25581.750343054577,-187500.02235174447,-187500.02235174447,-187500.02235174447,-187500.02235174447,-187500.02235174447,1729948349.500976,1729948348.413602,2000
8414.51536590044,-187500.02235174447,25451.0596932244,-187500.02235174447,-187500.02235174447,-187500.02235174447,-187500.02235174447,-187500.02235174447,1729948349.505467,1729948348.413602,2000
8426.04886603938,-187500.02235174447,25411.385346816227,-187500.02235174447,-187500.02235174447,-187500.02235174447,-187500.02235174447,-187500.02235174447,1729948349.5089335,1729948348.413602,2000
8476.854381186293,-187500.02235174447,25551.08374966189,-187500.02235174447,-187500.02235174447,-187500.02235174447,-187500.02235174447,-187500.02235174447,1729948349.5130696,1729948348.413602,2000
8423.500767171476,-187500.02235174447,25623.548105186,-187500.02235174447,-187500.02235174447,-187500.02235174447,-187500.02235174447,-187500.02235174447,1729948349.517875,1729948348.413602,2000
8379.646644550163,-187500.02235174447,25480.40753369421,-187500.02235174447,-187500.02235174447,-187500.02235174447,-187500.02235174447,-187500.02235174447,1729948349.5223956,1729948348.413602,2000
8336.775998684883,-187500.02235174447,25393.45924776307,-187500.02235174447,-187500.02235174447,-187500.02235174447,-187500.02235174447,-187500.02235174447,1729948349.5252695,1729948348.413602,2000
8464.471514758054,-187500.02235174447,25503.76510665001,-187500.02235174447,-187500.02235174447,-187500.02235174447,-187500.02235174447,-187500.02235174447,1729948349.5290148,1729948348.413602,2000
8507.945657723625,-187500.02235174447,25573.659011561755,-187500.02235174447,-187500.02235174447,-187500.02235174447,-187500.02235174447,-187500.02235174447,1729948349.5331109,1729948348.413602,2000
8414.42595892262,-187500.02235174447,25498.624205425287,-187500.02235174447,-187500.02235174447,-187500.02235174447,-187500.02235174447,-187500.02235174447,1729948349.5371025,1729948348.413602,2000
8335.837225417761,-187500.02235174447,25423.388233588725,-187500.02235174447,-187500.02235174447,-187500.02235174447,-187500.02235174447,-187500.02235174447,1729948349.541948,1729948348.413602,2000
8416.929354301614,-187500.02235174447,25487.269519241992,-187500.02235174447,-187500.02235174447,-187500.02235174447,-187500.02235174447,-187500.02235174447,1729948349.5464602,1729948348.413602,2000
8485.929189435148,-187500.02235174447,25557.230479387104,-187500.02235174447,-187500.02235174447,-187500.02235174447,-187500.02235174447,-187500.02235174447,1729948349.5502365,1729948348.413602,2000
8430.787435863906,-187500.02235174447,25489.66115589871,-187500.02235174447,-187500.02235174447,-187500.02235174447,-187500.02235174447,-187500.02235174447,1729948349.5530558,1729948348.413602,2000
8341.693382465051,-187500.02235174447,25400.18712284412,-187500.02235174447,-187500.02235174447,-187500.02235174447,-187500.02235174447,-187500.02235174447,1729948349.5576217,1729948348.413602,2000
8410.536755387397,-187500.02235174447,25465.45421665361,-187500.02235174447,-187500.02235174447,-187500.02235174447,-187500.02235174447,-187500.02235174447,1729948349.5610657,1729948348.413602,2000
8611.188365362688,-187500.02235174447,25641.049521094505,-187500.02235174447,-187500.02235174447,-187500.02235174447,-187500.02235174447,-187500.02235174447,1729948349.5654764,1729948348.413602,2000
8558.281786236976,-187500.02235174447,25586.51126462356,-187500.02235174447,-187500.02235174447,-187500.02235174447,-187500.02235174447,-187500.02235174447,1729948349.5691648,1729948348.413602,2000
8306.891716348138,-187500.02235174447,25417.643835263712,-187500.02235174447,-187500.02235174447,-187500.02235174447,-187500.02235174447,-187500.02235174447,1729948349.5745711,1729948348.413602,2000
8319.07341707628,-187500.02235174447,25428.93146621364,-187500.02235174447,-187500.02235174447,-187500.02235174447,-187500.02235174447,-187500.02235174447,1729948349.5771744,1729948348.413602,2000
8454.167360564155,-187500.02235174447,25551.19550838417,-187500.02235174447,-187500.02235174447,-187500.02235174447,-187500.02235174447,-187500.02235174447,1729948349.581179,1729948348.413602,2000
8447.864168627759,-187500.02235174447,25543.14888038026,-187500.02235174447,-187500.02235174447,-187500.02235174447,-187500.02235174447,-187500.02235174447,1729948349.5849297,1729948348.413602,2000
8430.496863185987,-187500.02235174447,25456.60292584931,-187500.02235174447,-187500.02235174447,-187500.02235174447,-187500.02235174447,-187500.02235174447,1729948349.5891724,1729948348.413602,2000
8386.083946953291,-187500.02235174447,25424.72933825604,-187500.02235174447,-187500.02235174447,-187500.02235174447,-187500.02235174447,-187500.02235174447,1729948349.5930607,1729948348.413602,2000
8418.09164501329,-187500.02235174447,25522.607627225832,-187500.02235174447,-187500.02235174447,-187500.02235174447,-187500.02235174447,-187500.02235174447,1729948349.597638,1729948348.413602,2000
8530.945602768135,-187500.02235174447,25572.139092938796,-187500.02235174447,-187500.02235174447,-187500.02235174447,-187500.02235174447,-187500.02235174447,1729948349.6020863,1729948348.413602,2000
8409.128595486713,-187500.02235174447,25457.876975283263,-187500.02235174447,-187500.02235174447,-187500.02235174447,-187500.02235174447,-187500.02235174447,1729948349.605239,1729948348.413602,2000
8334.943155639548,-187500.02235174447,25411.65356774969,-187500.02235174447,-187500.02235174447,-187500.02235174447,-187500.02235174447,-187500.02235174447,1729948349.6090004,1729948348.413602,2000
8480.877695188248,-187500.02235174447,25558.258659632047,-187500.02235174447,-187500.02235174447,-187500.02235174447,-187500.02235174447,-187500.02235174447,1729948349.6132717,1729948348.413602,2000
8553.856140834825,-187500.02235174447,25588.701735580176,-187500.02235174447,-187500.02235174447,-187500.02235174447,-187500.02235174447,-187500.02235174447,1729948349.6171937,1729948348.413602,2000
8408.65920885315,-187500.02235174447,25474.88665281375,-187500.02235174447,-187500.02235174447,-187500.02235174447,-187500.02235174447,-187500.02235174447,1729948349.621277,1729948348.413602,2000
8342.654507476629,-187500.02235174447,25401.058840877875,-187500.02235174447,-187500.02235174447,-187500.02235174447,-187500.02235174447,-187500.02235174447,1729948349.6250465,1729948348.413602,2000
8383.289978896377,-187500.02235174447,25477.39004819275,-187500.02235174447,-187500.02235174447,-187500.02235174447,-187500.02235174447,-187500.02235174447,1729948349.6300795,1729948348.413602,2000
8550.145751255244,-187500.02235174447,25568.741627781583,-187500.02235174447,-187500.02235174447,-187500.02235174447,-187500.02235174447,-187500.02235174447,1729948349.6332304,1729948348.413602,2000
8412.48135715501,-187500.02235174447,25461.430902651657,-187500.02235174447,-187500.02235174447,-187500.02235174447,-187500.02235174447,-187500.02235174447,1729948349.637586,1729948348.413602,2000
8316.950001353027,-187500.02235174447,25388.139532582707,-187500.02235174447,-187500.02235174447,-187500.02235174447,-187500.02235174447,-187500.02235174447,1729948349.6413558,1729948348.413602,2000
8409.687389098095,-187500.02235174447,25484.632013396265,-187500.02235174447,-187500.02235174447,-187500.02235174447,-187500.02235174447,-187500.02235174447,1729948349.6458368,1729948348.413602,2000
8507.63273330125,-187500.02235174447,25591.540407126,-187500.02235174447,-187500.02235174447,-187500.02235174447,-187500.02235174447,-187500.02235174447,1729948349.649261,1729948348.413602,2000
8466.796096181404,-187500.02235174447,25538.43266230019,-187500.02235174447,-187500.02235174447,-187500.02235174447,-187500.02235174447,-187500.02235174447,1729948349.6532395,1729948348.413602,2000
8390.37548188871,-187500.02235174447,25454.233640937047,-187500.02235174447,-187500.02235174447,-187500.02235174447,-187500.02235174447,-187500.02235174447,1729948349.6575963,1729948348.413602,2000
8366.101487410246,-187500.02235174447,25476.920661559187,-187500.02235174447,-187500.02235174447,-187500.02235174447,-187500.02235174447,-187500.02235174447,1729948349.661306,1729948348.413602,2000
8477.122602119756,-187500.02235174447,25556.001133442063,-187500.02235174447,-187500.02235174447,-187500.02235174447,-187500.02235174447,-187500.02235174447,1729948349.6646435,1729948348.413602,2000
8507.096291434324,-187500.02235174447,25514.605702710836,-187500.02235174447,-187500.02235174447,-187500.02235174447,-187500.02235174447,-187500.02235174447,1729948349.6692724,1729948348.413602,2000
8375.84684799276,-187500.02235174447,25380.15995981216,-187500.02235174447,-187500.02235174447,-187500.02235174447,-187500.02235174447,-187500.02235174447,1729948349.6735308,1729948348.413602,2000
8324.482539234465,-187500.02235174447,25424.79639348941,-187500.02235174447,-187500.02235174447,-187500.02235174447,-187500.02235174447,-187500.02235174447,1729948349.6773038,1729948348.413602,2000
8442.544453447397,-187500.02235174447,25556.04583693097,-187500.02235174447,-187500.02235174447,-187500.02235174447,-187500.02235174447,-187500.02235174447,1729948349.681348,1729948348.413602,2000
8455.575520464841,-187500.02235174447,25528.7767086955,-187500.02235174447,-187500.02235174447,-187500.02235174447,-187500.02235174447,-187500.02235174447,1729948349.685279,1729948348.413602,2000
8387.1791824316,-187500.02235174447,25415.095736395808,-187500.02235174447,-187500.02235174447,-187500.02235174447,-187500.02235174447,-187500.02235174447,1729948349.689196,1729948348.413602,2000
8403.160679717146,-187500.02235174447,25430.719605770068,-187500.02235174447,-187500.02235174447,-187500.02235174447,-187500.02235174447,-187500.02235174447,1729948349.6921833,1729948348.413602,2000
8500.211954142089,-187500.02235174447,25581.72799131012,-187500.02235174447,-187500.02235174447,-187500.02235174447,-187500.02235174447,-187500.02235174447,1729948349.6973848,1729948348.413602,2000
8560.69577463815,-187500.02235174447,25594.200264716183,-187500.02235174447,-187500.02235174447,-187500.02235174447,-187500.02235174447,-187500.02235174447,1729948349.7011197,1729948348.413602,2000
8406.848717552271,-187500.02235174447,25437.670998295667,-187500.02235174447,-187500.02235174447,-187500.02235174447,-187500.02235174447,-187500.02235174447,1729948349.7053103,1729948348.413602,2000
8320.191004299046,-187500.02235174447,25399.047183876897,-187500.02235174447,-187500.02235174447,-187500.02235174447,-187500.02235174447,-187500.02235174447,1729948349.709165,1729948348.413602,2000
8420.99737179248,-187500.02235174447,25545.4287583147,-187500.02235174447,-187500.02235174447,-187500.02235174447,-187500.02235174447,-187500.02235174447,1729948349.7124417,1729948348.413602,2000
8479.447183543109,-187500.02235174447,25599.58703512991,-187500.02235174447,-187500.02235174447,-187500.02235174447,-187500.02235174447,-187500.02235174447,1729948349.7163298,1729948348.413602,2000
8432.709685887061,-187500.02235174447,25483.13444651776,-187500.02235174447,-187500.02235174447,-187500.02235174447,-187500.02235174447,-187500.02235174447,1729948349.7202833,1729948348.413602,2000
8425.870052083737,-187500.02235174447,25411.16182937167,-187500.02235174447,-187500.02235174447,-187500.02235174447,-187500.02235174447,-187500.02235174447,1729948349.7243876,1729948348.413602,2000
8464.851494413793,-187500.02235174447,25491.695164644145,-187500.02235174447,-187500.02235174447,-187500.02235174447,-187500.02235174447,-187500.02235174447,1729948349.729293,1729948348.413602,2000
8453.67562218614,-187500.02235174447,25586.332450667916,-187500.02235174447,-187500.02235174447,-187500.02235174447,-187500.02235174447,-187500.02235174447,1729948349.7333071,1729948348.413602,2000
8455.82138965385,-187500.02235174447,25521.75826093653,-187500.02235174447,-187500.02235174447,-187500.02235174447,-187500.02235174447,-187500.02235174447,1729948349.737378,1729948348.413602,2000
8367.889626966671,-187500.02235174447,25400.053012377382,-187500.02235174447,-187500.02235174447,-187500.02235174447,-187500.02235174447,-187500.02235174447,1729948349.7411823,1729948348.413602,2000
8405.731130329506,-187500.02235174447,25451.596135091324,-187500.02235174447,-187500.02235174447,-187500.02235174447,-187500.02235174447,-187500.02235174447,1729948349.7451892,1729948348.413602,2000
8512.840689759338,-187500.02235174447,25563.66778179023,-187500.02235174447,-187500.02235174447,-187500.02235174447,-187500.02235174447,-187500.02235174447,1729948349.7482407,1729948348.413602,2000
8487.806735969394,-187500.02235174447,25526.00509238304,-187500.02235174447,-187500.02235174447,-187500.02235174447,-187500.02235174447,-187500.02235174447,1729948349.7523248,1729948348.413602,2000
8354.41152506012,-187500.02235174447,25423.12001265526,-187500.02235174447,-187500.02235174447,-187500.02235174447,-187500.02235174447,-187500.02235174447,1729948349.757392,1729948348.413602,2000
8389.861391766237,-187500.02235174447,25438.296847140417,-187500.02235174447,-187500.02235174447,-187500.02235174447,-187500.02235174447,-187500.02235174447,1729948349.761346,1729948348.413602,2000
8564.920254340203,-187500.02235174447,25572.36261038335,-187500.02235174447,-187500.02235174447,-187500.02235174447,-187500.02235174447,-187500.02235174447,1729948349.7654457,1729948348.413602,2000
8487.046776657913,-187500.02235174447,25550.90493570625,-187500.02235174447,-187500.02235174447,-187500.02235174447,-187500.02235174447,-187500.02235174447,1729948349.7684424,1729948348.413602,2000
8401.931333772103,-187500.02235174447,25448.10926295629,-187500.02235174447,-187500.02235174447,-187500.02235174447,-187500.02235174447,-187500.02235174447,1729948349.7723942,1729948348.413602,2000
8377.344414871266,-187500.02235174447,25450.21032693509,-187500.02235174447,-187500.02235174447,-187500.02235174447,-187500.02235174447,-187500.02235174447,1729948349.7763002,1729948348.413602,2000
8474.328634062844,-187500.02235174447,25583.717296566643,-187500.02235174447,-187500.02235174447,-187500.02235174447,-187500.02235174447,-187500.02235174447,1729948349.7806976,1729948348.413602,2000
8492.813526727383,-187500.02235174447,25575.40244762927,-187500.02235174447,-187500.02235174447,-187500.02235174447,-187500.02235174447,-187500.02235174447,1729948349.7854085,1729948348.413602,2000
8372.762307257928,-187500.02235174447,25414.73810848452,-187500.02235174447,-187500.02235174447,-187500.02235174447,-187500.02235174447,-187500.02235174447,1729948349.7892735,1729948348.413602,2000
8342.386286543166,-187500.02235174447,25372.761532397453,-187500.02235174447,-187500.02235174447,-187500.02235174447,-187500.02235174447,-187500.02235174447,1729948349.7933118,1729948348.413602,2000
8469.72417470505,-187500.02235174447,25535.549287265458,-187500.02235174447,-187500.02235174447,-187500.02235174447,-187500.02235174447,-187500.02235174447,1729948349.796682,1729948348.413602,2000
8493.528782549953,-187500.02235174447,25581.996212243583,-187500.02235174447,-187500.02235174447,-187500.02235174447,-187500.02235174447,-187500.02235174447,1729948349.800502,1729948348.413602,2000
8427.1888050066,-187500.02235174447,25471.444484167638,-187500.02235174447,-187500.02235174447,-187500.02235174447,-187500.02235174447,-187500.02235174447,1729948349.8044808,1729948348.413602,2000
8392.498897611964,-187500.02235174447,25418.090870152817,-187500.02235174447,-187500.02235174447,-187500.02235174447,-187500.02235174447,-187500.02235174447,1729948349.8085234,1729948348.413602,2000
8456.916625132159,-187500.02235174447,25519.63484521328,-187500.02235174447,-187500.02235174447,-187500.02235174447,-187500.02235174447,-187500.02235174447,1729948349.8138647,1729948348.413602,2000
8511.588992069841,-187500.02235174447,25591.92038678174,-187500.02235174447,-187500.02235174447,-187500.02235174447,-187500.02235174447,-187500.02235174447,1729948349.8173697,1729948348.413602,2000
8431.614450408752,-187500.02235174447,25501.976967093586,-187500.02235174447,-187500.02235174447,-187500.02235174447,-187500.02235174447,-187500.02235174447,1729948349.8209243,1729948348.413602,2000
8403.09362448378,-187500.02235174447,25397.013175131466,-187500.02235174447,-187500.02235174447,-187500.02235174447,-187500.02235174447,-187500.02235174447,1729948349.8248875,1729948348.413602,2000
8449.093514572802,-187500.02235174447,25470.840987067342,-187500.02235174447,-187500.02235174447,-187500.02235174447,-187500.02235174447,-187500.02235174447,1729948349.8291037,1729948348.413602,2000
8415.364732189742,-187500.02235174447,25553.20716538515,-187500.02235174447,-187500.02235174447,-187500.02235174447,-187500.02235174447,-187500.02235174447,1729948349.8329985,1729948348.413602,2000
8409.061540253346,-187500.02235174447,25481.122789516783,-187500.02235174447,-187500.02235174447,-187500.02235174447,-187500.02235174447,-187500.02235174447,1729948349.8365943,1729948348.413602,2000
8393.169449945623,-187500.02235174447,25422.8517917218,-187500.02235174447,-187500.02235174447,-187500.02235174447,-187500.02235174447,-187500.02235174447,1729948349.8416705,1729948348.413602,2000
8411.252011209966,-187500.02235174447,25486.218987252592,-187500.02235174447,-187500.02235174447,-187500.02235174447,-187500.02235174447,-187500.02235174447,1729948349.8457563,1729948348.413602,2000
8498.736739008038,-187500.02235174447,25584.566662855945,-187500.02235174447,-187500.02235174447,-187500.02235174447,-187500.02235174447,-187500.02235174447,1729948349.8486476,1729948348.413602,2000
8481.503544032998,-187500.02235174447,25519.76895568001,-187500.02235174447,-187500.02235174447,-187500.02235174447,-187500.02235174447,-187500.02235174447,1729948349.8526163,1729948348.413602,2000
8388.587342332285,-187500.02235174447,25409.88777993772,-187500.02235174447,-187500.02235174447,-187500.02235174447,-187500.02235174447,-187500.02235174447,1729948349.8569589,1729948348.413602,2000
8384.139345185678,-187500.02235174447,25460.916812529187,-187500.02235174447,-187500.02235174447,-187500.02235174447,-187500.02235174447,-187500.02235174447,1729948349.8605945,1729948348.413602,2000
8505.486965833541,-187500.02235174447,25621.31293074047,-187500.02235174447,-187500.02235174447,-187500.02235174447,-187500.02235174447,-187500.02235174447,1729948349.8648255,1729948348.413602,2000
8538.433437160664,-187500.02235174447,25591.898035037284,-187500.02235174447,-187500.02235174447,-187500.02235174447,-187500.02235174447,-187500.02235174447,1729948349.8684173,1729948348.413602,2000
8410.156775731657,-187500.02235174447,25429.82553599185,-187500.02235174447,-187500.02235174447,-187500.02235174447,-187500.02235174447,-187500.02235174447,1729948349.873922,1729948348.413602,2000
8370.102449667746,-187500.02235174447,25422.829439977344,-187500.02235174447,-187500.02235174447,-187500.02235174447,-187500.02235174447,-187500.02235174447,1729948349.8764064,1729948348.413602,2000
8468.271311315455,-187500.02235174447,25558.72804626561,-187500.02235174447,-187500.02235174447,-187500.02235174447,-187500.02235174447,-187500.02235174447,1729948349.8809,1729948348.413602,2000
8495.071052917368,-187500.02235174447,25552.20133688466,-187500.02235174447,-187500.02235174447,-187500.02235174447,-187500.02235174447,-187500.02235174447,1729948349.88436,1729948348.413602,2000
8383.446441107564,-187500.02235174447,25402.37759380073,-187500.02235174447,-187500.02235174447,-187500.02235174447,-187500.02235174447,-187500.02235174447,1729948349.8889167,1729948348.413602,2000
8332.685629449563,-187500.02235174447,25410.6477392492,-187500.02235174447,-187500.02235174447,-187500.02235174447,-187500.02235174447,-187500.02235174447,1729948349.89254,1729948348.413602,2000
8480.810639954881,-187500.02235174447,25556.515223564533,-187500.02235174447,-187500.02235174447,-187500.02235174447,-187500.02235174447,-187500.02235174447,1729948349.896958,1729948348.413602,2000
8521.468463119087,-187500.02235174447,25596.055459505973,-187500.02235174447,-187500.02235174447,-187500.02235174447,-187500.02235174447,-187500.02235174447,1729948349.9014204,1729948348.413602,2000
8416.504671156963,-187500.02235174447,25488.70003088713,-187500.02235174447,-187500.02235174447,-187500.02235174447,-187500.02235174447,-187500.02235174447,1729948349.9046447,1729948348.413602,2000
8367.397888588654,-187500.02235174447,25418.60496027529,-187500.02235174447,-187500.02235174447,-187500.02235174447,-187500.02235174447,-187500.02235174447,1729948349.908466,1729948348.413602,2000
8443.349116247788,-187500.02235174447,25494.645594912243,-187500.02235174447,-187500.02235174447,-187500.02235174447,-187500.02235174447,-187500.02235174447,1729948349.9129927,1729948348.413602,2000
8508.146823423724,-187500.02235174447,25555.7329125086,-187500.02235174447,-187500.02235174447,-187500.02235174447,-187500.02235174447,-187500.02235174447,1729948349.9165812,1729948348.413602,2000
8457.453066999087,-187500.02235174447,25486.39780120824,-187500.02235174447,-187500.02235174447,-187500.02235174447,-187500.02235174447,-187500.02235174447,1729948349.9206235,1729948348.413602,2000
8398.28799942589,-187500.02235174447,25436.57576281736,-187500.02235174447,-187500.02235174447,-187500.02235174447,-187500.02235174447,-187500.02235174447,1729948349.9247887,1729948348.413602,2000
8413.755406588962,-187500.02235174447,25496.880769357776,-187500.02235174447,-187500.02235174447,-187500.02235174447,-187500.02235174447,-187500.02235174447,1729948349.929499,1729948348.413602,2000
8529.716256823094,-187500.02235174447,25613.22159924765,-187500.02235174447,-187500.02235174447,-187500.02235174447,-187500.02235174447,-187500.02235174447,1729948349.9329429,1729948348.413602,2000
8502.983570454548,-187500.02235174447,25551.128453150806,-187500.02235174447,-187500.02235174447,-187500.02235174447,-187500.02235174447,-187500.02235174447,1729948349.936772,1729948348.413602,2000
8363.598092031252,-187500.02235174447,25389.1453610832,-187500.02235174447,-187500.02235174447,-187500.02235174447,-187500.02235174447,-187500.02235174447,1729948349.9410307,1729948348.413602,2000
8385.279284152899,-187500.02235174447,25451.551431602413,-187500.02235174447,-187500.02235174447,-187500.02235174447,-187500.02235174447,-187500.02235174447,1729948349.944721,1729948348.413602,2000
8504.279971632955,-187500.02235174447,25583.00204074407,-187500.02235174447,-187500.02235174447,-187500.02235174447,-187500.02235174447,-187500.02235174447,1729948349.9486308,1729948348.413602,2000
8460.314090289367,-187500.02235174447,25527.18973483917,-187500.02235174447,-187500.02235174447,-187500.02235174447,-187500.02235174447,-187500.02235174447,1729948349.9527102,1729948348.413602,2000
8367.666109522117,-187500.02235174447,25407.965529914563,-187500.02235174447,-187500.02235174447,-187500.02235174447,-187500.02235174447,-187500.02235174447,1729948349.9570048,1729948348.413602,2000
8410.849679809771,-187500.02235174447,25424.57287604485,-187500.02235174447,-187500.02235174447,-187500.02235174447,-187500.02235174447,-187500.02235174447,1729948349.9596355,1729948348.413602,2000
8514.338256637842,-187500.02235174447,25581.37036339884,-187500.02235174447,-187500.02235174447,-187500.02235174447,-187500.02235174447,-187500.02235174447,1729948349.9649167,1729948348.413602,2000
8538.388733671753,-187500.02235174447,25604.52677065453,-187500.02235174447,-187500.02235174447,-187500.02235174447,-187500.02235174447,-187500.02235174447,1729948349.9685063,1729948348.413602,2000
8398.064481981335,-187500.02235174447,25473.009106279507,-187500.02235174447,-187500.02235174447,-187500.02235174447,-187500.02235174447,-187500.02235174447,1729948349.972726,1729948348.413602,2000
8374.66220553663,-187500.02235174447,25421.756556243487,-187500.02235174447,-187500.02235174447,-187500.02235174447,-187500.02235174447,-187500.02235174447,1729948349.9765332,1729948348.413602,2000
8440.979831335526,-187500.02235174447,25511.319996275903,-187500.02235174447,-187500.02235174447,-187500.02235174447,-187500.02235174447,-187500.02235174447,1729948349.9810934,1729948348.413602,2000
8486.800907468905,-187500.02235174447,25582.37619189933,-187500.02235174447,-187500.02235174447,-187500.02235174447,-187500.02235174447,-187500.02235174447,1729948349.9846475,1729948348.413602,2000
8432.95555507607,-187500.02235174447,25466.19182422064,-187500.02235174447,-187500.02235174447,-187500.02235174447,-187500.02235174447,-187500.02235174447,1729948349.9879496,1729948348.413602,2000
8412.056674010359,-187500.02235174447,25424.41641383367,-187500.02235174447,-187500.02235174447,-187500.02235174447,-187500.02235174447,-187500.02235174447,1729948349.9926023,1729948348.413602,2000
8515.567602582885,-187500.02235174447,25545.20524087015,-187500.02235174447,-187500.02235174447,-187500.02235174447,-187500.02235174447,-187500.02235174447,1729948349.99718,1729948348.413602,2000
8516.484024105552,-187500.02235174447,25558.616287543333,-187500.02235174447,-187500.02235174447,-187500.02235174447,-187500.02235174447,-187500.02235174447,1729948350.000596,1729948348.413602,2000
8332.819739916295,-187500.02235174447,25411.78767821642,-187500.02235174447,-187500.02235174447,-187500.02235174447,-187500.02235174447,-187500.02235174447,1729948350.0047812,1729948348.413602,2000
8338.586489985764,-187500.02235174447,25397.61667223176,-187500.02235174447,-187500.02235174447,-187500.02235174447,-187500.02235174447,-187500.02235174447,1729948350.008592,1729948348.413602,2000
8489.259599358988,-187500.02235174447,25541.11487163483,-187500.02235174447,-187500.02235174447,-187500.02235174447,-187500.02235174447,-187500.02235174447,1729948350.012843,1729948348.413602,2000
8566.641338663261,-187500.02235174447,25618.45190745019,-187500.02235174447,-187500.02235174447,-187500.02235174447,-187500.02235174447,-187500.02235174447,1729948350.0158925,1729948348.413602,2000
8472.518142761963,-187500.02235174447,25494.980871079075,-187500.02235174447,-187500.02235174447,-187500.02235174447,-187500.02235174447,-187500.02235174447,1729948350.019838,1729948348.413602,2000
8366.928501955093,-187500.02235174447,25413.151134628195,-187500.02235174447,-187500.02235174447,-187500.02235174447,-187500.02235174447,-187500.02235174447,1729948350.0248413,1729948348.413602,2000
8415.52119440093,-187500.02235174447,25495.740830390558,-187500.02235174447,-187500.02235174447,-187500.02235174447,-187500.02235174447,-187500.02235174447,1729948350.0287209,1729948348.413602,2000
8540.981536028568,-187500.02235174447,25602.001023531084,-187500.02235174447,-187500.02235174447,-187500.02235174447,-187500.02235174447,-187500.02235174447,1729948350.0331445,1729948348.413602,2000
8497.976779696559,-187500.02235174447,25537.76210996653,-187500.02235174447,-187500.02235174447,-187500.02235174447,-187500.02235174447,-187500.02235174447,1729948350.037358,1729948348.413602,2000
8385.033414963891,-187500.02235174447,25407.205570603084,-187500.02235174447,-187500.02235174447,-187500.02235174447,-187500.02235174447,-187500.02235174447,1729948350.0414536,1729948348.413602,2000
8355.283243093878,-187500.02235174447,25442.387216375737,-187500.02235174447,-187500.02235174447,-187500.02235174447,-187500.02235174447,-187500.02235174447,1729948350.043808,1729948348.413602,2000
8462.43750601262,-187500.02235174447,25584.23138668912,-187500.02235174447,-187500.02235174447,-187500.02235174447,-187500.02235174447,-187500.02235174447,1729948350.047912,1729948348.413602,2000
8453.76502916396,-187500.02235174447,25514.181019566186,-187500.02235174447,-187500.02235174447,-187500.02235174447,-187500.02235174447,-187500.02235174447,1729948350.052898,1729948348.413602,2000
8354.813856460316,-187500.02235174447,25372.135683552708,-187500.02235174447,-187500.02235174447,-187500.02235174447,-187500.02235174447,-187500.02235174447,1729948350.0569773,1729948348.413602,2000
8468.092497359812,-187500.02235174447,25453.205460692105,-187500.02235174447,-187500.02235174447,-187500.02235174447,-187500.02235174447,-187500.02235174447,1729948350.0608633,1729948348.413602,2000
8540.534501139462,-187500.02235174447,25609.48885792361,-187500.02235174447,-187500.02235174447,-187500.02235174447,-187500.02235174447,-187500.02235174447,1729948350.0649452,1729948348.413602,2000
8494.82518372836,-187500.02235174447,25589.796971058488,-187500.02235174447,-187500.02235174447,-187500.02235174447,-187500.02235174447,-187500.02235174447,1729948350.0677516,1729948348.413602,2000
8406.692255341084,-187500.02235174447,25437.64864655121,-187500.02235174447,-187500.02235174447,-187500.02235174447,-187500.02235174447,-187500.02235174447,1729948350.0742242,1729948348.413602,2000
8370.70594676804,-187500.02235174447,25394.17450358564,-187500.02235174447,-187500.02235174447,-187500.02235174447,-187500.02235174447,-187500.02235174447,1729948350.0777292,1729948348.413602,2000
8468.517180504463,-187500.02235174447,25548.736816494085,-187500.02235174447,-187500.02235174447,-187500.02235174447,-187500.02235174447,-187500.02235174447,1729948350.0809717,1729948348.413602,2000
8538.835768560859,-187500.02235174447,25572.02733421652,-187500.02235174447,-187500.02235174447,-187500.02235174447,-187500.02235174447,-187500.02235174447,1729948350.0846868,1729948348.413602,2000
8418.04694152438,-187500.02235174447,25423.67880626665,-187500.02235174447,-187500.02235174447,-187500.02235174447,-187500.02235174447,-187500.02235174447,1729948350.0889823,1729948348.413602,2000
8375.444516592564,-187500.02235174447,25398.01900363195,-187500.02235174447,-187500.02235174447,-187500.02235174447,-187500.02235174447,-187500.02235174447,1729948350.091764,1729948348.413602,2000
8429.781607363417,-187500.02235174447,25536.93509542169,-187500.02235174447,-187500.02235174447,-187500.02235174447,-187500.02235174447,-187500.02235174447,1729948350.0963333,1729948348.413602,2000
8484.185753367634,-187500.02235174447,25590.64633734779,-187500.02235174447,-187500.02235174447,-187500.02235174447,-187500.02235174447,-187500.02235174447,1729948350.0999937,1729948348.413602,2000
8428.90988932966,-187500.02235174447,25482.642708139745,-187500.02235174447,-187500.02235174447,-187500.02235174447,-187500.02235174447,-187500.02235174447,1729948350.1043236,1729948348.413602,2000
8384.854601008248,-187500.02235174447,25430.11610866977,-187500.02235174447,-187500.02235174447,-187500.02235174447,-187500.02235174447,-187500.02235174447,1729948350.1087506,1729948348.413602,2000
8435.235433010512,-187500.02235174447,25494.735001890065,-187500.02235174447,-187500.02235174447,-187500.02235174447,-187500.02235174447,-187500.02235174447,1729948350.1129284,1729948348.413602,2000
8540.847425561837,-187500.02235174447,25573.882529006307,-187500.02235174447,-187500.02235174447,-187500.02235174447,-187500.02235174447,-187500.02235174447,1729948350.116748,1729948348.413602,2000
8461.141104834212,-187500.02235174447,25485.928414574675,-187500.02235174447,-187500.02235174447,-187500.02235174447,-187500.02235174447,-187500.02235174447,1729948350.1198332,1729948348.413602,2000
8345.247309833445,-187500.02235174447,25383.982108114014,-187500.02235174447,-187500.02235174447,-187500.02235174447,-187500.02235174447,-187500.02235174447,1729948350.1243262,1729948348.413602,2000
8403.786528561894,-187500.02235174447,25479.535815660456,-187500.02235174447,-187500.02235174447,-187500.02235174447,-187500.02235174447,-187500.02235174447,1729948350.127895,1729948348.413602,2000
8501.597762298317,-187500.02235174447,25594.848465305386,-187500.02235174447,-187500.02235174447,-187500.02235174447,-187500.02235174447,-187500.02235174447,1729948350.1319044,1729948348.413602,2000
8484.29751208991,-187500.02235174447,25534.94579016516,-187500.02235174447,-187500.02235174447,-187500.02235174447,-187500.02235174447,-187500.02235174447,1729948350.1369138,1729948348.413602,2000
8401.461947138541,-187500.02235174447,25432.21717264857,-187500.02235174447,-187500.02235174447,-187500.02235174447,-187500.02235174447,-187500.02235174447,1729948350.1410365,1729948348.413602,2000
8427.635839895707,-187500.02235174447,25446.67875131116,-187500.02235174447,-187500.02235174447,-187500.02235174447,-187500.02235174447,-187500.02235174447,1729948350.144737,1729948348.413602,2000
8517.534556094952,-187500.02235174447,25557.11872066483,-187500.02235174447,-187500.02235174447,-187500.02235174447,-187500.02235174447,-187500.02235174447,1729948350.147792,1729948348.413602,2000
8473.680433473639,-187500.02235174447,25558.8845084768,-187500.02235174447,-187500.02235174447,-187500.02235174447,-187500.02235174447,-187500.02235174447,1729948350.1519735,1729948348.413602,2000
8370.37067060121,-187500.02235174447,25456.915850271685,-187500.02235174447,-187500.02235174447,-187500.02235174447,-187500.02235174447,-187500.02235174447,1729948350.1560285,1729948348.413602,2000
8392.2306766785,-187500.02235174447,25419.566085286868,-187500.02235174447,-187500.02235174447,-187500.02235174447,-187500.02235174447,-187500.02235174447,1729948350.1598856,1729948348.413602,2000
8548.447018676641,-187500.02235174447,25538.723234978108,-187500.02235174447,-187500.02235174447,-187500.02235174447,-187500.02235174447,-187500.02235174447,1729948350.1642957,1729948348.413602,2000
8489.930151692648,-187500.02235174447,25556.5822787979,-187500.02235174447,-187500.02235174447,-187500.02235174447,-187500.02235174447,-187500.02235174447,1729948350.1690028,1729948348.413602,2000
8373.142286913668,-187500.02235174447,25443.90713499869,-187500.02235174447,-187500.02235174447,-187500.02235174447,-187500.02235174447,-187500.02235174447,1729948350.1729443,1729948348.413602,2000
8364.380403087187,-187500.02235174447,25422.427108577147,-187500.02235174447,-187500.02235174447,-187500.02235174447,-187500.02235174447,-187500.02235174447,1729948350.1758437,1729948348.413602,2000
8464.33740429132,-187500.02235174447,25560.24796488857,-187500.02235174447,-187500.02235174447,-187500.02235174447,-187500.02235174447,-187500.02235174447,1729948350.180238,1729948348.413602,2000
8508.68326529065,-187500.02235174447,25579.29165116449,-187500.02235174447,-187500.02235174447,-187500.02235174447,-187500.02235174447,-187500.02235174447,1729948350.1838455,1729948348.413602,2000
8426.786473606406,-187500.02235174447,25454.32304791487,-187500.02235174447,-187500.02235174447,-187500.02235174447,-187500.02235174447,-187500.02235174447,1729948350.1882043,1729948348.413602,2000
8356.043202405359,-187500.02235174447,25408.32315782585,-187500.02235174447,-187500.02235174447,-187500.02235174447,-187500.02235174447,-187500.02235174447,1729948350.1918864,1729948348.413602,2000
8446.47836047153,-187500.02235174447,25503.65334792773,-187500.02235174447,-187500.02235174447,-187500.02235174447,-187500.02235174447,-187500.02235174447,1729948350.1974585,1729948348.413602,2000
8503.229439643555,-187500.02235174447,25575.15657844026,-187500.02235174447,-187500.02235174447,-187500.02235174447,-187500.02235174447,-187500.02235174447,1729948350.2009132,1729948348.413602,2000
8443.013840080957,-187500.02235174447,25488.789437864954,-187500.02235174447,-187500.02235174447,-187500.02235174447,-187500.02235174447,-187500.02235174447,1729948350.2041247,1729948348.413602,2000
8381.300673639855,-187500.02235174447,25406.62442524725,-187500.02235174447,-187500.02235174447,-187500.02235174447,-187500.02235174447,-187500.02235174447,1729948350.2080429,1729948348.413602,2000
8423.165491004645,-187500.02235174447,25482.95563256212,-187500.02235174447,-187500.02235174447,-187500.02235174447,-187500.02235174447,-187500.02235174447,1729948350.2126236,1729948348.413602,2000
8540.64625986174,-187500.02235174447,25612.931026569728,-187500.02235174447,-187500.02235174447,-187500.02235174447,-187500.02235174447,-187500.02235174447,1729948350.2161863,1729948348.413602,2000
8475.58033175234,-187500.02235174447,25494.71265014561,-187500.02235174447,-187500.02235174447,-187500.02235174447,-187500.02235174447,-187500.02235174447,1729948350.220022,1729948348.413602,2000
8378.014967204925,-187500.02235174447,25396.677898964637,-187500.02235174447,-187500.02235174447,-187500.02235174447,-187500.02235174447,-187500.02235174447,1729948350.22496,1729948348.413602,2000
8408.256877452955,-187500.02235174447,25471.9138708012,-187500.02235174447,-187500.02235174447,-187500.02235174447,-187500.02235174447,-187500.02235174447,1729948350.2280135,1729948348.413602,2000
8490.1536691372,-187500.02235174447,25579.0904854644,-187500.02235174447,-187500.02235174447,-187500.02235174447,-187500.02235174447,-187500.02235174447,1729948350.231528,1729948348.413602,2000
8461.230511812033,-187500.02235174447,25524.216952826617,-187500.02235174447,-187500.02235174447,-187500.02235174447,-187500.02235174447,-187500.02235174447,1729948350.2360957,1729948348.413602,2000
8381.635949806685,-187500.02235174447,25385.613785459256,-187500.02235174447,-187500.02235174447,-187500.02235174447,-187500.02235174447,-187500.02235174447,1729948350.2406435,1729948348.413602,2000
8426.831177095315,-187500.02235174447,25413.17348637265,-187500.02235174447,-187500.02235174447,-187500.02235174447,-187500.02235174447,-187500.02235174447,1729948350.2441275,1729948348.413602,2000
8499.675512275162,-187500.02235174447,25552.268392118025,-187500.02235174447,-187500.02235174447,-187500.02235174447,-187500.02235174447,-187500.02235174447,1729948350.2480645,1729948348.413602,2000
8448.087686072313,-187500.02235174447,25568.40635161476,-187500.02235174447,-187500.02235174447,-187500.02235174447,-187500.02235174447,-187500.02235174447,1729948350.2541933,1729948348.413602,2000
8401.908982027648,-187500.02235174447,25448.153966445207,-187500.02235174447,-187500.02235174447,-187500.02235174447,-187500.02235174447,-187500.02235174447,1729948350.2575948,1729948348.413602,2000
8370.571836301307,-187500.02235174447,25412.27941659444,-187500.02235174447,-187500.02235174447,-187500.02235174447,-187500.02235174447,-187500.02235174447,1729948350.2601266,1729948348.413602,2000
8410.76027283195,-187500.02235174447,25491.695164644145,-187500.02235174447,-187500.02235174447,-187500.02235174447,-187500.02235174447,-187500.02235174447,1729948350.2645617,1729948348.413602,2000
8491.114794148778,-187500.02235174447,25544.355874580848,-187500.02235174447,-187500.02235174447,-187500.02235174447,-187500.02235174447,-187500.02235174447,1729948350.2678971,1729948348.413602,2000
8467.176075837146,-187500.02235174447,25495.18203677917,-187500.02235174447,-187500.02235174447,-187500.02235174447,-187500.02235174447,-187500.02235174447,1729948350.2724116,1729948348.413602,2000
8433.559052176362,-187500.02235174447,25450.47854786856,-187500.02235174447,-187500.02235174447,-187500.02235174447,-187500.02235174447,-187500.02235174447,1729948350.2761145,1729948348.413602,2000
8456.313128031865,-187500.02235174447,25501.99931883804,-187500.02235174447,-187500.02235174447,-187500.02235174447,-187500.02235174447,-187500.02235174447,1729948350.2807305,1729948348.413602,2000
8495.54043955093,-187500.02235174447,25571.91557549424,-187500.02235174447,-187500.02235174447,-187500.02235174447,-187500.02235174447,-187500.02235174447,1729948350.2840416,1729948348.413602,2000
8424.350133460777,-187500.02235174447,25478.6640976267,-187500.02235174447,-187500.02235174447,-187500.02235174447,-187500.02235174447,-187500.02235174447,1729948350.287624,1729948348.413602,2000
8397.908019770148,-187500.02235174447,25427.344492357315,-187500.02235174447,-187500.02235174447,-187500.02235174447,-187500.02235174447,-187500.02235174447,1729948350.2920735,1729948348.413602,2000
8459.285910044422,-187500.02235174447,25515.030385855483,-187500.02235174447,-187500.02235174447,-187500.02235174447,-187500.02235174447,-187500.02235174447,1729948350.2961946,1729948348.413602,2000
8512.863041503793,-187500.02235174447,25568.741627781583,-187500.02235174447,-187500.02235174447,-187500.02235174447,-187500.02235174447,-187500.02235174447,1729948350.3000708,1729948348.413602,2000
8478.217837598067,-187500.02235174447,25502.513408960516,-187500.02235174447,-187500.02235174447,-187500.02235174447,-187500.02235174447,-187500.02235174447,1729948350.3045535,1729948348.413602,2000
8359.84299896276,-187500.02235174447,25414.22401836205,-187500.02235174447,-187500.02235174447,-187500.02235174447,-187500.02235174447,-187500.02235174447,1729948350.3084023,1729948348.413602,2000
8372.60584504674,-187500.02235174447,25429.959646458585,-187500.02235174447,-187500.02235174447,-187500.02235174447,-187500.02235174447,-187500.02235174447,1729948350.31251,1729948348.413602,2000
8475.736793963528,-187500.02235174447,25511.208237553627,-187500.02235174447,-187500.02235174447,-187500.02235174447,-187500.02235174447,-187500.02235174447,1729948350.3152256,1729948348.413602,2000
8471.892293917215,-187500.02235174447,25544.132357136292,-187500.02235174447,-187500.02235174447,-187500.02235174447,-187500.02235174447,-187500.02235174447,1729948350.320247,1729948348.413602,2000
8395.449327880064,-187500.02235174447,25417.152096885693,-187500.02235174447,-187500.02235174447,-187500.02235174447,-187500.02235174447,-187500.02235174447,1729948350.3242583,1729948348.413602,2000
8401.864278538738,-187500.02235174447,25423.67880626665,-187500.02235174447,-187500.02235174447,-187500.02235174447,-187500.02235174447,-187500.02235174447,1729948350.3283298,1729948348.413602,2000
8464.560921735874,-187500.02235174447,25574.01663947304,-187500.02235174447,-187500.02235174447,-187500.02235174447,-187500.02235174447,-187500.02235174447,1729948350.3320618,1729948348.413602,2000
8469.478305516042,-187500.02235174447,25546.568697281924,-187500.02235174447,-187500.02235174447,-187500.02235174447,-187500.02235174447,-187500.02235174447,1729948350.336264,1729948348.413602,2000
8420.90796481466,-187500.02235174447,25429.423204591654,-187500.02235174447,-187500.02235174447,-187500.02235174447,-187500.02235174447,-187500.02235174447,1729948350.3391492,1729948348.413602,2000
8399.070310481824,-187500.02235174447,25453.22781243656,-187500.02235174447,-187500.02235174447,-187500.02235174447,-187500.02235174447,-187500.02235174447,1729948350.3430488,1729948348.413602,2000
8513.868870004282,-187500.02235174447,25570.99915397157,-187500.02235174447,-187500.02235174447,-187500.02235174447,-187500.02235174447,-187500.02235174447,1729948350.3480709,1729948348.413602,2000
8493.43937557213,-187500.02235174447,25549.697941505667,-187500.02235174447,-187500.02235174447,-187500.02235174447,-187500.02235174447,-187500.02235174447,1729948350.3521428,1729948348.413602,2000
8379.80310676135,-187500.02235174447,25431.43486159264,-187500.02235174447,-187500.02235174447,-187500.02235174447,-187500.02235174447,-187500.02235174447,1729948350.3562033,1729948348.413602,2000
8379.1772579166,-187500.02235174447,25425.265780122973,-187500.02235174447,-187500.02235174447,-187500.02235174447,-187500.02235174447,-187500.02235174447,1729948350.3602335,1729948348.413602,2000
8469.187732838123,-187500.02235174447,25544.132357136292,-187500.02235174447,-187500.02235174447,-187500.02235174447,-187500.02235174447,-187500.02235174447,1729948350.3631828,1729948348.413602,2000
8452.401572752187,-187500.02235174447,25533.53763026448,-187500.02235174447,-187500.02235174447,-187500.02235174447,-187500.02235174447,-187500.02235174447,1729948350.3670464,1729948348.413602,2000
8393.147098201169,-187500.02235174447,25420.102527153795,-187500.02235174447,-187500.02235174447,-187500.02235174447,-187500.02235174447,-187500.02235174447,1729948350.371182,1729948348.413602,2000
8369.61071128973,-187500.02235174447,25363.619668915235,-187500.02235174447,-187500.02235174447,-187500.02235174447,-187500.02235174447,-187500.02235174447,1729948350.37507,1729948348.413602,2000
8456.134314076224,-187500.02235174447,25479.08878077135,-187500.02235174447,-187500.02235174447,-187500.02235174447,-187500.02235174447,-187500.02235174447,1729948350.3801622,1729948348.413602,2000
8550.056344277424,-187500.02235174447,25620.932951084727,-187500.02235174447,-187500.02235174447,-187500.02235174447,-187500.02235174447,-187500.02235174447,1729948350.3841164,1729948348.413602,2000
8438.454084212075,-187500.02235174447,25513.130487576786,-187500.02235174447,-187500.02235174447,-187500.02235174447,-187500.02235174447,-187500.02235174447,1729948350.3881843,1729948348.413602,2000
8363.262815864422,-187500.02235174447,25396.96847164255,-187500.02235174447,-187500.02235174447,-187500.02235174447,-187500.02235174447,-187500.02235174447,1729948350.39133,1729948348.413602,2000
8451.015764595957,-187500.02235174447,25487.761257620008,-187500.02235174447,-187500.02235174447,-187500.02235174447,-187500.02235174447,-187500.02235174447,1729948350.3952775,1729948348.413602,2000
8547.172969242689,-187500.02235174447,25593.842636804897,-187500.02235174447,-187500.02235174447,-187500.02235174447,-187500.02235174447,-187500.02235174447,1729948350.399223,1729948348.413602,2000
8441.873901113737,-187500.02235174447,25491.44929545513,-187500.02235174447,-187500.02235174447,-187500.02235174447,-187500.02235174447,-187500.02235174447,1729948350.4033055,1729948348.413602,2000
8322.917917122593,-187500.02235174447,25392.341660540304,-187500.02235174447,-187500.02235174447,-187500.02235174447,-187500.02235174447,-187500.02235174447,1729948350.408099,1729948348.413602,2000
8393.616484834729,-187500.02235174447,25458.41341715019,-187500.02235174447,-187500.02235174447,-187500.02235174447,-187500.02235174447,-187500.02235174447,1729948350.4122033,1729948348.413602,2000
8485.705671990594,-187500.02235174447,25553.87771771881,-187500.02235174447,-187500.02235174447,-187500.02235174447,-187500.02235174447,-187500.02235174447,1729948350.4161844,1729948348.413602,2000
8512.952448481614,-187500.02235174447,25532.53180176399,-187500.02235174447,-187500.02235174447,-187500.02235174447,-187500.02235174447,-187500.02235174447,1729948350.4193125,1729948348.413602,2000
8423.076084026825,-187500.02235174447,25416.034509662928,-187500.02235174447,-187500.02235174447,-187500.02235174447,-187500.02235174447,-187500.02235174447,1729948350.423376,1729948348.413602,2000
8311.809100128306,-187500.02235174447,25408.32315782585,-187500.02235174447,-187500.02235174447,-187500.02235174447,-187500.02235174447,-187500.02235174447,1729948350.4272313,1729948348.413602,2000
8474.730965463039,-187500.02235174447,25545.853441459352,-187500.02235174447,-187500.02235174447,-187500.02235174447,-187500.02235174447,-187500.02235174447,1729948350.431347,1729948348.413602,2000
8506.805718756405,-187500.02235174447,25534.811679698432,-187500.02235174447,-187500.02235174447,-187500.02235174447,-187500.02235174447,-187500.02235174447,1729948350.4354248,1729948348.413602,2000
8400.545525615875,-187500.02235174447,25432.48539358204,-187500.02235174447,-187500.02235174447,-187500.02235174447,-187500.02235174447,-187500.02235174447,1729948350.440236,1729948348.413602,2000
8398.623275592718,-187500.02235174447,25439.280323896448,-187500.02235174447,-187500.02235174447,-187500.02235174447,-187500.02235174447,-187500.02235174447,1729948350.4443054,1729948348.413602,2000
8540.288631950454,-187500.02235174447,25592.23331120412,-187500.02235174447,-187500.02235174447,-187500.02235174447,-187500.02235174447,-187500.02235174447,1729948350.447421,1729948348.413602,2000
8513.69005604864,-187500.02235174447,25553.363627596336,-187500.02235174447,-187500.02235174447,-187500.02235174447,-187500.02235174447,-187500.02235174447,1729948350.4513462,1729948348.413602,2000
8342.27452782089,-187500.02235174447,25395.98499488652,-187500.02235174447,-187500.02235174447,-187500.02235174447,-187500.02235174447,-187500.02235174447,1729948350.4554164,1729948348.413602,2000
8314.670123418586,-187500.02235174447,25397.482561765024,-187500.02235174447,-187500.02235174447,-187500.02235174447,-187500.02235174447,-187500.02235174447,1729948350.4592004,1729948348.413602,2000
8497.552096551908,-187500.02235174447,25566.57350856942,-187500.02235174447,-187500.02235174447,-187500.02235174447,-187500.02235174447,-187500.02235174447,1729948350.463292,1729948348.413602,2000
8580.857048136837,-187500.02235174447,25602.559817142468,-187500.02235174447,-187500.02235174447,-187500.02235174447,-187500.02235174447,-187500.02235174447,1729948350.4683585,1729948348.413602,2000
8427.457025940064,-187500.02235174447,25449.875050768263,-187500.02235174447,-187500.02235174447,-187500.02235174447,-187500.02235174447,-187500.02235174447,1729948350.4714649,1729948348.413602,2000
8311.496175705932,-187500.02235174447,25383.512721480456,-187500.02235174447,-187500.02235174447,-187500.02235174447,-187500.02235174447,-187500.02235174447,1729948350.475253,1729948348.413602,2000
8472.942825906614,-187500.02235174447,25531.79419419697,-187500.02235174447,-187500.02235174447,-187500.02235174447,-187500.02235174447,-187500.02235174447,1729948350.4792893,1729948348.413602,2000
8557.119495525301,-187500.02235174447,25592.099200737382,-187500.02235174447,-187500.02235174447,-187500.02235174447,-187500.02235174447,-187500.02235174447,1729948350.4832711,1729948348.413602,2000
8414.671828111628,-187500.02235174447,25463.084931741352,-187500.02235174447,-187500.02235174447,-187500.02235174447,-187500.02235174447,-187500.02235174447,1729948350.4872828,1729948348.413602,2000
8320.302763021322,-187500.02235174447,25363.4855584485,-187500.02235174447,-187500.02235174447,-187500.02235174447,-187500.02235174447,-187500.02235174447,1729948350.4913456,1729948348.413602,2000
8369.2754351229,-187500.02235174447,25424.66228302268,-187500.02235174447,-187500.02235174447,-187500.02235174447,-187500.02235174447,-187500.02235174447,1729948350.4963024,1729948348.413602,2000
8555.197245502144,-187500.02235174447,25582.33148841041,-187500.02235174447,-187500.02235174447,-187500.02235174447,-187500.02235174447,-187500.02235174447,1729948350.499285,1729948348.413602,2000
8510.11377693579,-187500.02235174447,25581.32565990993,-187500.02235174447,-187500.02235174447,-187500.02235174447,-187500.02235174447,-187500.02235174447,1729948350.5033617,1729948348.413602,2000
8363.978071686992,-187500.02235174447,25441.202573919603,-187500.02235174447,-187500.02235174447,-187500.02235174447,-187500.02235174447,-187500.02235174447,1729948350.5073028,1729948348.413602,2000
8398.869144781727,-187500.02235174447,25482.642708139745,-187500.02235174447,-187500.02235174447,-187500.02235174447,-187500.02235174447,-187500.02235174447,1729948350.5113957,1729948348.413602,2000
8509.48792809104,-187500.02235174447,25595.40725891677,-187500.02235174447,-187500.02235174447,-187500.02235174447,-187500.02235174447,-187500.02235174447,1729948350.515428,1729948348.413602,2000
8506.850422245316,-187500.02235174447,25534.96814190962,-187500.02235174447,-187500.02235174447,-187500.02235174447,-187500.02235174447,-187500.02235174447,1729948350.519484,1729948348.413602,2000
8394.845830779772,-187500.02235174447,25403.56223625687,-187500.02235174447,-187500.02235174447,-187500.02235174447,-187500.02235174447,-187500.02235174447,1729948350.5243306,1729948348.413602,2000
8423.56782240484,-187500.02235174447,25427.07627142385,-187500.02235174447,-187500.02235174447,-187500.02235174447,-187500.02235174447,-187500.02235174447,1729948350.527384,1729948348.413602,2000
8497.954427952103,-187500.02235174447,25558.638639287787,-187500.02235174447,-187500.02235174447,-187500.02235174447,-187500.02235174447,-187500.02235174447,1729948350.5314264,1729948348.413602,2000
8491.673587760162,-187500.02235174447,25549.67558976121,-187500.02235174447,-187500.02235174447,-187500.02235174447,-187500.02235174447,-187500.02235174447,1729948350.5354395,1729948348.413602,2000
8396.410452891643,-187500.02235174447,25428.059748179883,-187500.02235174447,-187500.02235174447,-187500.02235174447,-187500.02235174447,-187500.02235174447,1729948350.5393736,1729948348.413602,2000
8370.013042689925,-187500.02235174447,25403.852808934786,-187500.02235174447,-187500.02235174447,-187500.02235174447,-187500.02235174447,-187500.02235174447,1729948350.5433545,1729948348.413602,2000
8443.170302292145,-187500.02235174447,25514.33748177737,-187500.02235174447,-187500.02235174447,-187500.02235174447,-187500.02235174447,-187500.02235174447,1729948350.5474515,1729948348.413602,2000
8459.397668766698,-187500.02235174447,25555.48704331959,-187500.02235174447,-187500.02235174447,-187500.02235174447,-187500.02235174447,-187500.02235174447,1729948350.5524025,1729948348.413602,2000
8410.112072242746,-187500.02235174447,25451.01498973549,-187500.02235174447,-187500.02235174447,-187500.02235174447,-187500.02235174447,-187500.02235174447,1729948350.5553975,1729948348.413602,2000
8403.026569250414,-187500.02235174447,25436.307541883893,-187500.02235174447,-187500.02235174447,-187500.02235174447,-187500.02235174447,-187500.02235174447,1729948350.5605693,1729948348.413602,2000
8492.411195327186,-187500.02235174447,25568.5851655704,-187500.02235174447,-187500.02235174447,-187500.02235174447,-187500.02235174447,-187500.02235174447,1729948350.563444,1729948348.413602,2000
8520.641448574239,-187500.02235174447,25594.42378216073,-187500.02235174447,-187500.02235174447,-187500.02235174447,-187500.02235174447,-187500.02235174447,1729948350.5674107,1729948348.413602,2000
8441.650383669185,-187500.02235174447,25472.740885346044,-187500.02235174447,-187500.02235174447,-187500.02235174447,-187500.02235174447,-187500.02235174447,1729948350.5715923,1729948348.413602,2000
8377.880856738193,-187500.02235174447,25407.294977580903,-187500.02235174447,-187500.02235174447,-187500.02235174447,-187500.02235174447,-187500.02235174447,1729948350.5753825,1729948348.413602,2000
8445.316069759854,-187500.02235174447,25491.5163506885,-187500.02235174447,-187500.02235174447,-187500.02235174447,-187500.02235174447,-187500.02235174447,1729948350.5804265,1729948348.413602,2000
8518.383922384253,-187500.02235174447,25570.574470826923,-187500.02235174447,-187500.02235174447,-187500.02235174447,-187500.02235174447,-187500.02235174447,1729948350.583446,1729948348.413602,2000
8460.224683311544,-187500.02235174447,25493.01391756701,-187500.02235174447,-187500.02235174447,-187500.02235174447,-187500.02235174447,-187500.02235174447,1729948350.5864651,1729948348.413602,2000
8382.865295751726,-187500.02235174447,25405.283320579925,-187500.02235174447,-187500.02235174447,-187500.02235174447,-187500.02235174447,-187500.02235174447,1729948350.5913737,1729948348.413602,2000
8475.423869541153,-187500.02235174447,25488.61062390931,-187500.02235174447,-187500.02235174447,-187500.02235174447,-187500.02235174447,-187500.02235174447,1729948350.595614,1729948348.413602,2000
8563.31092873942,-187500.02235174447,25585.34897391188,-187500.02235174447,-187500.02235174447,-187500.02235174447,-187500.02235174447,-187500.02235174447,1729948350.599585,1729948348.413602,2000
8454.703802431084,-187500.02235174447,25507.207275296125,-187500.02235174447,-187500.02235174447,-187500.02235174447,-187500.02235174447,-187500.02235174447,1729948350.6036737,1729948348.413602,2000
8321.107425821714,-187500.02235174447,25422.22594287705,-187500.02235174447,-187500.02235174447,-187500.02235174447,-187500.02235174447,-187500.02235174447,1729948350.6066525,1729948348.413602,2000
8400.56787736033,-187500.02235174447,25481.726286617075,-187500.02235174447,-187500.02235174447,-187500.02235174447,-187500.02235174447,-187500.02235174447,1729948350.6106367,1729948348.413602,2000
8503.83293674385,-187500.02235174447,25595.83194206142,-187500.02235174447,-187500.02235174447,-187500.02235174447,-187500.02235174447,-187500.02235174447,1729948350.6146352,1729948348.413602,2000
8478.039023642425,-187500.02235174447,25538.76793846702,-187500.02235174447,-187500.02235174447,-187500.02235174447,-187500.02235174447,-187500.02235174447,1729948350.6196845,1729948348.413602,2000
8377.61263580473,-187500.02235174447,25412.79350671691,-187500.02235174447,-187500.02235174447,-187500.02235174447,-187500.02235174447,-187500.02235174447,1729948350.623639,1729948348.413602,2000
8395.270513924423,-187500.02235174447,25446.41053037769,-187500.02235174447,-187500.02235174447,-187500.02235174447,-187500.02235174447,-187500.02235174447,1729948350.6276484,1729948348.413602,2000
8495.92041920667,-187500.02235174447,25567.57933706991,-187500.02235174447,-187500.02235174447,-187500.02235174447,-187500.02235174447,-187500.02235174447,1729948350.6319108,1729948348.413602,2000
8450.81459889586,-187500.02235174447,25518.561961479423,-187500.02235174447,-187500.02235174447,-187500.02235174447,-187500.02235174447,-187500.02235174447,1729948350.6346817,1729948348.413602,2000
8378.41729860512,-187500.02235174447,25406.06563163586,-187500.02235174447,-187500.02235174447,-187500.02235174447,-187500.02235174447,-187500.02235174447,1729948350.6389382,1729948348.413602,2000
8378.506705582942,-187500.02235174447,25409.97718691554,-187500.02235174447,-187500.02235174447,-187500.02235174447,-187500.02235174447,-187500.02235174447,1729948350.6425824,1729948348.413602,2000
8474.999186396502,-187500.02235174447,25539.75141522305,-187500.02235174447,-187500.02235174447,-187500.02235174447,-187500.02235174447,-187500.02235174447,1729948350.647576,1729948348.413602,2000
8562.305100238931,-187500.02235174447,25584.43255238921,-187500.02235174447,-187500.02235174447,-187500.02235174447,-187500.02235174447,-187500.02235174447,1729948350.6515305,1729948348.413602,2000
8428.485206185009,-187500.02235174447,25451.350265902314,-187500.02235174447,-187500.02235174447,-187500.02235174447,-187500.02235174447,-187500.02235174447,1729948350.65581,1729948348.413602,2000
8361.318214096811,-187500.02235174447,25417.263855607973,-187500.02235174447,-187500.02235174447,-187500.02235174447,-187500.02235174447,-187500.02235174447,1729948350.659578,1729948348.413602,2000
8469.567712493863,-187500.02235174447,25562.52784282301,-187500.02235174447,-187500.02235174447,-187500.02235174447,-187500.02235174447,-187500.02235174447,1729948350.6628048,1729948348.413602,2000
8545.876568064281,-187500.02235174447,25574.374267384323,-187500.02235174447,-187500.02235174447,-187500.02235174447,-187500.02235174447,-187500.02235174447,1729948350.6665387,1729948348.413602,2000
8424.551299160874,-187500.02235174447,25450.61265833529,-187500.02235174447,-187500.02235174447,-187500.02235174447,-187500.02235174447,-187500.02235174447,1729948350.6709025,1729948348.413602,2000
8350.947004669548,-187500.02235174447,25396.58849198681,-187500.02235174447,-187500.02235174447,-187500.02235174447,-187500.02235174447,-187500.02235174447,1729948350.6756303,1729948348.413602,2000
8456.737811176517,-187500.02235174447,25519.05369985744,-187500.02235174447,-187500.02235174447,-187500.02235174447,-187500.02235174447,-187500.02235174447,1729948350.6802847,1729948348.413602,2000
8537.1146842378,-187500.02235174447,25595.898997294786,-187500.02235174447,-187500.02235174447,-187500.02235174447,-187500.02235174447,-187500.02235174447,1729948350.6836157,1729948348.413602,2000
8438.632898167718,-187500.02235174447,25480.720458116582,-187500.02235174447,-187500.02235174447,-187500.02235174447,-187500.02235174447,-187500.02235174447,1729948350.6879196,1729948348.413602,2000
8376.383289859688,-187500.02235174447,25391.157018084174,-187500.02235174447,-187500.02235174447,-187500.02235174447,-187500.02235174447,-187500.02235174447,1729948350.6909573,1729948348.413602,2000
8435.056619054869,-187500.02235174447,25468.538757388444,-187500.02235174447,-187500.02235174447,-187500.02235174447,-187500.02235174447,-187500.02235174447,1729948350.6947565,1729948348.413602,2000
8510.069073446879,-187500.02235174447,25573.323735394926,-187500.02235174447,-187500.02235174447,-187500.02235174447,-187500.02235174447,-187500.02235174447,1729948350.6986282,1729948348.413602,2000
8463.890369402216,-187500.02235174447,25525.96038889413,-187500.02235174447,-187500.02235174447,-187500.02235174447,-187500.02235174447,-187500.02235174447,1729948350.702768,1729948348.413602,2000
8338.497083007942,-187500.02235174447,25393.07926810733,-187500.02235174447,-187500.02235174447,-187500.02235174447,-187500.02235174447,-187500.02235174447,1729948350.707872,1729948348.413602,2000
8337.133626596169,-187500.02235174447,25407.83141944783,-187500.02235174447,-187500.02235174447,-187500.02235174447,-187500.02235174447,-187500.02235174447,1729948350.712309,1729948348.413602,2000
8499.317884363876,-187500.02235174447,25554.950601452663,-187500.02235174447,-187500.02235174447,-187500.02235174447,-187500.02235174447,-187500.02235174447,1729948350.7149632,1729948348.413602,2000
8526.654067832716,-187500.02235174447,25532.889429675277,-187500.02235174447,-187500.02235174447,-187500.02235174447,-187500.02235174447,-187500.02235174447,1729948350.7187653,1729948348.413602,2000
8435.14602603269,-187500.02235174447,25407.764364214465,-187500.02235174447,-187500.02235174447,-187500.02235174447,-187500.02235174447,-187500.02235174447,1729948350.7232945,1729948348.413602,2000
8407.385159419198,-187500.02235174447,25445.739978044032,-187500.02235174447,-187500.02235174447,-187500.02235174447,-187500.02235174447,-187500.02235174447,1729948350.7268972,1729948348.413602,2000
8516.886355505749,-187500.02235174447,25569.88156674881,-187500.02235174447,-187500.02235174447,-187500.02235174447,-187500.02235174447,-187500.02235174447,1729948350.7309458,1729948348.413602,2000
8517.713370050595,-187500.02235174447,25553.229517129603,-187500.02235174447,-187500.02235174447,-187500.02235174447,-187500.02235174447,-187500.02235174447,1729948350.734714,1729948348.413602,2000
8388.967321988026,-187500.02235174447,25445.06942571037,-187500.02235174447,-187500.02235174447,-187500.02235174447,-187500.02235174447,-187500.02235174447,1729948350.7397108,1729948348.413602,2000
8348.421257546099,-187500.02235174447,25425.98103594554,-187500.02235174447,-187500.02235174447,-187500.02235174447,-187500.02235174447,-187500.02235174447,1729948350.7427487,1729948348.413602,2000
8460.917587389658,-187500.02235174447,25547.999208927064,-187500.02235174447,-187500.02235174447,-187500.02235174447,-187500.02235174447,-187500.02235174447,1729948350.746974,1729948348.413602,2000
8501.620114042773,-187500.02235174447,25569.47923534861,-187500.02235174447,-187500.02235174447,-187500.02235174447,-187500.02235174447,-187500.02235174447,1729948350.750798,1729948348.413602,2000
8345.694344722551,-187500.02235174447,25389.3912302722,-187500.02235174447,-187500.02235174447,-187500.02235174447,-187500.02235174447,-187500.02235174447,1729948350.7549946,1729948348.413602,2000
8348.912995924115,-187500.02235174447,25379.422352245136,-187500.02235174447,-187500.02235174447,-187500.02235174447,-187500.02235174447,-187500.02235174447,1729948350.7587783,1729948348.413602,2000
8513.69005604864,-187500.02235174447,25543.551211780457,-187500.02235174447,-187500.02235174447,-187500.02235174447,-187500.02235174447,-187500.02235174447,1729948350.764382,1729948348.413602,2000
8542.523806395986,-187500.02235174447,25565.07594169092,-187500.02235174447,-187500.02235174447,-187500.02235174447,-187500.02235174447,-187500.02235174447,1729948350.767786,1729948348.413602,2000
8462.90689264618,-187500.02235174447,25473.03145802396,-187500.02235174447,-187500.02235174447,-187500.02235174447,-187500.02235174447,-187500.02235174447,1729948350.7713466,1729948348.413602,2000
8405.172336718124,-187500.02235174447,25422.94119869962,-187500.02235174447,-187500.02235174447,-187500.02235174447,-187500.02235174447,-187500.02235174447,1729948350.7748709,1729948348.413602,2000
8459.554130977886,-187500.02235174447,25514.024557354995,-187500.02235174447,-187500.02235174447,-187500.02235174447,-187500.02235174447,-187500.02235174447,1729948350.778885,1729948348.413602,2000
8494.132279650245,-187500.02235174447,25591.69686933719,-187500.02235174447,-187500.02235174447,-187500.02235174447,-187500.02235174447,-187500.02235174447,1729948350.7830412,1729948348.413602,2000
8430.519214930442,-187500.02235174447,25492.1198477888,-187500.02235174447,-187500.02235174447,-187500.02235174447,-187500.02235174447,-187500.02235174447,1729948350.7873442,1729948348.413602,2000
8386.866258009226,-187500.02235174447,25410.93831192712,-187500.02235174447,-187500.02235174447,-187500.02235174447,-187500.02235174447,-187500.02235174447,1729948350.7912896,1729948348.413602,2000
8420.148005503179,-187500.02235174447,25493.460952456117,-187500.02235174447,-187500.02235174447,-187500.02235174447,-187500.02235174447,-187500.02235174447,1729948350.7960408,1729948348.413602,2000
8529.515091122996,-187500.02235174447,25601.97867178663,-187500.02235174447,-187500.02235174447,-187500.02235174447,-187500.02235174447,-187500.02235174447,1729948350.798993,1729948348.413602,2000
8475.736793963528,-187500.02235174447,25513.555170721436,-187500.02235174447,-187500.02235174447,-187500.02235174447,-187500.02235174447,-187500.02235174447,1729948350.8035307,1729948348.413602,2000
8343.615632488207,-187500.02235174447,25391.000555872983,-187500.02235174447,-187500.02235174447,-187500.02235174447,-187500.02235174447,-187500.02235174447,1729948350.8073487,1729948348.413602,2000
8351.03641164737,-187500.02235174447,25417.53207654144,-187500.02235174447,-187500.02235174447,-187500.02235174447,-187500.02235174447,-187500.02235174447,1729948350.811031,1729948348.413602,2000
8478.173134109156,-187500.02235174447,25562.81841550093,-187500.02235174447,-187500.02235174447,-187500.02235174447,-187500.02235174447,-187500.02235174447,1729948350.8151827,1729948348.413602,2000
8509.130300179757,-187500.02235174447,25546.836918215387,-187500.02235174447,-187500.02235174447,-187500.02235174447,-187500.02235174447,-187500.02235174447,1729948350.8189137,1729948348.413602,2000
8408.011008263948,-187500.02235174447,25407.294977580903,-187500.02235174447,-187500.02235174447,-187500.02235174447,-187500.02235174447,-187500.02235174447,1729948350.8243265,1729948348.413602,2000
8397.840964536783,-187500.02235174447,25414.715756740065,-187500.02235174447,-187500.02235174447,-187500.02235174447,-187500.02235174447,-187500.02235174447,1729948350.827057,1729948348.413602,2000
8536.891166793248,-187500.02235174447,25575.82713077392,-187500.02235174447,-187500.02235174447,-187500.02235174447,-187500.02235174447,-187500.02235174447,1729948350.830043,1729948348.413602,2000
