Fp1,Fp2,C3,C4,P7,P8,O1,O2,time_board,time_marker,marker
-1697.0561977691889,-187500.02235174447,11739.538519327463,-187500.02235174447,-187500.02235174447,-187500.02235174447,-187500.02235174447,-187500.02235174447,1729949944.781458,1729949944.7808526,2000
-1777.8354022306685,-187500.02235174447,11628.092721473304,-187500.02235174447,-187500.02235174447,-187500.02235174447,-187500.02235174447,-187500.02235174447,1729949944.7856476,1729949944.7808526,2000
-1517.281117115154,-187500.02235174447,11759.90095852625,-187500.02235174447,-187500.02235174447,-187500.02235174447,-187500.02235174447,-187500.02235174447,1729949944.7904887,1729949944.7808526,2000
-1413.5690228425292,-187500.02235174447,11886.009500743092,-187500.02235174447,-187500.02235174447,-187500.02235174447,-187500.02235174447,-187500.02235174447,1729949944.7944767,1729949944.7808526,2000
-1684.4274621519403,-187500.02235174447,11800.134098545805,-187500.02235174447,-187500.02235174447,-187500.02235174447,-187500.02235174447,-187500.02235174447,1729949944.7985232,1729949944.7808526,2000
-1781.6799022769812,-187500.02235174447,11650.332707206337,-187500.02235174447,-187500.02235174447,-187500.02235174447,-187500.02235174447,-187500.02235174447,1729949944.801612,1729949944.7808526,2000
-1555.3684896669972,-187500.02235174447,11768.28286269699,-187500.02235174447,-187500.02235174447,-187500.02235174447,-187500.02235174447,-187500.02235174447,1729949944.8055568,1729949944.7808526,2000
-1507.4687012992742,-187500.02235174447,12025.707903588762,-187500.02235174447,-187500.02235174447,-187500.02235174447,-187500.02235174447,-187500.02235174447,1729949944.8094945,1729949944.7808526,2000
-1541.063373215601,-187500.02235174447,11929.371884986387,-187500.02235174447,-187500.02235174447,-187500.02235174447,-187500.02235174447,-187500.02235174447,1729949944.8144803,1729949944.7808526,2000
-1557.4472019013408,-187500.02235174447,11795.86491535484,-187500.02235174447,-187500.02235174447,-187500.02235174447,-187500.02235174447,-187500.02235174447,1729949944.8185675,1729949944.7808526,2000
-1798.2425449183638,-187500.02235174447,11814.416863252743,-187500.02235174447,-187500.02235174447,-187500.02235174447,-187500.02235174447,-187500.02235174447,1729949944.8225565,1729949944.7808526,2000
-1688.0484447537,-187500.02235174447,11978.970405932714,-187500.02235174447,-187500.02235174447,-187500.02235174447,-187500.02235174447,-187500.02235174447,1729949944.8265913,1729949944.7808526,2000
-1381.270752104611,-187500.02235174447,11803.710377658652,-187500.02235174447,-187500.02235174447,-187500.02235174447,-187500.02235174447,-187500.02235174447,1729949944.8296285,1729949944.7808526,2000
-1434.3114416970543,-187500.02235174447,11576.661357481642,-187500.02235174447,-187500.02235174447,-187500.02235174447,-187500.02235174447,-187500.02235174447,1729949944.8335953,1729949944.7808526,2000
-1785.59145755666,-187500.02235174447,11720.427777818177,-187500.02235174447,-187500.02235174447,-187500.02235174447,-187500.02235174447,-187500.02235174447,1729949944.8376057,1729949944.7808526,2000
-1802.914059509523,-187500.02235174447,12009.771109792127,-187500.02235174447,-187500.02235174447,-187500.02235174447,-187500.02235174447,-187500.02235174447,1729949944.8415754,1729949944.7808526,2000
-1567.21491422831,-187500.02235174447,11975.237664608678,-187500.02235174447,-187500.02235174447,-187500.02235174447,-187500.02235174447,-187500.02235174447,1729949944.8465796,1729949944.7808526,2000
-1580.4247952013966,-187500.02235174447,11656.725306120552,-187500.02235174447,-187500.02235174447,-187500.02235174447,-187500.02235174447,-187500.02235174447,1729949944.850564,1729949944.7808526,2000
-1802.757597298336,-187500.02235174447,11582.741031973486,-187500.02235174447,-187500.02235174447,-187500.02235174447,-187500.02235174447,-187500.02235174447,1729949944.8545556,1729949944.7808526,2000
-1732.1037330751103,-187500.02235174447,11937.038533334558,-187500.02235174447,-187500.02235174447,-187500.02235174447,-187500.02235174447,-187500.02235174447,1729949944.8575568,1729949944.7808526,2000
-1514.7553699917044,-187500.02235174447,11982.434926323289,-187500.02235174447,-187500.02235174447,-187500.02235174447,-187500.02235174447,-187500.02235174447,1729949944.8616376,1729949944.7808526,2000
-1594.305228508142,-187500.02235174447,11632.853643042285,-187500.02235174447,-187500.02235174447,-187500.02235174447,-187500.02235174447,-187500.02235174447,1729949944.8656373,1729949944.7808526,2000
-1802.3552658981405,-187500.02235174447,11584.14919187417,-187500.02235174447,-187500.02235174447,-187500.02235174447,-187500.02235174447,-187500.02235174447,1729949944.8696413,1729949944.7808526,2000
-1763.6420445015483,-187500.02235174447,11878.566369839476,-187500.02235174447,-187500.02235174447,-187500.02235174447,-187500.02235174447,-187500.02235174447,1729949944.8735838,1729949944.7808526,2000
-1577.7425858667596,-187500.02235174447,12012.878002271416,-187500.02235174447,-187500.02235174447,-187500.02235174447,-187500.02235174447,-187500.02235174447,1729949944.8786683,1729949944.7808526,2000
-1671.7763747902363,-187500.02235174447,11802.883363113806,-187500.02235174447,-187500.02235174447,-187500.02235174447,-187500.02235174447,-187500.02235174447,1729949944.8826952,1729949944.7808526,2000
-1782.909248222023,-187500.02235174447,11762.04672599396,-187500.02235174447,-187500.02235174447,-187500.02235174447,-187500.02235174447,-187500.02235174447,1729949944.8856976,1729949944.7808526,2000
-1701.3253809601524,-187500.02235174447,12022.802176809571,-187500.02235174447,-187500.02235174447,-187500.02235174447,-187500.02235174447,-187500.02235174447,1729949944.8896143,1729949944.7808526,2000
-1735.5459017212274,-187500.02235174447,12014.397920894377,-187500.02235174447,-187500.02235174447,-187500.02235174447,-187500.02235174447,-187500.02235174447,1729949944.8936567,1729949944.7808526,2000
-1978.7328813949684,-187500.02235174447,11628.763273806962,-187500.02235174447,-187500.02235174447,-187500.02235174447,-187500.02235174447,-187500.02235174447,1729949944.8976867,1729949944.7808526,2000
-1914.583374808237,-187500.02235174447,11458.711201990987,-187500.02235174447,-187500.02235174447,-187500.02235174447,-187500.02235174447,-187500.02235174447,1729949944.90264,1729949944.7808526,2000
-1563.9515595378352,-187500.02235174447,11780.889246569785,-187500.02235174447,-187500.02235174447,-187500.02235174447,-187500.02235174447,-187500.02235174447,1729949944.906665,1729949944.7808526,2000
-1463.9722065892468,-187500.02235174447,12087.82340143006,-187500.02235174447,-187500.02235174447,-187500.02235174447,-187500.02235174447,-187500.02235174447,1729949944.909668,1729949944.7808526,2000
-1568.243094473254,-187500.02235174447,12041.868214829949,-187500.02235174447,-187500.02235174447,-187500.02235174447,-187500.02235174447,-187500.02235174447,1729949944.9129508,1729949944.7808526,2000
-1696.2068314798871,-187500.02235174447,11916.3631697134,-187500.02235174447,-187500.02235174447,-187500.02235174447,-187500.02235174447,-187500.02235174447,1729949944.917744,1729949944.7808526,2000
-1755.885989175557,-187500.02235174447,11940.324239769488,-187500.02235174447,-187500.02235174447,-187500.02235174447,-187500.02235174447,-187500.02235174447,1729949944.9217467,1729949944.7808526,2000
-1686.8414505531134,-187500.02235174447,12005.121946945424,-187500.02235174447,-187500.02235174447,-187500.02235174447,-187500.02235174447,-187500.02235174447,1729949944.925674,1729949944.7808526,2000
-1598.574411699106,-187500.02235174447,11979.70801349974,-187500.02235174447,-187500.02235174447,-187500.02235174447,-187500.02235174447,-187500.02235174447,1729949944.9297776,1729949944.7808526,2000
-1624.4577317783514,-187500.02235174447,11713.543440525942,-187500.02235174447,-187500.02235174447,-187500.02235174447,-187500.02235174447,-187500.02235174447,1729949944.9347093,1729949944.7808526,2000
-1688.0707964981552,-187500.02235174447,11844.234090356123,-187500.02235174447,-187500.02235174447,-187500.02235174447,-187500.02235174447,-187500.02235174447,1729949944.937756,1729949944.7808526,2000
-1541.1751319378773,-187500.02235174447,12256.981403467824,-187500.02235174447,-187500.02235174447,-187500.02235174447,-187500.02235174447,-187500.02235174447,1729949944.9416945,1729949944.7808526,2000
-1565.985568283268,-187500.02235174447,12212.657894212947,-187500.02235174447,-187500.02235174447,-187500.02235174447,-187500.02235174447,-187500.02235174447,1729949944.9457314,1729949944.7808526,2000
-1659.0358804507114,-187500.02235174447,11826.307991302969,-187500.02235174447,-187500.02235174447,-187500.02235174447,-187500.02235174447,-187500.02235174447,1729949944.949836,1729949944.7808526,2000
-1690.1495087324988,-187500.02235174447,11586.5855320198,-187500.02235174447,-187500.02235174447,-187500.02235174447,-187500.02235174447,-187500.02235174447,1729949944.953756,1729949944.7808526,2000
-1617.5510427416616,-187500.02235174447,11878.432259372745,-187500.02235174447,-187500.02235174447,-187500.02235174447,-187500.02235174447,-187500.02235174447,1729949944.9578407,1729949944.7808526,2000
-1629.7550952142592,-187500.02235174447,12085.901151406902,-187500.02235174447,-187500.02235174447,-187500.02235174447,-187500.02235174447,-187500.02235174447,1729949944.9627292,1729949944.7808526,2000
-1680.2253341943426,-187500.02235174447,12298.466241176871,-187500.02235174447,-187500.02235174447,-187500.02235174447,-187500.02235174447,-187500.02235174447,1729949944.9657693,1729949944.7808526,2000
-1782.104585421632,-187500.02235174447,11996.315359630033,-187500.02235174447,-187500.02235174447,-187500.02235174447,-187500.02235174447,-187500.02235174447,1729949944.9687629,1729949944.7808526,2000
-1664.9143892424572,-187500.02235174447,11829.325476804432,-187500.02235174447,-187500.02235174447,-187500.02235174447,-187500.02235174447,-187500.02235174447,1729949944.9737666,1729949944.7808526,2000
-1534.0449254566342,-187500.02235174447,11838.735561220115,-187500.02235174447,-187500.02235174447,-187500.02235174447,-187500.02235174447,-187500.02235174447,1729949944.9777555,1729949944.7808526,2000
-1748.241692571842,-187500.02235174447,11671.030422571948,-187500.02235174447,-187500.02235174447,-187500.02235174447,-187500.02235174447,-187500.02235174447,1729949944.98178,1729949944.7808526,2000
-1853.9877955899,-187500.02235174447,11721.254792363025,-187500.02235174447,-187500.02235174447,-187500.02235174447,-187500.02235174447,-187500.02235174447,1729949944.985995,1729949944.7808526,2000
-1730.0250208407667,-187500.02235174447,11839.361410064868,-187500.02235174447,-187500.02235174447,-187500.02235174447,-187500.02235174447,-187500.02235174447,1729949944.9897714,1729949944.7808526,2000
-1503.8700704419698,-187500.02235174447,12005.256057412154,-187500.02235174447,-187500.02235174447,-187500.02235174447,-187500.02235174447,-187500.02235174447,1729949944.9938505,1729949944.7808526,2000
-1600.1390338109773,-187500.02235174447,11822.307029045469,-187500.02235174447,-187500.02235174447,-187500.02235174447,-187500.02235174447,-187500.02235174447,1729949944.9969056,1729949944.7808526,2000
-1741.625576213071,-187500.02235174447,11748.434513620678,-187500.02235174447,-187500.02235174447,-187500.02235174447,-187500.02235174447,-187500.02235174447,1729949945.0018995,1729949944.7808526,2000
-1815.3416294266735,-187500.02235174447,11772.194417976669,-187500.02235174447,-187500.02235174447,-187500.02235174447,-187500.02235174447,-187500.02235174447,1729949945.0057929,1729949944.7808526,2000
-1587.3538359825416,-187500.02235174447,11996.04713869657,-187500.02235174447,-187500.02235174447,-187500.02235174447,-187500.02235174447,-187500.02235174447,1729949945.010386,1729949944.7808526,2000
-1585.8115656151256,-187500.02235174447,12132.817463018591,-187500.02235174447,-187500.02235174447,-187500.02235174447,-187500.02235174447,-187500.02235174447,1729949945.0138085,1729949944.7808526,2000
-1745.5371314927495,-187500.02235174447,11824.38574127981,-187500.02235174447,-187500.02235174447,-187500.02235174447,-187500.02235174447,-187500.02235174447,1729949945.017877,1729949944.7808526,2000
-1705.3039914731971,-187500.02235174447,11779.726955858108,-187500.02235174447,-187500.02235174447,-187500.02235174447,-187500.02235174447,-187500.02235174447,1729949945.0219204,1729949944.7808526,2000
-1550.1158297200002,-187500.02235174447,11981.496153056163,-187500.02235174447,-187500.02235174447,-187500.02235174447,-187500.02235174447,-187500.02235174447,1729949945.024963,1729949944.7808526,2000
-1589.119623794511,-187500.02235174447,11950.002545118636,-187500.02235174447,-187500.02235174447,-187500.02235174447,-187500.02235174447,-187500.02235174447,1729949945.029908,1729949944.7808526,2000
-1777.2766086192858,-187500.02235174447,11781.693909370171,-187500.02235174447,-187500.02235174447,-187500.02235174447,-187500.02235174447,-187500.02235174447,1729949945.033862,1729949944.7808526,2000
-1756.8024106982243,-187500.02235174447,11851.364296837366,-187500.02235174447,-187500.02235174447,-187500.02235174447,-187500.02235174447,-187500.02235174447,1729949945.0379186,1729949944.7808526,2000
-1570.858248574525,-187500.02235174447,12043.991630553202,-187500.02235174447,-187500.02235174447,-187500.02235174447,-187500.02235174447,-187500.02235174447,1729949945.0419052,1729949944.7808526,2000
-1595.065187819623,-187500.02235174447,11988.1793246483,-187500.02235174447,-187500.02235174447,-187500.02235174447,-187500.02235174447,-187500.02235174447,1729949945.0448868,1729949944.7808526,2000
-1766.1454398805429,-187500.02235174447,11796.937799088691,-187500.02235174447,-187500.02235174447,-187500.02235174447,-187500.02235174447,-187500.02235174447,1729949945.0509613,1729949944.7808526,2000
-1750.0298321282664,-187500.02235174447,11841.1942531102,-187500.02235174447,-187500.02235174447,-187500.02235174447,-187500.02235174447,-187500.02235174447,1729949945.05398,1729949944.7808526,2000
-1543.54441685014,-187500.02235174447,12027.42898791182,-187500.02235174447,-187500.02235174447,-187500.02235174447,-187500.02235174447,-187500.02235174447,1729949945.0569017,1729949944.7808526,2000
-1564.3315391935753,-187500.02235174447,11992.1802869058,-187500.02235174447,-187500.02235174447,-187500.02235174447,-187500.02235174447,-187500.02235174447,1729949945.0618825,1729949944.7808526,2000
-1761.4515735449284,-187500.02235174447,11841.86480544386,-187500.02235174447,-187500.02235174447,-187500.02235174447,-187500.02235174447,-187500.02235174447,1729949945.065916,1729949944.7808526,2000
-1817.8673765501237,-187500.02235174447,11788.935874573694,-187500.02235174447,-187500.02235174447,-187500.02235174447,-187500.02235174447,-187500.02235174447,1729949945.0699482,1729949944.7808526,2000
-1679.8677062830575,-187500.02235174447,11930.489472209154,-187500.02235174447,-187500.02235174447,-187500.02235174447,-187500.02235174447,-187500.02235174447,1729949945.072914,1729949944.7808526,2000
-1517.638745026439,-187500.02235174447,12025.52908963312,-187500.02235174447,-187500.02235174447,-187500.02235174447,-187500.02235174447,-187500.02235174447,1729949945.0769608,1729949944.7808526,2000
-1705.1475292620098,-187500.02235174447,11791.66278739724,-187500.02235174447,-187500.02235174447,-187500.02235174447,-187500.02235174447,-187500.02235174447,1729949945.0809453,1729949944.7808526,2000
-1759.8422479441465,-187500.02235174447,11784.644339638277,-187500.02235174447,-187500.02235174447,-187500.02235174447,-187500.02235174447,-187500.02235174447,1729949945.0849683,1729949944.7808526,2000
-1606.0622460916336,-187500.02235174447,11979.663310010828,-187500.02235174447,-187500.02235174447,-187500.02235174447,-187500.02235174447,-187500.02235174447,1729949945.090006,1729949944.7808526,2000
-1603.7153129238263,-187500.02235174447,12021.639886097895,-187500.02235174447,-187500.02235174447,-187500.02235174447,-187500.02235174447,-187500.02235174447,1729949945.0939727,1729949944.7808526,2000
-1750.9239019064787,-187500.02235174447,11829.593697737895,-187500.02235174447,-187500.02235174447,-187500.02235174447,-187500.02235174447,-187500.02235174447,1729949945.0979738,1729949944.7808526,2000
-1921.423008611561,-187500.02235174447,11650.466817673068,-187500.02235174447,-187500.02235174447,-187500.02235174447,-187500.02235174447,-187500.02235174447,1729949945.101166,1729949944.7808526,2000
-1695.759796590781,-187500.02235174447,11813.031055096517,-187500.02235174447,-187500.02235174447,-187500.02235174447,-187500.02235174447,-187500.02235174447,1729949945.1050725,1729949944.7808526,2000
-1547.0089372407124,-187500.02235174447,12078.323910036554,-187500.02235174447,-187500.02235174447,-187500.02235174447,-187500.02235174447,-187500.02235174447,1729949945.1092005,1729949944.7808526,2000
-1611.761940927737,-187500.02235174447,11983.440754823776,-187500.02235174447,-187500.02235174447,-187500.02235174447,-187500.02235174447,-187500.02235174447,1729949945.1130977,1729949944.7808526,2000
-1710.8695758425686,-187500.02235174447,11814.707435930664,-187500.02235174447,-187500.02235174447,-187500.02235174447,-187500.02235174447,-187500.02235174447,1729949945.1181755,1729949944.7808526,2000
-1697.9055640584904,-187500.02235174447,11922.152271527324,-187500.02235174447,-187500.02235174447,-187500.02235174447,-187500.02235174447,-187500.02235174447,1729949945.1220095,1729949944.7808526,2000
-1596.629809931494,-187500.02235174447,12074.121782078955,-187500.02235174447,-187500.02235174447,-187500.02235174447,-187500.02235174447,-187500.02235174447,1729949945.1261,1729949944.7808526,2000
-1612.924231639413,-187500.02235174447,12001.94799923277,-187500.02235174447,-187500.02235174447,-187500.02235174447,-187500.02235174447,-187500.02235174447,1729949945.1290152,1729949944.7808526,2000
-1730.2261865408643,-187500.02235174447,11801.162278790747,-187500.02235174447,-187500.02235174447,-187500.02235174447,-187500.02235174447,-187500.02235174447,1729949945.1331162,1729949944.7808526,2000
-1719.787921880236,-187500.02235174447,11831.426540783232,-187500.02235174447,-187500.02235174447,-187500.02235174447,-187500.02235174447,-187500.02235174447,1729949945.1371484,1729949944.7808526,2000
-1597.5238797097063,-187500.02235174447,12020.656409341862,-187500.02235174447,-187500.02235174447,-187500.02235174447,-187500.02235174447,-187500.02235174447,1729949945.141076,1729949944.7808526,2000
-1581.989417313268,-187500.02235174447,11990.61566479393,-187500.02235174447,-187500.02235174447,-187500.02235174447,-187500.02235174447,-187500.02235174447,1729949945.145142,1729949944.7808526,2000
-1696.787976835725,-187500.02235174447,11809.611238194851,-187500.02235174447,-187500.02235174447,-187500.02235174447,-187500.02235174447,-187500.02235174447,1729949945.1512632,1729949944.7808526,2000
-1718.9832590798449,-187500.02235174447,11819.58011622192,-187500.02235174447,-187500.02235174447,-187500.02235174447,-187500.02235174447,-187500.02235174447,1729949945.1542823,1729949944.7808526,2000
-1634.7842377167033,-187500.02235174447,11997.500002086164,-187500.02235174447,-187500.02235174447,-187500.02235174447,-187500.02235174447,-187500.02235174447,1729949945.1583078,1729949944.7808526,2000
-1602.2624495342316,-187500.02235174447,11978.299853599055,-187500.02235174447,-187500.02235174447,-187500.02235174447,-187500.02235174447,-187500.02235174447,1729949945.1612527,1729949944.7808526,2000
-1742.5419977357385,-187500.02235174447,11820.898869144785,-187500.02235174447,-187500.02235174447,-187500.02235174447,-187500.02235174447,-187500.02235174447,1729949945.165095,1729949944.7808526,2000
-1778.3941958420512,-187500.02235174447,11767.522903385508,-187500.02235174447,-187500.02235174447,-187500.02235174447,-187500.02235174447,-187500.02235174447,1729949945.1692567,1729949944.7808526,2000
-1699.559593148183,-187500.02235174447,11908.428300431766,-187500.02235174447,-187500.02235174447,-187500.02235174447,-187500.02235174447,-187500.02235174447,1729949945.1743195,1729949944.7808526,2000
-1580.6483126459495,-187500.02235174447,12031.18408098031,-187500.02235174447,-187500.02235174447,-187500.02235174447,-187500.02235174447,-187500.02235174447,1729949945.1783142,1729949944.7808526,2000
-1635.4547900503624,-187500.02235174447,11954.294080054056,-187500.02235174447,-187500.02235174447,-187500.02235174447,-187500.02235174447,-187500.02235174447,1729949945.1811912,1729949944.7808526,2000
-1772.649797517037,-187500.02235174447,11854.717058505665,-187500.02235174447,-187500.02235174447,-187500.02235174447,-187500.02235174447,-187500.02235174447,1729949945.1852944,1729949944.7808526,2000
-1702.95705830539,-187500.02235174447,11916.318466224488,-187500.02235174447,-187500.02235174447,-187500.02235174447,-187500.02235174447,-187500.02235174447,1729949945.189134,1729949944.7808526,2000
-1562.632806614972,-187500.02235174447,12010.195792936778,-187500.02235174447,-187500.02235174447,-187500.02235174447,-187500.02235174447,-187500.02235174447,1729949945.1931877,1729949944.7808526,2000
-1612.7230659393151,-187500.02235174447,11909.478832421164,-187500.02235174447,-187500.02235174447,-187500.02235174447,-187500.02235174447,-187500.02235174447,1729949945.197255,1729949944.7808526,2000
-1776.851925474635,-187500.02235174447,11775.882455811794,-187500.02235174447,-187500.02235174447,-187500.02235174447,-187500.02235174447,-187500.02235174447,1729949945.20116,1729949944.7808526,2000
-1719.3185352466746,-187500.02235174447,11901.320445694975,-187500.02235174447,-187500.02235174447,-187500.02235174447,-187500.02235174447,-187500.02235174447,1729949945.2061815,1729949944.7808526,2000
-1602.7094844233377,-187500.02235174447,12089.67859621985,-187500.02235174447,-187500.02235174447,-187500.02235174447,-187500.02235174447,-187500.02235174447,1729949945.2092106,1729949944.7808526,2000
-1632.8172842046365,-187500.02235174447,11960.038478379069,-187500.02235174447,-187500.02235174447,-187500.02235174447,-187500.02235174447,-187500.02235174447,1729949945.213194,1729949944.7808526,2000
-1742.2961285467302,-187500.02235174447,11753.731877056583,-187500.02235174447,-187500.02235174447,-187500.02235174447,-187500.02235174447,-187500.02235174447,1729949945.2171855,1729949944.7808526,2000
-1731.6343464415488,-187500.02235174447,11851.76662823756,-187500.02235174447,-187500.02235174447,-187500.02235174447,-187500.02235174447,-187500.02235174447,1729949945.2211983,1729949944.7808526,2000
-1633.2866708381978,-187500.02235174447,11981.406746078344,-187500.02235174447,-187500.02235174447,-187500.02235174447,-187500.02235174447,-187500.02235174447,1729949945.225404,1729949944.7808526,2000
-1627.5199207687283,-187500.02235174447,12015.783729050603,-187500.02235174447,-187500.02235174447,-187500.02235174447,-187500.02235174447,-187500.02235174447,1729949945.2292612,1729949944.7808526,2000
-1704.43227343944,-187500.02235174447,11872.39728836981,-187500.02235174447,-187500.02235174447,-187500.02235174447,-187500.02235174447,-187500.02235174447,1729949945.23423,1729949944.7808526,2000
-1669.0271102222337,-187500.02235174447,11844.189386867212,-187500.02235174447,-187500.02235174447,-187500.02235174447,-187500.02235174447,-187500.02235174447,1729949945.2371986,1729949944.7808526,2000
-1566.611417128017,-187500.02235174447,12023.137452976402,-187500.02235174447,-187500.02235174447,-187500.02235174447,-187500.02235174447,-187500.02235174447,1729949945.2412076,1729949944.7808526,2000
-1587.7561673827372,-187500.02235174447,12025.484386144208,-187500.02235174447,-187500.02235174447,-187500.02235174447,-187500.02235174447,-187500.02235174447,1729949945.2451828,1729949944.7808526,2000
-1729.7791516517582,-187500.02235174447,11844.502311289589,-187500.02235174447,-187500.02235174447,-187500.02235174447,-187500.02235174447,-187500.02235174447,1729949945.2492056,1729949944.7808526,2000
-1765.810163713713,-187500.02235174447,11747.696906053652,-187500.02235174447,-187500.02235174447,-187500.02235174447,-187500.02235174447,-187500.02235174447,1729949945.2532449,1729949944.7808526,2000
-1650.6539762799712,-187500.02235174447,11934.512786211108,-187500.02235174447,-187500.02235174447,-187500.02235174447,-187500.02235174447,-187500.02235174447,1729949945.257238,1729949944.7808526,2000
-1540.3257656485755,-187500.02235174447,12072.087773333524,-187500.02235174447,-187500.02235174447,-187500.02235174447,-187500.02235174447,-187500.02235174447,1729949945.262243,1729949944.7808526,2000
-1632.2584905932536,-187500.02235174447,11882.097945463413,-187500.02235174447,-187500.02235174447,-187500.02235174447,-187500.02235174447,-187500.02235174447,1729949945.265267,1729949944.7808526,2000
-1716.4575119563954,-187500.02235174447,11805.520868959533,-187500.02235174447,-187500.02235174447,-187500.02235174447,-187500.02235174447,-187500.02235174447,1729949945.2683563,1729949944.7808526,2000
-1792.1181669376097,-187500.02235174447,11881.270930918568,-187500.02235174447,-187500.02235174447,-187500.02235174447,-187500.02235174447,-187500.02235174447,1729949945.2732587,1729949944.7808526,2000
-1680.4935551278063,-187500.02235174447,12010.24049642569,-187500.02235174447,-187500.02235174447,-187500.02235174447,-187500.02235174447,-187500.02235174447,1729949945.2772417,1729949944.7808526,2000
-1641.2662436087423,-187500.02235174447,11966.721649971209,-187500.02235174447,-187500.02235174447,-187500.02235174447,-187500.02235174447,-187500.02235174447,1729949945.2812536,1729949944.7808526,2000
-1698.2184884808646,-187500.02235174447,11868.44102960122,-187500.02235174447,-187500.02235174447,-187500.02235174447,-187500.02235174447,-187500.02235174447,1729949945.28626,1729949944.7808526,2000
-1634.8289412056138,-187500.02235174447,11979.260978610631,-187500.02235174447,-187500.02235174447,-187500.02235174447,-187500.02235174447,-187500.02235174447,1729949945.2892697,1729949944.7808526,2000
-1517.8175589820814,-187500.02235174447,12090.349148553509,-187500.02235174447,-187500.02235174447,-187500.02235174447,-187500.02235174447,-187500.02235174447,1729949945.2922688,1729949944.7808526,2000
-1622.7366474552928,-187500.02235174447,11933.439902477254,-187500.02235174447,-187500.02235174447,-187500.02235174447,-187500.02235174447,-187500.02235174447,1729949945.2972634,1729949944.7808526,2000
-1803.495204865361,-187500.02235174447,11793.76385137604,-187500.02235174447,-187500.02235174447,-187500.02235174447,-187500.02235174447,-187500.02235174447,1729949945.301278,1729949944.7808526,2000
-1732.4613609863952,-187500.02235174447,11872.933730236737,-187500.02235174447,-187500.02235174447,-187500.02235174447,-187500.02235174447,-187500.02235174447,1729949945.3052614,1729949944.7808526,2000
-1577.1390887664663,-187500.02235174447,12048.394924210896,-187500.02235174447,-187500.02235174447,-187500.02235174447,-187500.02235174447,-187500.02235174447,1729949945.3092897,1729949944.7808526,2000
-1639.8580837080578,-187500.02235174447,11980.22210362221,-187500.02235174447,-187500.02235174447,-187500.02235174447,-187500.02235174447,-187500.02235174447,1729949945.313288,1729949944.7808526,2000
-1784.943256967456,-187500.02235174447,11821.748235434085,-187500.02235174447,-187500.02235174447,-187500.02235174447,-187500.02235174447,-187500.02235174447,1729949945.3173225,1729949944.7808526,2000
-1680.2029824498873,-187500.02235174447,11887.752936810606,-187500.02235174447,-187500.02235174447,-187500.02235174447,-187500.02235174447,-187500.02235174447,1729949945.320298,1729949944.7808526,2000
-1523.3607916069975,-187500.02235174447,12049.91484283386,-187500.02235174447,-187500.02235174447,-187500.02235174447,-187500.02235174447,-187500.02235174447,1729949945.3243546,1729949944.7808526,2000
-1568.019577028701,-187500.02235174447,11989.207504893244,-187500.02235174447,-187500.02235174447,-187500.02235174447,-187500.02235174447,-187500.02235174447,1729949945.329352,1729949944.7808526,2000
-1747.7052507049143,-187500.02235174447,11837.349753063889,-187500.02235174447,-187500.02235174447,-187500.02235174447,-187500.02235174447,-187500.02235174447,1729949945.3333857,1729949944.7808526,2000
-1773.8344399731684,-187500.02235174447,11857.3992678403,-187500.02235174447,-187500.02235174447,-187500.02235174447,-187500.02235174447,-187500.02235174447,1729949945.3373327,1729949944.7808526,2000
-1586.1915452708656,-187500.02235174447,12024.299743688076,-187500.02235174447,-187500.02235174447,-187500.02235174447,-187500.02235174447,-187500.02235174447,1729949945.3413544,1729949944.7808526,2000
-1505.479396042752,-187500.02235174447,11998.058795697549,-187500.02235174447,-187500.02235174447,-187500.02235174447,-187500.02235174447,-187500.02235174447,1729949945.3453662,1729949944.7808526,2000
-1757.852942687624,-187500.02235174447,11804.559743947952,-187500.02235174447,-187500.02235174447,-187500.02235174447,-187500.02235174447,-187500.02235174447,1729949945.348384,1729949944.7808526,2000
-1828.9985452888664,-187500.02235174447,11786.767755361529,-187500.02235174447,-187500.02235174447,-187500.02235174447,-187500.02235174447,-187500.02235174447,1729949945.3523524,1729949944.7808526,2000
-1598.485004721285,-187500.02235174447,12020.678761086318,-187500.02235174447,-187500.02235174447,-187500.02235174447,-187500.02235174447,-187500.02235174447,1729949945.3573675,1729949944.7808526,2000
-1560.4199839138969,-187500.02235174447,12081.721375193762,-187500.02235174447,-187500.02235174447,-187500.02235174447,-187500.02235174447,-187500.02235174447,1729949945.3613946,1729949944.7808526,2000
-1723.431256226451,-187500.02235174447,11879.281625662044,-187500.02235174447,-187500.02235174447,-187500.02235174447,-187500.02235174447,-187500.02235174447,1729949945.365451,1729949944.7808526,2000
-1791.7381872818694,-187500.02235174447,11766.76294407403,-187500.02235174447,-187500.02235174447,-187500.02235174447,-187500.02235174447,-187500.02235174447,1729949945.3694165,1729949944.7808526,2000
-1620.7696939432258,-187500.02235174447,11987.70993801474,-187500.02235174447,-187500.02235174447,-187500.02235174447,-187500.02235174447,-187500.02235174447,1729949945.3724017,1729949944.7808526,2000
-1528.9040242319138,-187500.02235174447,12103.268456848677,-187500.02235174447,-187500.02235174447,-187500.02235174447,-187500.02235174447,-187500.02235174447,1729949945.3764043,1729949944.7808526,2000
-1706.6450961405155,-187500.02235174447,11898.63823636034,-187500.02235174447,-187500.02235174447,-187500.02235174447,-187500.02235174447,-187500.02235174447,1729949945.380519,1729949944.7808526,2000
-1804.053998476744,-187500.02235174447,11778.609368635342,-187500.02235174447,-187500.02235174447,-187500.02235174447,-187500.02235174447,-187500.02235174447,1729949945.3846543,1729949944.7808526,2000
-1678.3254359156415,-187500.02235174447,11953.064734109012,-187500.02235174447,-187500.02235174447,-187500.02235174447,-187500.02235174447,-187500.02235174447,1729949945.389491,1729949944.7808526,2000
-1544.1926174393436,-187500.02235174447,12144.2168526908,-187500.02235174447,-187500.02235174447,-187500.02235174447,-187500.02235174447,-187500.02235174447,1729949945.3937223,1729949944.7808526,2000
-1627.4305137909073,-187500.02235174447,12000.025749209612,-187500.02235174447,-187500.02235174447,-187500.02235174447,-187500.02235174447,-187500.02235174447,1729949945.3974936,1729949944.7808526,2000
-1746.0065181263112,-187500.02235174447,11775.591883133877,-187500.02235174447,-187500.02235174447,-187500.02235174447,-187500.02235174447,-187500.02235174447,1729949945.4005723,1729949944.7808526,2000
-1704.566383906172,-187500.02235174447,11864.283605132534,-187500.02235174447,-187500.02235174447,-187500.02235174447,-187500.02235174447,-187500.02235174447,1729949945.4045055,1729949944.7808526,2000
-1563.5492281376396,-187500.02235174447,12062.253005773187,-187500.02235174447,-187500.02235174447,-187500.02235174447,-187500.02235174447,-187500.02235174447,1729949945.4085352,1729949944.7808526,2000
-1591.6900744068712,-187500.02235174447,12008.3853016359,-187500.02235174447,-187500.02235174447,-187500.02235174447,-187500.02235174447,-187500.02235174447,1729949945.4135723,1729949944.7808526,2000
-1761.8986084340345,-187500.02235174447,11850.470227059152,-187500.02235174447,-187500.02235174447,-187500.02235174447,-187500.02235174447,-187500.02235174447,1729949945.417617,1729949944.7808526,2000
-1693.0775872561442,-187500.02235174447,11910.998751044126,-187500.02235174447,-187500.02235174447,-187500.02235174447,-187500.02235174447,-187500.02235174447,1729949945.421752,1729949944.7808526,2000
-1551.9039692764247,-187500.02235174447,12062.990613340213,-187500.02235174447,-187500.02235174447,-187500.02235174447,-187500.02235174447,-187500.02235174447,1729949945.4247224,1729949944.7808526,2000
-1586.4150627154188,-187500.02235174447,11973.360118074432,-187500.02235174447,-187500.02235174447,-187500.02235174447,-187500.02235174447,-187500.02235174447,1729949945.4285932,1729949944.7808526,2000
-1689.5460116322056,-187500.02235174447,11821.636476711808,-187500.02235174447,-187500.02235174447,-187500.02235174447,-187500.02235174447,-187500.02235174447,1729949945.4326675,1729949944.7808526,2000
-1755.9977478978335,-187500.02235174447,11848.078590402436,-187500.02235174447,-187500.02235174447,-187500.02235174447,-187500.02235174447,-187500.02235174447,1729949945.436619,1729949944.7808526,2000
-1632.6831737379043,-187500.02235174447,12042.963450308258,-187500.02235174447,-187500.02235174447,-187500.02235174447,-187500.02235174447,-187500.02235174447,1729949945.4407225,1729949944.7808526,2000
-1592.181812784888,-187500.02235174447,12056.262738259164,-187500.02235174447,-187500.02235174447,-187500.02235174447,-187500.02235174447,-187500.02235174447,1729949945.445597,1729949944.7808526,2000
-1741.849093657624,-187500.02235174447,11851.654869515283,-187500.02235174447,-187500.02235174447,-187500.02235174447,-187500.02235174447,-187500.02235174447,1729949945.4497373,1729949944.7808526,2000
-1731.075552830166,-187500.02235174447,11800.961113090649,-187500.02235174447,-187500.02235174447,-187500.02235174447,-187500.02235174447,-187500.02235174447,1729949945.4525836,1729949944.7808526,2000
-1658.5441420726947,-187500.02235174447,11955.568129488009,-187500.02235174447,-187500.02235174447,-187500.02235174447,-187500.02235174447,-187500.02235174447,1729949945.4565797,1729949944.7808526,2000
-1656.9124647274573,-187500.02235174447,12005.412519623342,-187500.02235174447,-187500.02235174447,-187500.02235174447,-187500.02235174447,-187500.02235174447,1729949945.460569,1729949944.7808526,2000
-1672.312816657164,-187500.02235174447,11882.366166396878,-187500.02235174447,-187500.02235174447,-187500.02235174447,-187500.02235174447,-187500.02235174447,1729949945.4645672,1729949944.7808526,2000
-1692.8764215560464,-187500.02235174447,11840.858976943373,-187500.02235174447,-187500.02235174447,-187500.02235174447,-187500.02235174447,-187500.02235174447,1729949945.468562,1729949944.7808526,2000
-1642.7638104872478,-187500.02235174447,11949.80137941854,-187500.02235174447,-187500.02235174447,-187500.02235174447,-187500.02235174447,-187500.02235174447,1729949945.4736905,1729949944.7808526,2000
-1576.4014811994412,-187500.02235174447,12049.28899398911,-187500.02235174447,-187500.02235174447,-187500.02235174447,-187500.02235174447,-187500.02235174447,1729949945.477574,1729949944.7808526,2000
-1635.566548772639,-187500.02235174447,11963.502998769642,-187500.02235174447,-187500.02235174447,-187500.02235174447,-187500.02235174447,-187500.02235174447,1729949945.480668,1729949944.7808526,2000
-1761.3398148226518,-187500.02235174447,11847.050410157492,-187500.02235174447,-187500.02235174447,-187500.02235174447,-187500.02235174447,-187500.02235174447,1729949945.4847517,1729949944.7808526,2000
-1638.9640139298456,-187500.02235174447,11955.970460888204,-187500.02235174447,-187500.02235174447,-187500.02235174447,-187500.02235174447,-187500.02235174447,1729949945.4886053,1729949944.7808526,2000
-1536.6153760689947,-187500.02235174447,12074.76998266816,-187500.02235174447,-187500.02235174447,-187500.02235174447,-187500.02235174447,-187500.02235174447,1729949945.4926672,1729949944.7808526,2000
-1663.5732845751388,-187500.02235174447,11975.37177507541,-187500.02235174447,-187500.02235174447,-187500.02235174447,-187500.02235174447,-187500.02235174447,1729949945.4966967,1729949944.7808526,2000
-1772.649797517037,-187500.02235174447,11852.705401504683,-187500.02235174447,-187500.02235174447,-187500.02235174447,-187500.02235174447,-187500.02235174447,1729949945.5015996,1729949944.7808526,2000
-1727.231052783853,-187500.02235174447,11925.952068084724,-187500.02235174447,-187500.02235174447,-187500.02235174447,-187500.02235174447,-187500.02235174447,1729949945.5079277,1729949944.7808526,2000
-1549.087649475056,-187500.02235174447,12139.813559033104,-187500.02235174447,-187500.02235174447,-187500.02235174447,-187500.02235174447,-187500.02235174447,1729949945.5086188,1729949944.7808526,2000
-1596.4509959758516,-187500.02235174447,11971.124943628902,-187500.02235174447,-187500.02235174447,-187500.02235174447,-187500.02235174447,-187500.02235174447,1729949945.5161216,1729949944.7808526,2000
-1798.913097252023,-187500.02235174447,11744.634717063274,-187500.02235174447,-187500.02235174447,-187500.02235174447,-187500.02235174447,-187500.02235174447,1729949945.5166285,1729949944.7808526,2000
-1736.529378477261,-187500.02235174447,11820.116558088846,-187500.02235174447,-187500.02235174447,-187500.02235174447,-187500.02235174447,-187500.02235174447,1729949945.5240967,1729949944.7808526,2000
-1536.5483208356288,-187500.02235174447,12050.786560867617,-187500.02235174447,-187500.02235174447,-187500.02235174447,-187500.02235174447,-187500.02235174447,1729949945.5246348,1729949944.7808526,2000
-1582.2129347578211,-187500.02235174447,12052.641755657409,-187500.02235174447,-187500.02235174447,-187500.02235174447,-187500.02235174447,-187500.02235174447,1729949945.530481,1729949944.7808526,2000
-1746.3417942931408,-187500.02235174447,11872.933730236737,-187500.02235174447,-187500.02235174447,-187500.02235174447,-187500.02235174447,-187500.02235174447,1729949945.533671,1729949944.7808526,2000
-1758.076460132177,-187500.02235174447,11873.44782035921,-187500.02235174447,-187500.02235174447,-187500.02235174447,-187500.02235174447,-187500.02235174447,1729949945.536729,1729949944.7808526,2000
-1561.2917019476536,-187500.02235174447,12042.67287763034,-187500.02235174447,-187500.02235174447,-187500.02235174447,-187500.02235174447,-187500.02235174447,1729949945.5407426,1729949944.7808526,2000
-1573.8533823315363,-187500.02235174447,12003.691435300285,-187500.02235174447,-187500.02235174447,-187500.02235174447,-187500.02235174447,-187500.02235174447,1729949945.5446763,1729949944.7808526,2000
-1742.0726111021772,-187500.02235174447,11828.274944815032,-187500.02235174447,-187500.02235174447,-187500.02235174447,-187500.02235174447,-187500.02235174447,1729949945.5487044,1729949944.7808526,2000
-1765.6089980136155,-187500.02235174447,11837.01447689706,-187500.02235174447,-187500.02235174447,-187500.02235174447,-187500.02235174447,-187500.02235174447,1729949945.5527773,1729949944.7808526,2000
-1668.602427077583,-187500.02235174447,12004.786670778594,-187500.02235174447,-187500.02235174447,-187500.02235174447,-187500.02235174447,-187500.02235174447,1729949945.5577762,1729949944.7808526,2000
-1596.473347720307,-187500.02235174447,12051.702982390285,-187500.02235174447,-187500.02235174447,-187500.02235174447,-187500.02235174447,-187500.02235174447,1729949945.5607328,1729949944.7808526,2000
-1696.6985698579035,-187500.02235174447,11908.428300431766,-187500.02235174447,-187500.02235174447,-187500.02235174447,-187500.02235174447,-187500.02235174447,1729949945.5637774,1729949944.7808526,2000
-1765.6760532469814,-187500.02235174447,11832.186500094713,-187500.02235174447,-187500.02235174447,-187500.02235174447,-187500.02235174447,-187500.02235174447,1729949945.5687766,1729949944.7808526,2000
-1632.8396359490916,-187500.02235174447,12014.643790083384,-187500.02235174447,-187500.02235174447,-187500.02235174447,-187500.02235174447,-187500.02235174447,1729949945.5727172,1729949944.7808526,2000
-1524.9477654633245,-187500.02235174447,12064.711697663271,-187500.02235174447,-187500.02235174447,-187500.02235174447,-187500.02235174447,-187500.02235174447,1729949945.5767505,1729949944.7808526,2000
-1648.9105402124574,-187500.02235174447,11877.180561683246,-187500.02235174447,-187500.02235174447,-187500.02235174447,-187500.02235174447,-187500.02235174447,1729949945.5807598,1729949944.7808526,2000
-1798.488414107372,-187500.02235174447,11824.3410377909,-187500.02235174447,-187500.02235174447,-187500.02235174447,-187500.02235174447,-187500.02235174447,1729949945.584796,1729949944.7808526,2000
-1655.2584356377645,-187500.02235174447,11948.192053817756,-187500.02235174447,-187500.02235174447,-187500.02235174447,-187500.02235174447,-187500.02235174447,1729949945.590706,1729949944.7808526,2000
-1519.4045328384082,-187500.02235174447,12108.58817202904,-187500.02235174447,-187500.02235174447,-187500.02235174447,-187500.02235174447,-187500.02235174447,1729949945.592574,1729949944.7808526,2000
-1641.4450575643848,-187500.02235174447,11997.61176080844,-187500.02235174447,-187500.02235174447,-187500.02235174447,-187500.02235174447,-187500.02235174447,1729949945.5998614,1729949944.7808526,2000
-1771.4204515719953,-187500.02235174447,11843.317668833455,-187500.02235174447,-187500.02235174447,-187500.02235174447,-187500.02235174447,-187500.02235174447,1729949945.6007657,1729949944.7808526,2000
-1684.8744970410464,-187500.02235174447,11946.627431705883,-187500.02235174447,-187500.02235174447,-187500.02235174447,-187500.02235174447,-187500.02235174447,1729949945.607344,1729949944.7808526,2000
-1554.2732541886871,-187500.02235174447,12091.422032287364,-187500.02235174447,-187500.02235174447,-187500.02235174447,-187500.02235174447,-187500.02235174447,1729949945.608758,1729949944.7808526,2000
-1632.6608219934492,-187500.02235174447,12002.104461443956,-187500.02235174447,-187500.02235174447,-187500.02235174447,-187500.02235174447,-187500.02235174447,1729949945.612811,1729949944.7808526,2000
-1794.5098035943274,-187500.02235174447,11810.304142272968,-187500.02235174447,-187500.02235174447,-187500.02235174447,-187500.02235174447,-187500.02235174447,1729949945.616842,1729949944.7808526,2000
-1765.1172596355989,-187500.02235174447,11823.983409879616,-187500.02235174447,-187500.02235174447,-187500.02235174447,-187500.02235174447,-187500.02235174447,1729949945.620072,1729949944.7808526,2000
-1611.98545837229,-187500.02235174447,12019.739987819194,-187500.02235174447,-187500.02235174447,-187500.02235174447,-187500.02235174447,-187500.02235174447,1729949945.623799,1729949944.7808526,2000
-1612.8124729171363,-187500.02235174447,12009.346426647477,-187500.02235174447,-187500.02235174447,-187500.02235174447,-187500.02235174447,-187500.02235174447,1729949945.6288614,1729949944.7808526,2000
-1727.231052783853,-187500.02235174447,11870.96677672467,-187500.02235174447,-187500.02235174447,-187500.02235174447,-187500.02235174447,-187500.02235174447,1729949945.6328688,1729949944.7808526,2000
-1697.0561977691889,-187500.02235174447,11877.806410527994,-187500.02235174447,-187500.02235174447,-187500.02235174447,-187500.02235174447,-187500.02235174447,1729949945.63683,1729949944.7808526,2000
-1572.244056730754,-187500.02235174447,12041.085903774012,-187500.02235174447,-187500.02235174447,-187500.02235174447,-187500.02235174447,-187500.02235174447,1729949945.6408672,1729949944.7808526,2000
-1547.567730852095,-187500.02235174447,12056.28509000362,-187500.02235174447,-187500.02235174447,-187500.02235174447,-187500.02235174447,-187500.02235174447,1729949945.6448162,1729949944.7808526,2000
-1711.6518868985042,-187500.02235174447,11877.940520994724,-187500.02235174447,-187500.02235174447,-187500.02235174447,-187500.02235174447,-187500.02235174447,1729949945.647848,1729949944.7808526,2000
-1785.3902918565625,-187500.02235174447,11831.761816950062,-187500.02235174447,-187500.02235174447,-187500.02235174447,-187500.02235174447,-187500.02235174447,1729949945.6518323,1729949944.7808526,2000
-1637.8464267070804,-187500.02235174447,11980.93735944478,-187500.02235174447,-187500.02235174447,-187500.02235174447,-187500.02235174447,-187500.02235174447,1729949945.656864,1729949944.7808526,2000
-1515.738846747738,-187500.02235174447,12068.466790731763,-187500.02235174447,-187500.02235174447,-187500.02235174447,-187500.02235174447,-187500.02235174447,1729949945.6609037,1729949944.7808526,2000
-1643.367307587541,-187500.02235174447,11941.12890256988,-187500.02235174447,-187500.02235174447,-187500.02235174447,-187500.02235174447,-187500.02235174447,1729949945.6649857,1729949944.7808526,2000
-1833.200673246464,-187500.02235174447,11874.520704093064,-187500.02235174447,-187500.02235174447,-187500.02235174447,-187500.02235174447,-187500.02235174447,1729949945.6690297,1729949944.7808526,2000
-1701.5712501491607,-187500.02235174447,11988.916932215328,-187500.02235174447,-187500.02235174447,-187500.02235174447,-187500.02235174447,-187500.02235174447,1729949945.6729424,1729949944.7808526,2000
-1573.6075131425278,-187500.02235174447,12061.403639483886,-187500.02235174447,-187500.02235174447,-187500.02235174447,-187500.02235174447,-187500.02235174447,1729949945.6761663,1729949944.7808526,2000
-1635.700659239371,-187500.02235174447,11955.434019021275,-187500.02235174447,-187500.02235174447,-187500.02235174447,-187500.02235174447,-187500.02235174447,1729949945.6802151,1729949944.7808526,2000
-1728.661564428993,-187500.02235174447,11821.904697645272,-187500.02235174447,-187500.02235174447,-187500.02235174447,-187500.02235174447,-187500.02235174447,1729949945.6851444,1729949944.7808526,2000
-1688.1602034759765,-187500.02235174447,11914.016236545593,-187500.02235174447,-187500.02235174447,-187500.02235174447,-187500.02235174447,-187500.02235174447,1729949945.6889725,1729949944.7808526,2000
-1578.4131382004189,-187500.02235174447,12087.666939218872,-187500.02235174447,-187500.02235174447,-187500.02235174447,-187500.02235174447,-187500.02235174447,1729949945.6929233,1729949944.7808526,2000
-1597.8368041320807,-187500.02235174447,11989.095746170968,-187500.02235174447,-187500.02235174447,-187500.02235174447,-187500.02235174447,-187500.02235174447,1729949945.6969612,1729949944.7808526,2000
-1669.9882352338118,-187500.02235174447,11818.194308065693,-187500.02235174447,-187500.02235174447,-187500.02235174447,-187500.02235174447,-187500.02235174447,1729949945.7010753,1729949944.7808526,2000
-1692.4070349224849,-187500.02235174447,11927.136710540855,-187500.02235174447,-187500.02235174447,-187500.02235174447,-187500.02235174447,-187500.02235174447,1729949945.7040453,1729949944.7808526,2000
-1624.7036009673598,-187500.02235174447,12077.094564091512,-187500.02235174447,-187500.02235174447,-187500.02235174447,-187500.02235174447,-187500.02235174447,1729949945.708212,1729949944.7808526,2000
-1679.0853952271218,-187500.02235174447,12008.877040013916,-187500.02235174447,-187500.02235174447,-187500.02235174447,-187500.02235174447,-187500.02235174447,1729949945.712084,1729949944.7808526,2000
-1770.8616579606123,-187500.02235174447,11847.609203768874,-187500.02235174447,-187500.02235174447,-187500.02235174447,-187500.02235174447,-187500.02235174447,1729949945.7171917,1729949944.7808526,2000
-1739.7927331677358,-187500.02235174447,11875.459477360188,-187500.02235174447,-187500.02235174447,-187500.02235174447,-187500.02235174447,-187500.02235174447,1729949945.7211728,1729949944.7808526,2000
-1552.4851146322626,-187500.02235174447,12094.841849189026,-187500.02235174447,-187500.02235174447,-187500.02235174447,-187500.02235174447,-187500.02235174447,1729949945.723993,1729949944.7808526,2000
-1550.048774486634,-187500.02235174447,12048.417275955351,-187500.02235174447,-187500.02235174447,-187500.02235174447,-187500.02235174447,-187500.02235174447,1729949945.7279396,1729949944.7808526,2000
-1763.8655619461017,-187500.02235174447,11850.894910203804,-187500.02235174447,-187500.02235174447,-187500.02235174447,-187500.02235174447,-187500.02235174447,1729949945.7320995,1729949944.7808526,2000
-1783.1551174110316,-187500.02235174447,11820.071854599935,-187500.02235174447,-187500.02235174447,-187500.02235174447,-187500.02235174447,-187500.02235174447,1729949945.7359972,1729949944.7808526,2000
-1607.0010193587566,-187500.02235174447,12032.793406581091,-187500.02235174447,-187500.02235174447,-187500.02235174447,-187500.02235174447,-187500.02235174447,1729949945.741171,1729949944.7808526,2000
-1551.9039692764247,-187500.02235174447,12090.974997398258,-187500.02235174447,-187500.02235174447,-187500.02235174447,-187500.02235174447,-187500.02235174447,1729949945.7450025,1729949944.7808526,2000
-1715.5634421781829,-187500.02235174447,11879.415736128776,-187500.02235174447,-187500.02235174447,-187500.02235174447,-187500.02235174447,-187500.02235174447,1729949945.7491183,1729949944.7808526,2000
-1744.978337881367,-187500.02235174447,11855.365259094866,-187500.02235174447,-187500.02235174447,-187500.02235174447,-187500.02235174447,-187500.02235174447,1729949945.752112,1729949944.7808526,2000
-1624.7483044562705,-187500.02235174447,12015.828432539516,-187500.02235174447,-187500.02235174447,-187500.02235174447,-187500.02235174447,-187500.02235174447,1729949945.756066,1729949944.7808526,2000
-1560.017652513701,-187500.02235174447,12093.836020688535,-187500.02235174447,-187500.02235174447,-187500.02235174447,-187500.02235174447,-187500.02235174447,1729949945.7602384,1729949944.7808526,2000
-1637.980537173812,-187500.02235174447,11940.391295002852,-187500.02235174447,-187500.02235174447,-187500.02235174447,-187500.02235174447,-187500.02235174447,1729949945.7640605,1729949944.7808526,2000
-1734.9200528764788,-187500.02235174447,11807.823098638428,-187500.02235174447,-187500.02235174447,-187500.02235174447,-187500.02235174447,-187500.02235174447,1729949945.768063,1729949944.7808526,2000
-1637.8017232181696,-187500.02235174447,11949.533158485076,-187500.02235174447,-187500.02235174447,-187500.02235174447,-187500.02235174447,-187500.02235174447,1729949945.7731209,1729949944.7808526,2000
-1588.963161583324,-187500.02235174447,12093.143116610425,-187500.02235174447,-187500.02235174447,-187500.02235174447,-187500.02235174447,-187500.02235174447,1729949945.7773733,1729949944.7808526,2000
-1667.3283776436303,-187500.02235174447,11970.476743039697,-187500.02235174447,-187500.02235174447,-187500.02235174447,-187500.02235174447,-187500.02235174447,1729949945.7802787,1729949944.7808526,2000
-1782.6410272885594,-187500.02235174447,11850.671392759252,-187500.02235174447,-187500.02235174447,-187500.02235174447,-187500.02235174447,-187500.02235174447,1729949945.784408,1729949944.7808526,2000
-1720.7713986362696,-187500.02235174447,11948.393219517851,-187500.02235174447,-187500.02235174447,-187500.02235174447,-187500.02235174447,-187500.02235174447,1729949945.788162,1729949944.7808526,2000
-1574.9486178098462,-187500.02235174447,12120.2110791458,-187500.02235174447,-187500.02235174447,-187500.02235174447,-187500.02235174447,-187500.02235174447,1729949945.792192,1729949944.7808526,2000
-1592.5841441850837,-187500.02235174447,12033.66512461485,-187500.02235174447,-187500.02235174447,-187500.02235174447,-187500.02235174447,-187500.02235174447,1729949945.7962358,1729949944.7808526,2000
-1740.9773756238671,-187500.02235174447,11804.447985225675,-187500.02235174447,-187500.02235174447,-187500.02235174447,-187500.02235174447,-187500.02235174447,1729949945.8011484,1729949944.7808526,2000
-1682.9075435289794,-187500.02235174447,11888.468192633176,-187500.02235174447,-187500.02235174447,-187500.02235174447,-187500.02235174447,-187500.02235174447,1729949945.8042393,1729949944.7808526,2000
-1561.5822746255726,-187500.02235174447,12099.066328891078,-187500.02235174447,-187500.02235174447,-187500.02235174447,-187500.02235174447,-187500.02235174447,1729949945.8082116,1729949944.7808526,2000
-1646.116572155544,-187500.02235174447,12026.04317975559,-187500.02235174447,-187500.02235174447,-187500.02235174447,-187500.02235174447,-187500.02235174447,1729949945.8121796,1729949944.7808526,2000
-1746.364146037596,-187500.02235174447,11856.3487358509,-187500.02235174447,-187500.02235174447,-187500.02235174447,-187500.02235174447,-187500.02235174447,1729949945.8162203,1729949944.7808526,2000
-1735.0988668321213,-187500.02235174447,11846.513968290565,-187500.02235174447,-187500.02235174447,-187500.02235174447,-187500.02235174447,-187500.02235174447,1729949945.820182,1729949944.7808526,2000
-1636.4159150619407,-187500.02235174447,12009.569944092029,-187500.02235174447,-187500.02235174447,-187500.02235174447,-187500.02235174447,-187500.02235174447,1729949945.824228,1729949944.7808526,2000
-1595.5122227087288,-187500.02235174447,12066.00809884168,-187500.02235174447,-187500.02235174447,-187500.02235174447,-187500.02235174447,-187500.02235174447,1729949945.829199,1729949944.7808526,2000
-1724.6382504270375,-187500.02235174447,11900.471079405675,-187500.02235174447,-187500.02235174447,-187500.02235174447,-187500.02235174447,-187500.02235174447,1729949945.8322115,1729949944.7808526,2000
-1753.4496490299284,-187500.02235174447,11857.801599240494,-187500.02235174447,-187500.02235174447,-187500.02235174447,-187500.02235174447,-187500.02235174447,1729949945.8351653,1729949944.7808526,2000
-1619.8756241650135,-187500.02235174447,12030.513528646652,-187500.02235174447,-187500.02235174447,-187500.02235174447,-187500.02235174447,-187500.02235174447,1729949945.8402183,1729949944.7808526,2000
-1550.138181464455,-187500.02235174447,12060.688383661316,-187500.02235174447,-187500.02235174447,-187500.02235174447,-187500.02235174447,-187500.02235174447,1729949945.844182,1729949944.7808526,2000
-1669.295331155697,-187500.02235174447,11907.198954486725,-187500.02235174447,-187500.02235174447,-187500.02235174447,-187500.02235174447,-187500.02235174447,1729949945.8482463,1729949944.7808526,2000
-1742.5196459912834,-187500.02235174447,11884.042547231023,-187500.02235174447,-187500.02235174447,-187500.02235174447,-187500.02235174447,-187500.02235174447,1729949945.852214,1729949944.7808526,2000
-1651.436287335907,-187500.02235174447,12027.317229189544,-187500.02235174447,-187500.02235174447,-187500.02235174447,-187500.02235174447,-187500.02235174447,1729949945.8562272,1729949944.7808526,2000
-1582.7046731358378,-187500.02235174447,12074.881741390436,-187500.02235174447,-187500.02235174447,-187500.02235174447,-187500.02235174447,-187500.02235174447,1729949945.8602529,1729949944.7808526,2000
-1651.7045082693708,-187500.02235174447,11938.200824046236,-187500.02235174447,-187500.02235174447,-187500.02235174447,-187500.02235174447,-187500.02235174447,1729949945.863289,1729949944.7808526,2000
-1748.1969890829314,-187500.02235174447,11840.121369376348,-187500.02235174447,-187500.02235174447,-187500.02235174447,-187500.02235174447,-187500.02235174447,1729949945.8682427,1729949944.7808526,2000
-1680.3817964055297,-187500.02235174447,11983.172533890312,-187500.02235174447,-187500.02235174447,-187500.02235174447,-187500.02235174447,-187500.02235174447,1729949945.8722696,1729949944.7808526,2000
-1559.0341757576675,-187500.02235174447,12099.401605057908,-187500.02235174447,-187500.02235174447,-187500.02235174447,-187500.02235174447,-187500.02235174447,1729949945.8753176,1729949944.7808526,2000
-1667.082508454622,-187500.02235174447,11952.729457942183,-187500.02235174447,-187500.02235174447,-187500.02235174447,-187500.02235174447,-187500.02235174447,1729949945.879346,1729949944.7808526,2000
-1791.4699663484057,-187500.02235174447,11816.80849990946,-187500.02235174447,-187500.02235174447,-187500.02235174447,-187500.02235174447,-187500.02235174447,1729949945.884394,1729949944.7808526,2000
-1703.8287763391468,-187500.02235174447,11951.991850375158,-187500.02235174447,-187500.02235174447,-187500.02235174447,-187500.02235174447,-187500.02235174447,1729949945.8882935,1729949944.7808526,2000
-1571.7076148638266,-187500.02235174447,12073.384174511932,-187500.02235174447,-187500.02235174447,-187500.02235174447,-187500.02235174447,-187500.02235174447,1729949945.892276,1729949944.7808526,2000
-1633.621947005027,-187500.02235174447,11973.65069075235,-187500.02235174447,-187500.02235174447,-187500.02235174447,-187500.02235174447,-187500.02235174447,1729949945.8962972,1729949944.7808526,2000
-1750.4545152729172,-187500.02235174447,11850.179654381234,-187500.02235174447,-187500.02235174447,-187500.02235174447,-187500.02235174447,-187500.02235174447,1729949945.9002876,1729949944.7808526,2000
-1696.787976835725,-187500.02235174447,11933.484605966163,-187500.02235174447,-187500.02235174447,-187500.02235174447,-187500.02235174447,-187500.02235174447,1729949945.903291,1729949944.7808526,2000
-1555.636710600461,-187500.02235174447,12099.647474246916,-187500.02235174447,-187500.02235174447,-187500.02235174447,-187500.02235174447,-187500.02235174447,1729949945.9073353,1729949944.7808526,2000
-1591.3324464955865,-187500.02235174447,12020.47759538622,-187500.02235174447,-187500.02235174447,-187500.02235174447,-187500.02235174447,-187500.02235174447,1729949945.9122996,1729949944.7808526,2000
-1771.1522306385316,-187500.02235174447,11850.023192170049,-187500.02235174447,-187500.02235174447,-187500.02235174447,-187500.02235174447,-187500.02235174447,1729949945.9163215,1729949944.7808526,2000
-1734.4506662429174,-187500.02235174447,11905.723739352672,-187500.02235174447,-187500.02235174447,-187500.02235174447,-187500.02235174447,-187500.02235174447,1729949945.9203403,1729949944.7808526,2000
-1554.0497367441342,-187500.02235174447,12082.034299616134,-187500.02235174447,-187500.02235174447,-187500.02235174447,-187500.02235174447,-187500.02235174447,1729949945.9244611,1729949944.7808526,2000
-1545.8913500179472,-187500.02235174447,12056.86623535946,-187500.02235174447,-187500.02235174447,-187500.02235174447,-187500.02235174447,-187500.02235174447,1729949945.928346,1729949944.7808526,2000
-1721.5984131811158,-187500.02235174447,11866.094096433411,-187500.02235174447,-187500.02235174447,-187500.02235174447,-187500.02235174447,-187500.02235174447,1729949945.931394,1729949944.7808526,2000
-1814.782835815291,-187500.02235174447,11881.15917219629,-187500.02235174447,-187500.02235174447,-187500.02235174447,-187500.02235174447,-187500.02235174447,1729949945.9354074,1729949944.7808526,2000
-1646.0718686666332,-187500.02235174447,12062.208302284278,-187500.02235174447,-187500.02235174447,-187500.02235174447,-187500.02235174447,-187500.02235174447,1729949945.940374,1729949944.7808526,2000
-1583.9340190808796,-187500.02235174447,12077.96628212527,-187500.02235174447,-187500.02235174447,-187500.02235174447,-187500.02235174447,-187500.02235174447,1729949945.9446132,1729949944.7808526,2000
-1738.1834075669535,-187500.02235174447,11863.501294076596,-187500.02235174447,-187500.02235174447,-187500.02235174447,-187500.02235174447,-187500.02235174447,1729949945.9483852,1729949944.7808526,2000
-1763.0832508901658,-187500.02235174447,11830.62187798284,-187500.02235174447,-187500.02235174447,-187500.02235174447,-187500.02235174447,-187500.02235174447,1729949945.9524114,1729949944.7808526,2000
-1620.4791212653067,-187500.02235174447,12005.457223112253,-187500.02235174447,-187500.02235174447,-187500.02235174447,-187500.02235174447,-187500.02235174447,1729949945.9554205,1729949944.7808526,2000
-1499.086797128534,-187500.02235174447,12108.409358073395,-187500.02235174447,-187500.02235174447,-187500.02235174447,-187500.02235174447,-187500.02235174447,1729949945.959402,1729949944.7808526,2000
-1696.6538663689932,-187500.02235174447,11950.069600352002,-187500.02235174447,-187500.02235174447,-187500.02235174447,-187500.02235174447,-187500.02235174447,1729949945.963366,1729949944.7808526,2000
-1816.749789327358,-187500.02235174447,11847.273927602046,-187500.02235174447,-187500.02235174447,-187500.02235174447,-187500.02235174447,-187500.02235174447,1729949945.9685032,1729949944.7808526,2000
-1665.7414037873036,-187500.02235174447,11988.425193837307,-187500.02235174447,-187500.02235174447,-187500.02235174447,-187500.02235174447,-187500.02235174447,1729949945.9724247,1729949944.7808526,2000
-1542.5162366051957,-187500.02235174447,12106.174183627869,-187500.02235174447,-187500.02235174447,-187500.02235174447,-187500.02235174447,-187500.02235174447,1729949945.976499,1729949944.7808526,2000
-1651.9056739694684,-187500.02235174447,11970.610853506429,-187500.02235174447,-187500.02235174447,-187500.02235174447,-187500.02235174447,-187500.02235174447,1729949945.9804535,1729949944.7808526,2000
-1761.1386491225542,-187500.02235174447,11808.828927138917,-187500.02235174447,-187500.02235174447,-187500.02235174447,-187500.02235174447,-187500.02235174447,1729949945.9834588,1729949944.7808526,2000
-1661.0922409405996,-187500.02235174447,11929.55069894203,-187500.02235174447,-187500.02235174447,-187500.02235174447,-187500.02235174447,-187500.02235174447,1729949945.987513,1729949944.7808526,2000
-1544.3267279060756,-187500.02235174447,12118.06531167809,-187500.02235174447,-187500.02235174447,-187500.02235174447,-187500.02235174447,-187500.02235174447,1729949945.9915624,1729949944.7808526,2000
-1652.889150725502,-187500.02235174447,12000.785708521094,-187500.02235174447,-187500.02235174447,-187500.02235174447,-187500.02235174447,-187500.02235174447,1729949945.995551,1729949944.7808526,2000
-1777.20955338592,-187500.02235174447,11837.237994341613,-187500.02235174447,-187500.02235174447,-187500.02235174447,-187500.02235174447,-187500.02235174447,1729949946.000542,1729949944.7808526,2000
-1730.8296836411578,-187500.02235174447,11920.386483715354,-187500.02235174447,-187500.02235174447,-187500.02235174447,-187500.02235174447,-187500.02235174447,1729949946.0045583,1729949944.7808526,2000
-1558.6765478463826,-187500.02235174447,12118.758215756205,-187500.02235174447,-187500.02235174447,-187500.02235174447,-187500.02235174447,-187500.02235174447,1729949946.0076804,1729949944.7808526,2000
-1582.0788242910892,-187500.02235174447,12045.735066620717,-187500.02235174447,-187500.02235174447,-187500.02235174447,-187500.02235174447,-187500.02235174447,1729949946.0115817,1729949944.7808526,2000
-1745.626538470571,-187500.02235174447,11822.508194745566,-187500.02235174447,-187500.02235174447,-187500.02235174447,-187500.02235174447,-187500.02235174447,1729949946.0156467,1729949944.7808526,2000
-1789.8606407476236,-187500.02235174447,11864.618881299362,-187500.02235174447,-187500.02235174447,-187500.02235174447,-187500.02235174447,-187500.02235174447,1729949946.0196483,1729949944.7808526,2000
-1629.375115558519,-187500.02235174447,12063.191779040311,-187500.02235174447,-187500.02235174447,-187500.02235174447,-187500.02235174447,-187500.02235174447,1729949946.023751,1729949944.7808526,2000
-1565.829106072081,-187500.02235174447,12076.178142568844,-187500.02235174447,-187500.02235174447,-187500.02235174447,-187500.02235174447,-187500.02235174447,1729949946.0278816,1729949944.7808526,2000
-1712.3224392321636,-187500.02235174447,11898.12414623787,-187500.02235174447,-187500.02235174447,-187500.02235174447,-187500.02235174447,-187500.02235174447,1729949946.0327313,1729949944.7808526,2000
-1753.5390560077497,-187500.02235174447,11865.155323166293,-187500.02235174447,-187500.02235174447,-187500.02235174447,-187500.02235174447,-187500.02235174447,1729949946.035808,1729949944.7808526,2000
-1604.9446588688684,-187500.02235174447,12031.295839702589,-187500.02235174447,-187500.02235174447,-187500.02235174447,-187500.02235174447,-187500.02235174447,1729949946.039598,1729949944.7808526,2000
-1522.220852639777,-187500.02235174447,12112.745596497727,-187500.02235174447,-187500.02235174447,-187500.02235174447,-187500.02235174447,-187500.02235174447,1729949946.0435877,1729949944.7808526,2000
-1705.6839711289372,-187500.02235174447,11929.327181497478,-187500.02235174447,-187500.02235174447,-187500.02235174447,-187500.02235174447,-187500.02235174447,1729949946.0475538,1729949944.7808526,2000
-1799.2930769077632,-187500.02235174447,11843.384724066822,-187500.02235174447,-187500.02235174447,-187500.02235174447,-187500.02235174447,-187500.02235174447,1729949946.0517418,1729949944.7808526,2000
-1662.9921392193007,-187500.02235174447,11994.147240417868,-187500.02235174447,-187500.02235174447,-187500.02235174447,-187500.02235174447,-187500.02235174447,1729949946.056641,1729949944.7808526,2000
-1559.861190302514,-187500.02235174447,12111.292733108132,-187500.02235174447,-187500.02235174447,-187500.02235174447,-187500.02235174447,-187500.02235174447,1729949946.0606573,1729949944.7808526,2000
-1677.1407934595102,-187500.02235174447,11956.417495777308,-187500.02235174447,-187500.02235174447,-187500.02235174447,-187500.02235174447,-187500.02235174447,1729949946.0635962,1729949944.7808526,2000
-1772.1580591390205,-187500.02235174447,11848.659735758274,-187500.02235174447,-187500.02235174447,-187500.02235174447,-187500.02235174447,-187500.02235174447,1729949946.0677793,1729949944.7808526,2000
-1659.4158601064516,-187500.02235174447,11956.037516121569,-187500.02235174447,-187500.02235174447,-187500.02235174447,-187500.02235174447,-187500.02235174447,1729949946.0717075,1729949944.7808526,2000
-1558.2295129572765,-187500.02235174447,12113.617314531484,-187500.02235174447,-187500.02235174447,-187500.02235174447,-187500.02235174447,-187500.02235174447,1729949946.0756905,1729949944.7808526,2000
-1660.3322816291193,-187500.02235174447,11976.958748931736,-187500.02235174447,-187500.02235174447,-187500.02235174447,-187500.02235174447,-187500.02235174447,1729949946.0798128,1729949944.7808526,2000
-1771.6439690165485,-187500.02235174447,11822.91052614576,-187500.02235174447,-187500.02235174447,-187500.02235174447,-187500.02235174447,-187500.02235174447,1729949946.084628,1729949944.7808526,2000
-1699.5148896592725,-187500.02235174447,11936.010353089614,-187500.02235174447,-187500.02235174447,-187500.02235174447,-187500.02235174447,-187500.02235174447,1729949946.0886507,1729949944.7808526,2000
-1554.5414751221508,-187500.02235174447,12103.044939404124,-187500.02235174447,-187500.02235174447,-187500.02235174447,-187500.02235174447,-187500.02235174447,1729949946.0918252,1729949944.7808526,2000
-1602.0612838341335,-187500.02235174447,12021.036388997602,-187500.02235174447,-187500.02235174447,-187500.02235174447,-187500.02235174447,-187500.02235174447,1729949946.0958023,1729949944.7808526,2000
-1722.179558536954,-187500.02235174447,11873.716041292671,-187500.02235174447,-187500.02235174447,-187500.02235174447,-187500.02235174447,-187500.02235174447,1729949946.09978,1729949944.7808526,2000
-1689.2554389542863,-187500.02235174447,11934.065751322005,-187500.02235174447,-187500.02235174447,-187500.02235174447,-187500.02235174447,-187500.02235174447,1729949946.1038237,1729949944.7808526,2000
-1606.442225747374,-187500.02235174447,12091.91377066538,-187500.02235174447,-187500.02235174447,-187500.02235174447,-187500.02235174447,-187500.02235174447,1729949946.1078672,1729949944.7808526,2000
-1615.2711648072202,-187500.02235174447,12027.00430476717,-187500.02235174447,-187500.02235174447,-187500.02235174447,-187500.02235174447,-187500.02235174447,1729949946.1128829,1729949944.7808526,2000
-1748.8898931610458,-187500.02235174447,11845.172863623246,-187500.02235174447,-187500.02235174447,-187500.02235174447,-187500.02235174447,-187500.02235174447,1729949946.1169045,1729949944.7808526,2000
-1745.0900966036436,-187500.02235174447,11863.523645821051,-187500.02235174447,-187500.02235174447,-187500.02235174447,-187500.02235174447,-187500.02235174447,1729949946.1198115,1729949944.7808526,2000
-1603.8494233905585,-187500.02235174447,12057.492084204208,-187500.02235174447,-187500.02235174447,-187500.02235174447,-187500.02235174447,-187500.02235174447,1729949946.1237984,1729949944.7808526,2000
-1574.7251003652932,-187500.02235174447,12063.86233137397,-187500.02235174447,-187500.02235174447,-187500.02235174447,-187500.02235174447,-187500.02235174447,1729949946.127869,1729949944.7808526,2000
-1731.187311552443,-187500.02235174447,11874.230131415145,-187500.02235174447,-187500.02235174447,-187500.02235174447,-187500.02235174447,-187500.02235174447,1729949946.1318245,1729949944.7808526,2000
-1771.5992655276375,-187500.02235174447,11855.119389905858,-187500.02235174447,-187500.02235174447,-187500.02235174447,-187500.02235174447,-187500.02235174447,1729949946.1359403,1729949944.7808526,2000
-1653.604406548072,-187500.02235174447,12026.75843557816,-187500.02235174447,-187500.02235174447,-187500.02235174447,-187500.02235174447,-187500.02235174447,1729949946.1397705,1729949944.7808526,2000
-1554.1614954664108,-187500.02235174447,12086.527000251652,-187500.02235174447,-187500.02235174447,-187500.02235174447,-187500.02235174447,-187500.02235174447,1729949946.1438806,1729949944.7808526,2000
-1667.574246832639,-187500.02235174447,11949.153178829334,-187500.02235174447,-187500.02235174447,-187500.02235174447,-187500.02235174447,-187500.02235174447,1729949946.1466973,1729949944.7808526,2000
-1773.5662190397047,-187500.02235174447,11858.226282385143,-187500.02235174447,-187500.02235174447,-187500.02235174447,-187500.02235174447,-187500.02235174447,1729949946.1513467,1729949944.7808526,2000
-1653.7385170148036,-187500.02235174447,12015.359045905954,-187500.02235174447,-187500.02235174447,-187500.02235174447,-187500.02235174447,-187500.02235174447,1729949946.155856,1729949944.7808526,2000
-1542.6279953274725,-187500.02235174447,12114.220811631778,-187500.02235174447,-187500.02235174447,-187500.02235174447,-187500.02235174447,-187500.02235174447,1729949946.159979,1729949944.7808526,2000
-1686.3497121750966,-187500.02235174447,11931.092969309446,-187500.02235174447,-187500.02235174447,-187500.02235174447,-187500.02235174447,-187500.02235174447,1729949946.163879,1729949944.7808526,2000
-1791.201745414942,-187500.02235174447,11818.194308065693,-187500.02235174447,-187500.02235174447,-187500.02235174447,-187500.02235174447,-187500.02235174447,1729949946.1680446,1729949944.7808526,2000
-1668.8035927776807,-187500.02235174447,11972.019013407114,-187500.02235174447,-187500.02235174447,-187500.02235174447,-187500.02235174447,-187500.02235174447,1729949946.1718073,1729949944.7808526,2000
-1559.5929693690505,-187500.02235174447,12119.45111983432,-187500.02235174447,-187500.02235174447,-187500.02235174447,-187500.02235174447,-187500.02235174447,1729949946.1770952,1729949944.7808526,2000
-1606.442225747374,-187500.02235174447,11985.295949613566,-187500.02235174447,-187500.02235174447,-187500.02235174447,-187500.02235174447,-187500.02235174447,1729949946.18028,1729949944.7808526,2000
-1745.8277041706688,-187500.02235174447,11817.791976665494,-187500.02235174447,-187500.02235174447,-187500.02235174447,-187500.02235174447,-187500.02235174447,1729949946.1840596,1729949944.7808526,2000
-1720.503177702806,-187500.02235174447,11922.688713394253,-187500.02235174447,-187500.02235174447,-187500.02235174447,-187500.02235174447,-187500.02235174447,1729949946.1882725,1729949944.7808526,2000
-1606.1069495805443,-187500.02235174447,12086.996386885214,-187500.02235174447,-187500.02235174447,-187500.02235174447,-187500.02235174447,-187500.02235174447,1729949946.1925435,1729949944.7808526,2000
-1631.0738481371222,-187500.02235174447,12055.838055114516,-187500.02235174447,-187500.02235174447,-187500.02235174447,-187500.02235174447,-187500.02235174447,1729949946.1978571,1729949944.7808526,2000
-1745.4253727704731,-187500.02235174447,11890.993939756623,-187500.02235174447,-187500.02235174447,-187500.02235174447,-187500.02235174447,-187500.02235174447,1729949946.2008147,1729949944.7808526,2000
-1740.8432651571352,-187500.02235174447,11916.541983669042,-187500.02235174447,-187500.02235174447,-187500.02235174447,-187500.02235174447,-187500.02235174447,1729949946.2038145,1729949944.7808526,2000
-1575.306245721131,-187500.02235174447,12096.58528525654,-187500.02235174447,-187500.02235174447,-187500.02235174447,-187500.02235174447,-187500.02235174447,1729949946.206889,1729949944.7808526,2000
-1589.1866790278768,-187500.02235174447,12048.48433118872,-187500.02235174447,-187500.02235174447,-187500.02235174447,-187500.02235174447,-187500.02235174447,1729949946.2119017,1729949944.7808526,2000
-1718.4915207018282,-187500.02235174447,11864.06008768798,-187500.02235174447,-187500.02235174447,-187500.02235174447,-187500.02235174447,-187500.02235174447,1729949946.2159529,1729949944.7808526,2000
-1741.20089306842,-187500.02235174447,11892.804431057506,-187500.02235174447,-187500.02235174447,-187500.02235174447,-187500.02235174447,-187500.02235174447,1729949946.219932,1729949944.7808526,2000
-1633.018449904734,-187500.02235174447,12077.832171658538,-187500.02235174447,-187500.02235174447,-187500.02235174447,-187500.02235174447,-187500.02235174447,1729949946.2238443,1729949944.7808526,2000
-1608.2750687927091,-187500.02235174447,12071.707793677782,-187500.02235174447,-187500.02235174447,-187500.02235174447,-187500.02235174447,-187500.02235174447,1729949946.226843,1729949944.7808526,2000
-1738.8316081561577,-187500.02235174447,11846.513968290565,-187500.02235174447,-187500.02235174447,-187500.02235174447,-187500.02235174447,-187500.02235174447,1729949946.230806,1729949944.7808526,2000
-1713.9541165774008,-187500.02235174447,11848.950308436191,-187500.02235174447,-187500.02235174447,-187500.02235174447,-187500.02235174447,-187500.02235174447,1729949946.2358298,1729949944.7808526,2000
-1596.7415686537706,-187500.02235174447,12041.644697385394,-187500.02235174447,-187500.02235174447,-187500.02235174447,-187500.02235174447,-187500.02235174447,1729949946.2398407,1729949944.7808526,2000
-1574.7698038542037,-187500.02235174447,12097.814631201582,-187500.02235174447,-187500.02235174447,-187500.02235174447,-187500.02235174447,-187500.02235174447,1729949946.2439544,1729949944.7808526,2000
-1705.080474028644,-187500.02235174447,11955.523425999098,-187500.02235174447,-187500.02235174447,-187500.02235174447,-187500.02235174447,-187500.02235174447,1729949946.2478907,1729949944.7808526,2000
-1773.655626017526,-187500.02235174447,11862.607224298386,-187500.02235174447,-187500.02235174447,-187500.02235174447,-187500.02235174447,-187500.02235174447,1729949946.2508707,1729949944.7808526,2000
-1626.6705544794268,-187500.02235174447,11979.886827455382,-187500.02235174447,-187500.02235174447,-187500.02235174447,-187500.02235174447,-187500.02235174447,1729949946.2548463,1729949944.7808526,2000
-1532.63676555595,-187500.02235174447,12090.460907275785,-187500.02235174447,-187500.02235174447,-187500.02235174447,-187500.02235174447,-187500.02235174447,1729949946.2589278,1729949944.7808526,2000
-1659.7734880177366,-187500.02235174447,11951.008373619125,-187500.02235174447,-187500.02235174447,-187500.02235174447,-187500.02235174447,-187500.02235174447,1729949946.2628818,1729949944.7808526,2000
-1808.591402601171,-187500.02235174447,11864.797695255003,-187500.02235174447,-187500.02235174447,-187500.02235174447,-187500.02235174447,-187500.02235174447,1729949946.2679293,1729949944.7808526,2000
-1697.950267547401,-187500.02235174447,11995.354234618457,-187500.02235174447,-187500.02235174447,-187500.02235174447,-187500.02235174447,-187500.02235174447,1729949946.2718778,1729949944.7808526,2000
-1565.672643860894,-187500.02235174447,12131.096378695534,-187500.02235174447,-187500.02235174447,-187500.02235174447,-187500.02235174447,-187500.02235174447,1729949946.2769048,1729949944.7808526,2000
-1656.8677612385466,-187500.02235174447,12001.433909110296,-187500.02235174447,-187500.02235174447,-187500.02235174447,-187500.02235174447,-187500.02235174447,1729949946.2809105,1729949944.7808526,2000
-1770.30286434923,-187500.02235174447,11872.754916281096,-187500.02235174447,-187500.02235174447,-187500.02235174447,-187500.02235174447,-187500.02235174447,1729949946.2839196,1729949944.7808526,2000
-1684.203944707387,-187500.02235174447,11952.729457942183,-187500.02235174447,-187500.02235174447,-187500.02235174447,-187500.02235174447,-187500.02235174447,1729949946.2869406,1729949944.7808526,2000
-1548.5512076081286,-187500.02235174447,12085.655282217896,-187500.02235174447,-187500.02235174447,-187500.02235174447,-187500.02235174447,-187500.02235174447,1729949946.2909653,1729949944.7808526,2000
-1647.6141390340497,-187500.02235174447,12027.607801867462,-187500.02235174447,-187500.02235174447,-187500.02235174447,-187500.02235174447,-187500.02235174447,1729949946.295957,1729949944.7808526,2000
-1774.080309162177,-187500.02235174447,11899.532306138552,-187500.02235174447,-187500.02235174447,-187500.02235174447,-187500.02235174447,-187500.02235174447,1729949946.3000357,1729949944.7808526,2000
-1708.5896979081272,-187500.02235174447,11960.597271990451,-187500.02235174447,-187500.02235174447,-187500.02235174447,-187500.02235174447,-187500.02235174447,1729949946.3039708,1729949944.7808526,2000
-1555.6143588560055,-187500.02235174447,12069.71848842126,-187500.02235174447,-187500.02235174447,-187500.02235174447,-187500.02235174447,-187500.02235174447,1729949946.306992,1729949944.7808526,2000
-1596.6745134204048,-187500.02235174447,12027.42898791182,-187500.02235174447,-187500.02235174447,-187500.02235174447,-187500.02235174447,-187500.02235174447,1729949946.310956,1729949944.7808526,2000
-1752.622634485082,-187500.02235174447,11869.245692401611,-187500.02235174447,-187500.02235174447,-187500.02235174447,-187500.02235174447,-187500.02235174447,1729949946.3149753,1729949944.7808526,2000
-1758.6129019991045,-187500.02235174447,11883.371994897368,-187500.02235174447,-187500.02235174447,-187500.02235174447,-187500.02235174447,-187500.02235174447,1729949946.3189943,1729949944.7808526,2000
-1591.4218534734075,-187500.02235174447,12073.875912889947,-187500.02235174447,-187500.02235174447,-187500.02235174447,-187500.02235174447,-187500.02235174447,1729949946.3230069,1729949944.7808526,2000
-1575.4850596767735,-187500.02235174447,12088.806878186091,-187500.02235174447,-187500.02235174447,-187500.02235174447,-187500.02235174447,-187500.02235174447,1729949946.3280065,1729949944.7808526,2000
-1745.268910559286,-187500.02235174447,11882.96966349717,-187500.02235174447,-187500.02235174447,-187500.02235174447,-187500.02235174447,-187500.02235174447,1729949946.3320265,1729949944.7808526,2000
-1767.3747858255847,-187500.02235174447,11853.577119538442,-187500.02235174447,-187500.02235174447,-187500.02235174447,-187500.02235174447,-187500.02235174447,1729949946.335017,1729949944.7808526,2000
-1583.4199289584076,-187500.02235174447,12031.698171102784,-187500.02235174447,-187500.02235174447,-187500.02235174447,-187500.02235174447,-187500.02235174447,1729949946.3390124,1729949944.7808526,2000
-1546.5842540960616,-187500.02235174447,12102.530849281651,-187500.02235174447,-187500.02235174447,-187500.02235174447,-187500.02235174447,-187500.02235174447,1729949946.343052,1729949944.7808526,2000
-1696.8997355580016,-187500.02235174447,11950.784856174572,-187500.02235174447,-187500.02235174447,-187500.02235174447,-187500.02235174447,-187500.02235174447,1729949946.3470075,1729949944.7808526,2000
-1729.8909103740348,-187500.02235174447,11870.296224391011,-187500.02235174447,-187500.02235174447,-187500.02235174447,-187500.02235174447,-187500.02235174447,1729949946.351066,1729949944.7808526,2000
-1586.5268214376954,-187500.02235174447,12023.539784376597,-187500.02235174447,-187500.02235174447,-187500.02235174447,-187500.02235174447,-187500.02235174447,1729949946.3560543,1729949944.7808526,2000
-1578.0331585446786,-187500.02235174447,12124.055579192112,-187500.02235174447,-187500.02235174447,-187500.02235174447,-187500.02235174447,-187500.02235174447,1729949946.360048,1729949944.7808526,2000
-1721.6431166700263,-187500.02235174447,11966.967519160216,-187500.02235174447,-187500.02235174447,-187500.02235174447,-187500.02235174447,-187500.02235174447,1729949946.3630664,1729949944.7808526,2000
-1774.4826405623724,-187500.02235174447,11851.096075903904,-187500.02235174447,-187500.02235174447,-187500.02235174447,-187500.02235174447,-187500.02235174447,1729949946.3670928,1729949944.7808526,2000
-1702.5547269051942,-187500.02235174447,11963.927681914292,-187500.02235174447,-187500.02235174447,-187500.02235174447,-187500.02235174447,-187500.02235174447,1729949946.37111,1729949944.7808526,2000
-1576.446184688352,-187500.02235174447,12108.431709817853,-187500.02235174447,-187500.02235174447,-187500.02235174447,-187500.02235174447,-187500.02235174447,1729949946.3751087,1729949944.7808526,2000
-1621.9096329104464,-187500.02235174447,11999.288141642588,-187500.02235174447,-187500.02235174447,-187500.02235174447,-187500.02235174447,-187500.02235174447,1729949946.3791957,1729949944.7808526,2000
-1770.4593265604171,-187500.02235174447,11845.955174679182,-187500.02235174447,-187500.02235174447,-187500.02235174447,-187500.02235174447,-187500.02235174447,1729949946.3832242,1729949944.7808526,2000
-1717.9774305793562,-187500.02235174447,11936.45738797872,-187500.02235174447,-187500.02235174447,-187500.02235174447,-187500.02235174447,-187500.02235174447,1729949946.3882,1729949944.7808526,2000
-1561.1799432253772,-187500.02235174447,12105.615390016485,-187500.02235174447,-187500.02235174447,-187500.02235174447,-187500.02235174447,-187500.02235174447,1729949946.3912928,1729949944.7808526,2000
-1599.088501821578,-187500.02235174447,12045.064514287056,-187500.02235174447,-187500.02235174447,-187500.02235174447,-187500.02235174447,-187500.02235174447,1729949946.3953867,1729949944.7808526,2000
-1791.9617047264226,-187500.02235174447,11855.275852117044,-187500.02235174447,-187500.02235174447,-187500.02235174447,-187500.02235174447,-187500.02235174447,1729949946.3996582,1729949944.7808526,2000
-1767.8218207146908,-187500.02235174447,11945.062809594014,-187500.02235174447,-187500.02235174447,-187500.02235174447,-187500.02235174447,-187500.02235174447,1729949946.403751,1729949944.7808526,2000
-1562.9904345262569,-187500.02235174447,12119.473471578774,-187500.02235174447,-187500.02235174447,-187500.02235174447,-187500.02235174447,-187500.02235174447,1729949946.4074736,1729949944.7808526,2000
-1540.4598761153077,-187500.02235174447,12061.29188076161,-187500.02235174447,-187500.02235174447,-187500.02235174447,-187500.02235174447,-187500.02235174447,1729949946.4117644,1729949944.7808526,2000
-1717.3292299901525,-187500.02235174447,11889.943407767229,-187500.02235174447,-187500.02235174447,-187500.02235174447,-187500.02235174447,-187500.02235174447,1729949946.416446,1729949944.7808526,2000
-1731.299070274719,-187500.02235174447,11892.223285701668,-187500.02235174447,-187500.02235174447,-187500.02235174447,-187500.02235174447,-187500.02235174447,1729949946.419773,1729949944.7808526,2000
-1619.9426793983794,-187500.02235174447,12057.62619467094,-187500.02235174447,-187500.02235174447,-187500.02235174447,-187500.02235174447,-187500.02235174447,1729949946.4233696,1729949944.7808526,2000
-1585.0739580481004,-187500.02235174447,12086.437593273831,-187500.02235174447,-187500.02235174447,-187500.02235174447,-187500.02235174447,-187500.02235174447,1729949946.4275167,1729949944.7808526,2000
-1714.9152415889791,-187500.02235174447,11895.061957247492,-187500.02235174447,-187500.02235174447,-187500.02235174447,-187500.02235174447,-187500.02235174447,1729949946.4313653,1729949944.7808526,2000
-1755.2154368418976,-187500.02235174447,11856.572253295451,-187500.02235174447,-187500.02235174447,-187500.02235174447,-187500.02235174447,-187500.02235174447,1729949946.4354851,1729949944.7808526,2000
-1624.3459730560749,-187500.02235174447,12024.389150665898,-187500.02235174447,-187500.02235174447,-187500.02235174447,-187500.02235174447,-187500.02235174447,1729949946.439371,1729949944.7808526,2000
-1552.2839489321648,-187500.02235174447,12098.418128301875,-187500.02235174447,-187500.02235174447,-187500.02235174447,-187500.02235174447,-187500.02235174447,1729949946.4434433,1729949944.7808526,2000
-1661.3828136185186,-187500.02235174447,11935.1162833114,-187500.02235174447,-187500.02235174447,-187500.02235174447,-187500.02235174447,-187500.02235174447,1729949946.4466214,1729949944.7808526,2000
-1763.8879136905568,-187500.02235174447,11851.431352070733,-187500.02235174447,-187500.02235174447,-187500.02235174447,-187500.02235174447,-187500.02235174447,1729949946.4518783,1729949944.7808526,2000
-1654.56553155965,-187500.02235174447,12035.386208937907,-187500.02235174447,-187500.02235174447,-187500.02235174447,-187500.02235174447,-187500.02235174447,1729949946.455292,1729949944.7808526,2000
-1554.5861786110615,-187500.02235174447,12133.108035696512,-187500.02235174447,-187500.02235174447,-187500.02235174447,-187500.02235174447,-187500.02235174447,1729949946.4595373,1729949944.7808526,2000
-1681.946418517401,-187500.02235174447,11984.55834204654,-187500.02235174447,-187500.02235174447,-187500.02235174447,-187500.02235174447,-187500.02235174447,1729949946.463457,1729949944.7808526,2000
-1781.6351987880707,-187500.02235174447,11845.038753156514,-187500.02235174447,-187500.02235174447,-187500.02235174447,-187500.02235174447,-187500.02235174447,1729949946.4677746,1729949944.7808526,2000
-1696.2962384577083,-187500.02235174447,11953.2211963202,-187500.02235174447,-187500.02235174447,-187500.02235174447,-187500.02235174447,-187500.02235174447,1729949946.471681,1729949944.7808526,2000
-1558.542437379651,-187500.02235174447,12111.3597883415,-187500.02235174447,-187500.02235174447,-187500.02235174447,-187500.02235174447,-187500.02235174447,1729949946.474583,1729949944.7808526,2000
-1645.6918890108932,-187500.02235174447,11993.342577617475,-187500.02235174447,-187500.02235174447,-187500.02235174447,-187500.02235174447,-187500.02235174447,1729949946.4798684,1729949944.7808526,2000
-1782.261047632819,-187500.02235174447,11844.77053222305,-187500.02235174447,-187500.02235174447,-187500.02235174447,-187500.02235174447,-187500.02235174447,1729949946.4840772,1729949944.7808526,2000
-1694.8657268125687,-187500.02235174447,11924.141576783846,-187500.02235174447,-187500.02235174447,-187500.02235174447,-187500.02235174447,-187500.02235174447,1729949946.488099,1729949944.7808526,2000
-1570.344158452053,-187500.02235174447,12126.111939682,-187500.02235174447,-187500.02235174447,-187500.02235174447,-187500.02235174447,-187500.02235174447,1729949946.4916315,1729949944.7808526,2000
-1610.018504860223,-187500.02235174447,12043.879871830926,-187500.02235174447,-187500.02235174447,-187500.02235174447,-187500.02235174447,-187500.02235174447,1729949946.495476,1729949944.7808526,2000
-1738.9880703673448,-187500.02235174447,11869.379802868343,-187500.02235174447,-187500.02235174447,-187500.02235174447,-187500.02235174447,-187500.02235174447,1729949946.4995348,1729949944.7808526,2000
-1725.1299888050544,-187500.02235174447,11909.076501020969,-187500.02235174447,-187500.02235174447,-187500.02235174447,-187500.02235174447,-187500.02235174447,1729949946.5026236,1729949944.7808526,2000
-1550.406402397919,-187500.02235174447,12096.182953856343,-187500.02235174447,-187500.02235174447,-187500.02235174447,-187500.02235174447,-187500.02235174447,1729949946.5063715,1729949944.7808526,2000
-1569.6512543739384,-187500.02235174447,12084.381232783942,-187500.02235174447,-187500.02235174447,-187500.02235174447,-187500.02235174447,-187500.02235174447,1729949946.5119247,1729949944.7808526,2000
-1744.0395646142442,-187500.02235174447,11898.705291593706,-187500.02235174447,-187500.02235174447,-187500.02235174447,-187500.02235174447,-187500.02235174447,1729949946.515412,1729949944.7808526,2000
-1762.6809194899702,-187500.02235174447,11880.980358240648,-187500.02235174447,-187500.02235174447,-187500.02235174447,-187500.02235174447,-187500.02235174447,1729949946.519556,1729949944.7808526,2000
-1623.3177928111306,-187500.02235174447,12055.05574405858,-187500.02235174447,-187500.02235174447,-187500.02235174447,-187500.02235174447,-187500.02235174447,1729949946.5224566,1729949944.7808526,2000
-1578.2343242447764,-187500.02235174447,12098.999273657711,-187500.02235174447,-187500.02235174447,-187500.02235174447,-187500.02235174447,-187500.02235174447,1729949946.5266244,1729949944.7808526,2000
-1702.197098993909,-187500.02235174447,11912.228096989167,-187500.02235174447,-187500.02235174447,-187500.02235174447,-187500.02235174447,-187500.02235174447,1729949946.5304646,1729949944.7808526,2000
-1689.3448459321078,-187500.02235174447,11851.543110793007,-187500.02235174447,-187500.02235174447,-187500.02235174447,-187500.02235174447,-187500.02235174447,1729949946.5345964,1729949944.7808526,2000
-1614.019467117723,-187500.02235174447,12035.43091242682,-187500.02235174447,-187500.02235174447,-187500.02235174447,-187500.02235174447,-187500.02235174447,1729949946.5393944,1729949944.7808526,2000
-1619.0262578757115,-187500.02235174447,12125.955477470814,-187500.02235174447,-187500.02235174447,-187500.02235174447,-187500.02235174447,-187500.02235174447,1729949946.5436623,1729949944.7808526,2000
-1650.341051857597,-187500.02235174447,11951.23189106368,-187500.02235174447,-187500.02235174447,-187500.02235174447,-187500.02235174447,-187500.02235174447,1729949946.547373,1729949944.7808526,2000
-1763.4855822903614,-187500.02235174447,11848.793846225006,-187500.02235174447,-187500.02235174447,-187500.02235174447,-187500.02235174447,-187500.02235174447,1729949946.5503783,1729949944.7808526,2000
-1676.537296359217,-187500.02235174447,11990.906237471849,-187500.02235174447,-187500.02235174447,-187500.02235174447,-187500.02235174447,-187500.02235174447,1729949946.5547814,1729949944.7808526,2000
-1571.3052834636312,-187500.02235174447,12128.414169360896,-187500.02235174447,-187500.02235174447,-187500.02235174447,-187500.02235174447,-187500.02235174447,1729949946.5589669,1729949944.7808526,2000
-1660.6899095404042,-187500.02235174447,11985.675929269306,-187500.02235174447,-187500.02235174447,-187500.02235174447,-187500.02235174447,-187500.02235174447,1729949946.5631585,1729949944.7808526,2000
-1758.29997757673,-187500.02235174447,11855.320555605957,-187500.02235174447,-187500.02235174447,-187500.02235174447,-187500.02235174447,-187500.02235174447,1729949946.5678449,1729949944.7808526,2000
-1695.8045000796917,-187500.02235174447,11974.254187852644,-187500.02235174447,-187500.02235174447,-187500.02235174447,-187500.02235174447,-187500.02235174447,1729949946.5716686,1729949944.7808526,2000
-1573.8086788426256,-187500.02235174447,12123.899116980923,-187500.02235174447,-187500.02235174447,-187500.02235174447,-187500.02235174447,-187500.02235174447,1729949946.5756032,1729949944.7808526,2000
-1624.1895108448878,-187500.02235174447,12039.00719153967,-187500.02235174447,-187500.02235174447,-187500.02235174447,-187500.02235174447,-187500.02235174447,1729949946.57899,1729949944.7808526,2000
-1746.7441256933364,-187500.02235174447,11862.58487255393,-187500.02235174447,-187500.02235174447,-187500.02235174447,-187500.02235174447,-187500.02235174447,1729949946.5826497,1729949944.7808526,2000
-1714.0211718107669,-187500.02235174447,11946.001582861136,-187500.02235174447,-187500.02235174447,-187500.02235174447,-187500.02235174447,-187500.02235174447,1729949946.5871768,1729949944.7808526,2000
-1557.7824780681703,-187500.02235174447,12128.235355405255,-187500.02235174447,-187500.02235174447,-187500.02235174447,-187500.02235174447,-187500.02235174447,1729949946.5906637,1729949944.7808526,2000
-1581.631789401983,-187500.02235174447,12049.847787600493,-187500.02235174447,-187500.02235174447,-187500.02235174447,-187500.02235174447,-187500.02235174447,1729949946.595663,1729949944.7808526,2000
-1750.499218761828,-187500.02235174447,11852.705401504683,-187500.02235174447,-187500.02235174447,-187500.02235174447,-187500.02235174447,-187500.02235174447,1729949946.5997195,1729949944.7808526,2000
-1742.0279076132665,-187500.02235174447,11894.793736314028,-187500.02235174447,-187500.02235174447,-187500.02235174447,-187500.02235174447,-187500.02235174447,1729949946.6040013,1729949944.7808526,2000
-1572.1322980084776,-187500.02235174447,12072.713622178271,-187500.02235174447,-187500.02235174447,-187500.02235174447,-187500.02235174447,-187500.02235174447,1729949946.6065145,1729949944.7808526,2000
-1518.0187246821793,-187500.02235174447,12063.594110440506,-187500.02235174447,-187500.02235174447,-187500.02235174447,-187500.02235174447,-187500.02235174447,1729949946.6110048,1729949944.7808526,2000
-1735.4341429989508,-187500.02235174447,11881.181523940746,-187500.02235174447,-187500.02235174447,-187500.02235174447,-187500.02235174447,-187500.02235174447,1729949946.6145687,1729949944.7808526,2000
-1782.9539517109338,-187500.02235174447,11891.105698478905,-187500.02235174447,-187500.02235174447,-187500.02235174447,-187500.02235174447,-187500.02235174447,1729949946.618814,1729949944.7808526,2000
-1633.5101882827507,-187500.02235174447,12083.889494405925,-187500.02235174447,-187500.02235174447,-187500.02235174447,-187500.02235174447,-187500.02235174447,1729949946.623718,1729949944.7808526,2000
-1559.1235827354888,-187500.02235174447,12105.995369672224,-187500.02235174447,-187500.02235174447,-187500.02235174447,-187500.02235174447,-187500.02235174447,1729949946.627872,1729949944.7808526,2000
-1678.6383603380157,-187500.02235174447,11921.012332560103,-187500.02235174447,-187500.02235174447,-187500.02235174447,-187500.02235174447,-187500.02235174447,1729949946.6315591,1729949944.7808526,2000
-1773.2085911284198,-187500.02235174447,11860.282642875034,-187500.02235174447,-187500.02235174447,-187500.02235174447,-187500.02235174447,-187500.02235174447,1729949946.6350648,1729949944.7808526,2000
-1663.8638572530576,-187500.02235174447,12024.09857798798,-187500.02235174447,-187500.02235174447,-187500.02235174447,-187500.02235174447,-187500.02235174447,1729949946.6385748,1729949944.7808526,2000
-1575.1944869988547,-187500.02235174447,12123.429730347363,-187500.02235174447,-187500.02235174447,-187500.02235174447,-187500.02235174447,-187500.02235174447,1729949946.6431007,1729949944.7808526,2000
-1690.3283226881413,-187500.02235174447,11951.343649785957,-187500.02235174447,-187500.02235174447,-187500.02235174447,-187500.02235174447,-187500.02235174447,1729949946.6537771,1729949944.7808526,2000
-1756.9365211649565,-187500.02235174447,11853.599471282896,-187500.02235174447,-187500.02235174447,-187500.02235174447,-187500.02235174447,-187500.02235174447,1729949946.6538072,1729949944.7808526,2000
-1650.7210315133373,-187500.02235174447,12012.98976099369,-187500.02235174447,-187500.02235174447,-187500.02235174447,-187500.02235174447,-187500.02235174447,1729949946.6572225,1729949944.7808526,2000
-1549.221759941788,-187500.02235174447,12130.828157762073,-187500.02235174447,-187500.02235174447,-187500.02235174447,-187500.02235174447,-187500.02235174447,1729949946.6586351,1729949944.7808526,2000
-1637.6229092625272,-187500.02235174447,11978.478667554697,-187500.02235174447,-187500.02235174447,-187500.02235174447,-187500.02235174447,-187500.02235174447,1729949946.6677723,1729949944.7808526,2000
-1730.494407474328,-187500.02235174447,11861.86961673136,-187500.02235174447,-187500.02235174447,-187500.02235174447,-187500.02235174447,-187500.02235174447,1729949946.667886,1729949944.7808526,2000
-1705.639267640027,-187500.02235174447,11980.266807111122,-187500.02235174447,-187500.02235174447,-187500.02235174447,-187500.02235174447,-187500.02235174447,1729949946.6823416,1729949944.7808526,2000
-1571.059414274623,-187500.02235174447,12127.49774783823,-187500.02235174447,-187500.02235174447,-187500.02235174447,-187500.02235174447,-187500.02235174447,1729949946.6823652,1729949944.7808526,2000
-1590.8630598620248,-187500.02235174447,12018.71180757425,-187500.02235174447,-187500.02235174447,-187500.02235174447,-187500.02235174447,-187500.02235174447,1729949946.6823745,1729949944.7808526,2000
-1769.855829460124,-187500.02235174447,11847.519796791054,-187500.02235174447,-187500.02235174447,-187500.02235174447,-187500.02235174447,-187500.02235174447,1729949946.683798,1729949944.7808526,2000
-1734.1824453094537,-187500.02235174447,11936.54679495654,-187500.02235174447,-187500.02235174447,-187500.02235174447,-187500.02235174447,-187500.02235174447,1729949946.6867988,1729949944.7808526,2000
-1584.2692952477094,-187500.02235174447,12155.34802142954,-187500.02235174447,-187500.02235174447,-187500.02235174447,-187500.02235174447,-187500.02235174447,1729949946.6896164,1729949944.7808526,2000
-1601.748359411759,-187500.02235174447,12091.958474154291,-187500.02235174447,-187500.02235174447,-187500.02235174447,-187500.02235174447,-187500.02235174447,1729949946.694742,1729949944.7808526,2000
-1745.91711114849,-187500.02235174447,11884.199009442213,-187500.02235174447,-187500.02235174447,-187500.02235174447,-187500.02235174447,-187500.02235174447,1729949946.6986015,1729949944.7808526,2000
-1739.658622701004,-187500.02235174447,11895.084308991947,-187500.02235174447,-187500.02235174447,-187500.02235174447,-187500.02235174447,-187500.02235174447,1729949946.7027228,1729949944.7808526,2000
-1589.7007691503488,-187500.02235174447,12075.462886746274,-187500.02235174447,-187500.02235174447,-187500.02235174447,-187500.02235174447,-187500.02235174447,1729949946.7066386,1729949944.7808526,2000
-1575.9097428214243,-187500.02235174447,12084.604750228496,-187500.02235174447,-187500.02235174447,-187500.02235174447,-187500.02235174447,-187500.02235174447,1729949946.7107422,1729949944.7808526,2000
-1724.9735265938673,-187500.02235174447,11896.984207270649,-187500.02235174447,-187500.02235174447,-187500.02235174447,-187500.02235174447,-187500.02235174447,1729949946.714589,1729949944.7808526,2000
-1737.2446342998308,-187500.02235174447,11879.125163450855,-187500.02235174447,-187500.02235174447,-187500.02235174447,-187500.02235174447,-187500.02235174447,1729949946.717632,1729949944.7808526,2000
-1571.439393930363,-187500.02235174447,12055.592185925509,-187500.02235174447,-187500.02235174447,-187500.02235174447,-187500.02235174447,-187500.02235174447,1729949946.7226348,1729949944.7808526,2000
-1551.5910448540503,-187500.02235174447,12108.454061562308,-187500.02235174447,-187500.02235174447,-187500.02235174447,-187500.02235174447,-187500.02235174447,1729949946.72954,1729949944.7808526,2000
-1663.215656663854,-187500.02235174447,11932.769350143595,-187500.02235174447,-187500.02235174447,-187500.02235174447,-187500.02235174447,-187500.02235174447,1729949946.730628,1729949944.7808526,2000
-1718.111541046088,-187500.02235174447,11867.748125523109,-187500.02235174447,-187500.02235174447,-187500.02235174447,-187500.02235174447,-187500.02235174447,1729949946.7366607,1729949944.7808526,2000
-1674.793860291703,-187500.02235174447,12019.069435485537,-187500.02235174447,-187500.02235174447,-187500.02235174447,-187500.02235174447,-187500.02235174447,1729949946.743343,1729949944.7808526,2000
-1609.7055804378488,-187500.02235174447,12133.711532796804,-187500.02235174447,-187500.02235174447,-187500.02235174447,-187500.02235174447,-187500.02235174447,1729949946.743362,1729949944.7808526,2000
-1689.434252909929,-187500.02235174447,11988.715766515228,-187500.02235174447,-187500.02235174447,-187500.02235174447,-187500.02235174447,-187500.02235174447,1729949946.7458432,1729949944.7808526,2000
-1761.0939456336434,-187500.02235174447,11875.034794215537,-187500.02235174447,-187500.02235174447,-187500.02235174447,-187500.02235174447,-187500.02235174447,1729949946.7512293,1729949944.7808526,2000
-1670.0105869782672,-187500.02235174447,12004.47374635622,-187500.02235174447,-187500.02235174447,-187500.02235174447,-187500.02235174447,-187500.02235174447,1729949946.754764,1729949944.7808526,2000
-1571.7746700971927,-187500.02235174447,12131.968096729292,-187500.02235174447,-187500.02235174447,-187500.02235174447,-187500.02235174447,-187500.02235174447,1729949946.758794,1729949944.7808526,2000
-1659.371156617541,-187500.02235174447,12005.367816134432,-187500.02235174447,-187500.02235174447,-187500.02235174447,-187500.02235174447,-187500.02235174447,1729949946.7626996,1729949944.7808526,2000
-1758.5458467657384,-187500.02235174447,11861.802561497994,-187500.02235174447,-187500.02235174447,-187500.02235174447,-187500.02235174447,-187500.02235174447,1729949946.7667687,1729949944.7808526,2000
-1686.7073400863817,-187500.02235174447,11967.07927788249,-187500.02235174447,-187500.02235174447,-187500.02235174447,-187500.02235174447,-187500.02235174447,1729949946.770696,1729949944.7808526,2000
-1562.9680827818015,-187500.02235174447,12128.25770714971,-187500.02235174447,-187500.02235174447,-187500.02235174447,-187500.02235174447,-187500.02235174447,1729949946.7737615,1729949944.7808526,2000
-1622.669592221927,-187500.02235174447,12028.390112923398,-187500.02235174447,-187500.02235174447,-187500.02235174447,-187500.02235174447,-187500.02235174447,1729949946.7802825,1729949944.7808526,2000
-1744.2630820587972,-187500.02235174447,11861.91432022027,-187500.02235174447,-187500.02235174447,-187500.02235174447,-187500.02235174447,-187500.02235174447,1729949946.7863529,1729949944.7808526,2000
-1678.4148428934627,-187500.02235174447,11925.907364595816,-187500.02235174447,-187500.02235174447,-187500.02235174447,-187500.02235174447,-187500.02235174447,1729949946.7868242,1729949944.7808526,2000
-1512.922526946369,-187500.02235174447,12117.260648877698,-187500.02235174447,-187500.02235174447,-187500.02235174447,-187500.02235174447,-187500.02235174447,1729949946.7934153,1729949944.7808526,2000
-1535.0954574460338,-187500.02235174447,12083.777735683649,-187500.02235174447,-187500.02235174447,-187500.02235174447,-187500.02235174447,-187500.02235174447,1729949946.7937744,1729949944.7808526,2000
-1768.0676899036994,-187500.02235174447,11888.512896122087,-187500.02235174447,-187500.02235174447,-187500.02235174447,-187500.02235174447,-187500.02235174447,1729949946.798252,1729949944.7808526,2000
-1800.4553676194391,-187500.02235174447,11909.16590799879,-187500.02235174447,-187500.02235174447,-187500.02235174447,-187500.02235174447,-187500.02235174447,1729949946.8018515,1729949944.7808526,2000
-1626.6258509905165,-187500.02235174447,12115.561916299095,-187500.02235174447,-187500.02235174447,-187500.02235174447,-187500.02235174447,-187500.02235174447,1729949946.8058536,1729949944.7808526,2000
-1580.5142021792178,-187500.02235174447,12117.707683766805,-187500.02235174447,-187500.02235174447,-187500.02235174447,-187500.02235174447,-187500.02235174447,1729949946.8114123,1729949944.7808526,2000
-1729.309765018197,-187500.02235174447,11917.726626125172,-187500.02235174447,-187500.02235174447,-187500.02235174447,-187500.02235174447,-187500.02235174447,1729949946.814914,1729949944.7808526,2000
-1765.2290183578752,-187500.02235174447,11875.01244247108,-187500.02235174447,-187500.02235174447,-187500.02235174447,-187500.02235174447,-187500.02235174447,1729949946.8194327,1729949944.7808526,2000
-1619.5179962537286,-187500.02235174447,12061.448342972795,-187500.02235174447,-187500.02235174447,-187500.02235174447,-187500.02235174447,-187500.02235174447,1729949946.822828,1729949944.7808526,2000
-1565.2256089717878,-187500.02235174447,12111.426843574864,-187500.02235174447,-187500.02235174447,-187500.02235174447,-187500.02235174447,-187500.02235174447,1729949946.8273656,1729949944.7808526,2000
-1698.263191969775,-187500.02235174447,11924.678018650771,-187500.02235174447,-187500.02235174447,-187500.02235174447,-187500.02235174447,-187500.02235174447,1729949946.8299673,1729949944.7808526,2000
-1752.6449862295374,-187500.02235174447,11857.622785284851,-187500.02235174447,-187500.02235174447,-187500.02235174447,-187500.02235174447,-187500.02235174447,1729949946.835019,1729949944.7808526,2000
-1633.4654847938402,-187500.02235174447,12010.128737703411,-187500.02235174447,-187500.02235174447,-187500.02235174447,-187500.02235174447,-187500.02235174447,1729949946.8390443,1729949944.7808526,2000
-1491.576610991551,-187500.02235174447,12116.076006421568,-187500.02235174447,-187500.02235174447,-187500.02235174447,-187500.02235174447,-187500.02235174447,1729949946.8435311,1729949944.7808526,2000
-1587.6444086604606,-187500.02235174447,11987.844048481473,-187500.02235174447,-187500.02235174447,-187500.02235174447,-187500.02235174447,-187500.02235174447,1729949946.8469036,1729949944.7808526,2000
-1830.652574378559,-187500.02235174447,11881.78502104104,-187500.02235174447,-187500.02235174447,-187500.02235174447,-187500.02235174447,-187500.02235174447,1729949946.8506138,1729949944.7808526,2000
-1701.9288780604456,-187500.02235174447,12038.58250839502,-187500.02235174447,-187500.02235174447,-187500.02235174447,-187500.02235174447,-187500.02235174447,1729949946.8541627,1729949944.7808526,2000
-1534.0449254566342,-187500.02235174447,12156.040925507656,-187500.02235174447,-187500.02235174447,-187500.02235174447,-187500.02235174447,-187500.02235174447,1729949946.8582084,1729949944.7808526,2000
-1663.6850432974152,-187500.02235174447,12020.52229887513,-187500.02235174447,-187500.02235174447,-187500.02235174447,-187500.02235174447,-187500.02235174447,1729949946.862624,1729949944.7808526,2000
-1795.8956117505566,-187500.02235174447,11853.77828523854,-187500.02235174447,-187500.02235174447,-187500.02235174447,-187500.02235174447,-187500.02235174447,1729949946.8675575,1729949944.7808526,2000
-1703.7840728502365,-187500.02235174447,11958.116228355912,-187500.02235174447,-187500.02235174447,-187500.02235174447,-187500.02235174447,-187500.02235174447,1729949946.8711696,1729949944.7808526,2000
-1568.5113154067178,-187500.02235174447,12126.469567593284,-187500.02235174447,-187500.02235174447,-187500.02235174447,-187500.02235174447,-187500.02235174447,1729949946.8750932,1729949944.7808526,2000
-1616.500510752262,-187500.02235174447,12039.610688639965,-187500.02235174447,-187500.02235174447,-187500.02235174447,-187500.02235174447,-187500.02235174447,1729949946.878132,1729949944.7808526,2000
-1746.6994222044257,-187500.02235174447,11852.079552659936,-187500.02235174447,-187500.02235174447,-187500.02235174447,-187500.02235174447,-187500.02235174447,1729949946.8820417,1729949944.7808526,2000
-1730.2485382853197,-187500.02235174447,11904.82966957446,-187500.02235174447,-187500.02235174447,-187500.02235174447,-187500.02235174447,-187500.02235174447,1729949946.8862815,1729949944.7808526,2000
-1565.2703124606985,-187500.02235174447,12119.96520995679,-187500.02235174447,-187500.02235174447,-187500.02235174447,-187500.02235174447,-187500.02235174447,1729949946.890021,1729949944.7808526,2000
-1574.278065476187,-187500.02235174447,12112.410320330897,-187500.02235174447,-187500.02235174447,-187500.02235174447,-187500.02235174447,-187500.02235174447,1729949946.895054,1729949944.7808526,2000
-1731.5002359748169,-187500.02235174447,11901.990998028636,-187500.02235174447,-187500.02235174447,-187500.02235174447,-187500.02235174447,-187500.02235174447,1729949946.8991797,1729949944.7808526,2000
-1715.3846282225404,-187500.02235174447,11915.290285979543,-187500.02235174447,-187500.02235174447,-187500.02235174447,-187500.02235174447,-187500.02235174447,1729949946.9033034,1729949944.7808526,2000
-1602.664780934427,-187500.02235174447,12095.333587567042,-187500.02235174447,-187500.02235174447,-187500.02235174447,-187500.02235174447,-187500.02235174447,1729949946.9060488,1729949944.7808526,2000
-1597.345065754064,-187500.02235174447,12108.58817202904,-187500.02235174447,-187500.02235174447,-187500.02235174447,-187500.02235174447,-187500.02235174447,1729949946.910509,1729949944.7808526,2000
-1729.9579656074006,-187500.02235174447,11913.904477823316,-187500.02235174447,-187500.02235174447,-187500.02235174447,-187500.02235174447,-187500.02235174447,1729949946.9139752,1729949944.7808526,2000
-1710.2884304867305,-187500.02235174447,11885.562465853984,-187500.02235174447,-187500.02235174447,-187500.02235174447,-187500.02235174447,-187500.02235174447,1729949946.9185555,1729949944.7808526,2000
-1574.3227689650976,-187500.02235174447,12079.642662959415,-187500.02235174447,-187500.02235174447,-187500.02235174447,-187500.02235174447,-187500.02235174447,1729949946.923076,1729949944.7808526,2000
-1561.6940333478492,-187500.02235174447,12160.868902310003,-187500.02235174447,-187500.02235174447,-187500.02235174447,-187500.02235174447,-187500.02235174447,1729949946.9272084,1729949944.7808526,2000
-1722.2689655147751,-187500.02235174447,11966.833408693485,-187500.02235174447,-187500.02235174447,-187500.02235174447,-187500.02235174447,-187500.02235174447,1729949946.9310887,1729949944.7808526,2000
-1788.564239569216,-187500.02235174447,11878.745183795118,-187500.02235174447,-187500.02235174447,-187500.02235174447,-187500.02235174447,-187500.02235174447,1729949946.934101,1729949944.7808526,2000
-1643.210845376354,-187500.02235174447,12033.508662403665,-187500.02235174447,-187500.02235174447,-187500.02235174447,-187500.02235174447,-187500.02235174447,1729949946.9382925,1729949944.7808526,2000
-1566.9019898059355,-187500.02235174447,12119.741692512238,-187500.02235174447,-187500.02235174447,-187500.02235174447,-187500.02235174447,-187500.02235174447,1729949946.9427292,1729949944.7808526,2000
-1632.727877226815,-187500.02235174447,12008.430005124808,-187500.02235174447,-187500.02235174447,-187500.02235174447,-187500.02235174447,-187500.02235174447,1729949946.9464023,1729949944.7808526,2000
-1729.7344481628477,-187500.02235174447,11893.743204324628,-187500.02235174447,-187500.02235174447,-187500.02235174447,-187500.02235174447,-187500.02235174447,1729949946.9507308,1729949944.7808526,2000
-1707.4721106853617,-187500.02235174447,11993.633150295396,-187500.02235174447,-187500.02235174447,-187500.02235174447,-187500.02235174447,-187500.02235174447,1729949946.9550595,1729949944.7808526,2000
-1591.4889087067734,-187500.02235174447,12118.087663422546,-187500.02235174447,-187500.02235174447,-187500.02235174447,-187500.02235174447,-187500.02235174447,1729949946.958217,1729949944.7808526,2000
-1646.340089600097,-187500.02235174447,11982.837257723482,-187500.02235174447,-187500.02235174447,-187500.02235174447,-187500.02235174447,-187500.02235174447,1729949946.962289,1729949944.7808526,2000
-1744.3524890366184,-187500.02235174447,11857.600433540396,-187500.02235174447,-187500.02235174447,-187500.02235174447,-187500.02235174447,-187500.02235174447,1729949946.966261,1729949944.7808526,2000
-1714.1329305330432,-187500.02235174447,11963.45829528073,-187500.02235174447,-187500.02235174447,-187500.02235174447,-187500.02235174447,-187500.02235174447,1729949946.970297,1729949944.7808526,2000
-1539.4540476148186,-187500.02235174447,12145.78147480267,-187500.02235174447,-187500.02235174447,-187500.02235174447,-187500.02235174447,-187500.02235174447,1729949946.9744673,1729949944.7808526,2000
-1561.5152193922067,-187500.02235174447,12059.973127838746,-187500.02235174447,-187500.02235174447,-187500.02235174447,-187500.02235174447,-187500.02235174447,1729949946.9782913,1729949944.7808526,2000
-1716.7033811454037,-187500.02235174447,11917.704274380718,-187500.02235174447,-187500.02235174447,-187500.02235174447,-187500.02235174447,-187500.02235174447,1729949946.983292,1729949944.7808526,2000
-1733.91422437599,-187500.02235174447,11954.919928898804,-187500.02235174447,-187500.02235174447,-187500.02235174447,-187500.02235174447,-187500.02235174447,1729949946.9862688,1729949944.7808526,2000
-1630.2468335922758,-187500.02235174447,12117.998256444724,-187500.02235174447,-187500.02235174447,-187500.02235174447,-187500.02235174447,-187500.02235174447,1729949946.990189,1729949944.7808526,2000
-1604.564679213128,-187500.02235174447,12104.475451049264,-187500.02235174447,-187500.02235174447,-187500.02235174447,-187500.02235174447,-187500.02235174447,1729949946.9952052,1729949944.7808526,2000
-1747.1017536046213,-187500.02235174447,11896.06778574798,-187500.02235174447,-187500.02235174447,-187500.02235174447,-187500.02235174447,-187500.02235174447,1729949946.998212,1729949944.7808526,2000
-1757.9423496654451,-187500.02235174447,11890.412794400789,-187500.02235174447,-187500.02235174447,-187500.02235174447,-187500.02235174447,-187500.02235174447,1729949947.00224,1729949944.7808526,2000
-1604.0058856017454,-187500.02235174447,12086.795221185115,-187500.02235174447,-187500.02235174447,-187500.02235174447,-187500.02235174447,-187500.02235174447,1729949947.0062616,1729949944.7808526,2000
-1562.3645856815083,-187500.02235174447,12137.35486714302,-187500.02235174447,-187500.02235174447,-187500.02235174447,-187500.02235174447,-187500.02235174447,1729949947.011274,1729949944.7808526,2000
-1709.4167124529736,-187500.02235174447,11926.4661582072,-187500.02235174447,-187500.02235174447,-187500.02235174447,-187500.02235174447,-187500.02235174447,1729949947.0140972,1729949944.7808526,2000
-1768.8947044485456,-187500.02235174447,11889.563428111484,-187500.02235174447,-187500.02235174447,-187500.02235174447,-187500.02235174447,-187500.02235174447,1729949947.018288,1729949944.7808526,2000
-1606.3528187695526,-187500.02235174447,12055.122799291945,-187500.02235174447,-187500.02235174447,-187500.02235174447,-187500.02235174447,-187500.02235174447,1729949947.022047,1729949944.7808526,2000
-1540.772800537682,-187500.02235174447,12132.54924208513,-187500.02235174447,-187500.02235174447,-187500.02235174447,-187500.02235174447,-187500.02235174447,1729949947.0264697,1729949944.7808526,2000
-1708.656753141493,-187500.02235174447,11943.967574115704,-187500.02235174447,-187500.02235174447,-187500.02235174447,-187500.02235174447,-187500.02235174447,1729949947.0300791,1729949944.7808526,2000
-1766.011329413811,-187500.02235174447,11870.117410435369,-187500.02235174447,-187500.02235174447,-187500.02235174447,-187500.02235174447,-187500.02235174447,1729949947.034741,1729949944.7808526,2000
-1623.4295515334072,-187500.02235174447,12033.173386236833,-187500.02235174447,-187500.02235174447,-187500.02235174447,-187500.02235174447,-187500.02235174447,1729949947.0391133,1729949944.7808526,2000
-1480.8254219085482,-187500.02235174447,12135.566727586596,-187500.02235174447,-187500.02235174447,-187500.02235174447,-187500.02235174447,-187500.02235174447,1729949947.0425327,1729949944.7808526,2000
-1630.3809440590078,-187500.02235174447,11991.599141549965,-187500.02235174447,-187500.02235174447,-187500.02235174447,-187500.02235174447,-187500.02235174447,1729949947.0463803,1729949944.7808526,2000
-1816.7944928162688,-187500.02235174447,11889.228151944655,-187500.02235174447,-187500.02235174447,-187500.02235174447,-187500.02235174447,-187500.02235174447,1729949947.050556,1729949944.7808526,2000
-1717.9550788349009,-187500.02235174447,11996.89650498587,-187500.02235174447,-187500.02235174447,-187500.02235174447,-187500.02235174447,-187500.02235174447,1729949947.0546095,1729949944.7808526,2000
-1560.5764461250835,-187500.02235174447,12115.651323276918,-187500.02235174447,-187500.02235174447,-187500.02235174447,-187500.02235174447,-187500.02235174447,1729949947.0586357,1729949944.7808526,2000
-1648.530560556717,-187500.02235174447,12025.976124522223,-187500.02235174447,-187500.02235174447,-187500.02235174447,-187500.02235174447,-187500.02235174447,1729949947.0625436,1729949944.7808526,2000
-1754.6342914860595,-187500.02235174447,11881.02506172956,-187500.02235174447,-187500.02235174447,-187500.02235174447,-187500.02235174447,-187500.02235174447,1729949947.0652337,1729949944.7808526,2000
-1708.209718252387,-187500.02235174447,11978.0763361545,-187500.02235174447,-187500.02235174447,-187500.02235174447,-187500.02235174447,-187500.02235174447,1729949947.069632,1729949944.7808526,2000
-1568.7124811068156,-187500.02235174447,12188.339196245575,-187500.02235174447,-187500.02235174447,-187500.02235174447,-187500.02235174447,-187500.02235174447,1729949947.0734465,1729949944.7808526,2000
-1625.4188567899296,-187500.02235174447,12092.718433465772,-187500.02235174447,-187500.02235174447,-187500.02235174447,-187500.02235174447,-187500.02235174447,1729949947.0788183,1729949944.7808526,2000
-1751.0580123732109,-187500.02235174447,11890.524553123065,-187500.02235174447,-187500.02235174447,-187500.02235174447,-187500.02235174447,-187500.02235174447,1729949947.0825188,1729949944.7808526,2000
-1709.9308025754456,-187500.02235174447,11927.203765774222,-187500.02235174447,-187500.02235174447,-187500.02235174447,-187500.02235174447,-187500.02235174447,1729949947.086485,1729949944.7808526,2000
-1597.635638431983,-187500.02235174447,12098.976921913258,-187500.02235174447,-187500.02235174447,-187500.02235174447,-187500.02235174447,-187500.02235174447,1729949947.0903592,1729949944.7808526,2000
-1577.6755306333937,-187500.02235174447,12090.751479953704,-187500.02235174447,-187500.02235174447,-187500.02235174447,-187500.02235174447,-187500.02235174447,1729949947.0939827,1729949944.7808526,2000
-1726.1805207944535,-187500.02235174447,11891.664492090284,-187500.02235174447,-187500.02235174447,-187500.02235174447,-187500.02235174447,-187500.02235174447,1729949947.097355,1729949944.7808526,2000
-1741.3573552796074,-187500.02235174447,11893.474983391165,-187500.02235174447,-187500.02235174447,-187500.02235174447,-187500.02235174447,-187500.02235174447,1729949947.1016405,1729949944.7808526,2000
-1600.8095861446366,-187500.02235174447,12085.789392684626,-187500.02235174447,-187500.02235174447,-187500.02235174447,-187500.02235174447,-187500.02235174447,1729949947.106292,1729949944.7808526,2000
-1569.3830334404747,-187500.02235174447,12125.173166414876,-187500.02235174447,-187500.02235174447,-187500.02235174447,-187500.02235174447,-187500.02235174447,1729949947.1108513,1729949944.7808526,2000
-1695.2457064683088,-187500.02235174447,11951.187187574767,-187500.02235174447,-187500.02235174447,-187500.02235174447,-187500.02235174447,-187500.02235174447,1729949947.1144216,1729949944.7808526,2000
-1740.6644512014927,-187500.02235174447,11904.1591172408,-187500.02235174447,-187500.02235174447,-187500.02235174447,-187500.02235174447,-187500.02235174447,1729949947.1187856,1729949944.7808526,2000
-1625.441208534385,-187500.02235174447,12080.022642615157,-187500.02235174447,-187500.02235174447,-187500.02235174447,-187500.02235174447,-187500.02235174447,1729949947.121575,1729949944.7808526,2000
-1562.5433996371507,-187500.02235174447,12131.029323462168,-187500.02235174447,-187500.02235174447,-187500.02235174447,-187500.02235174447,-187500.02235174447,1729949947.12531,1729949944.7808526,2000
-1695.2233547238536,-187500.02235174447,11953.288251553566,-187500.02235174447,-187500.02235174447,-187500.02235174447,-187500.02235174447,-187500.02235174447,1729949947.1296377,1729949944.7808526,2000
-1775.9355039519671,-187500.02235174447,11849.531453792031,-187500.02235174447,-187500.02235174447,-187500.02235174447,-187500.02235174447,-187500.02235174447,1729949947.134734,1729949944.7808526,2000
-1666.0766799541332,-187500.02235174447,12010.486365614695,-187500.02235174447,-187500.02235174447,-187500.02235174447,-187500.02235174447,-187500.02235174447,1729949947.1383524,1729949944.7808526,2000
-1571.4170421859078,-187500.02235174447,12167.797943091147,-187500.02235174447,-187500.02235174447,-187500.02235174447,-187500.02235174447,-187500.02235174447,1729949947.1425812,1729949944.7808526,2000
-1633.398429560474,-187500.02235174447,12024.992647766192,-187500.02235174447,-187500.02235174447,-187500.02235174447,-187500.02235174447,-187500.02235174447,1729949947.146629,1729949944.7808526,2000
-1747.0570501157106,-187500.02235174447,11884.78015479805,-187500.02235174447,-187500.02235174447,-187500.02235174447,-187500.02235174447,-187500.02235174447,1729949947.149541,1729949944.7808526,2000
-1703.1358722610323,-187500.02235174447,11991.50973457214,-187500.02235174447,-187500.02235174447,-187500.02235174447,-187500.02235174447,-187500.02235174447,1729949947.153802,1729949944.7808526,2000
-1553.1109634770112,-187500.02235174447,12155.057448751622,-187500.02235174447,-187500.02235174447,-187500.02235174447,-187500.02235174447,-187500.02235174447,1729949947.1575377,1729949944.7808526,2000
