Fp1,Fp2,C3,C4,P7,P8,O1,O2,time_board,time_marker,marker
12099.91569518038,-187500.02235174447,27603.13035287027,-187500.02235174447,-187500.02235174447,-187500.02235174447,-187500.02235174447,-187500.02235174447,1729947719.244582,1729947719.243292,2000
12109.079910407056,-187500.02235174447,27597.02832663397,-187500.02235174447,-187500.02235174447,-187500.02235174447,-187500.02235174447,-187500.02235174447,1729947719.2489192,1729947719.243292,2000
12008.720577802727,-187500.02235174447,27466.44943552607,-187500.02235174447,-187500.02235174447,-187500.02235174447,-187500.02235174447,-187500.02235174447,1729947719.25266,1729947719.243292,2000
12004.13847018939,-187500.02235174447,27447.8304323948,-187500.02235174447,-187500.02235174447,-187500.02235174447,-187500.02235174447,-187500.02235174447,1729947719.2560256,1729947719.243292,2000
12099.803936458104,-187500.02235174447,27573.044904833427,-187500.02235174447,-187500.02235174447,-187500.02235174447,-187500.02235174447,-187500.02235174447,1729947719.2595787,1729947719.243292,2000
12122.1109774245,-187500.02235174447,27576.621183946278,-187500.02235174447,-187500.02235174447,-187500.02235174447,-187500.02235174447,-187500.02235174447,1729947719.263643,1729947719.243292,2000
12051.52416843464,-187500.02235174447,27477.424142053624,-187500.02235174447,-187500.02235174447,-187500.02235174447,-187500.02235174447,-187500.02235174447,1729947719.2677095,1729947719.243292,2000
12002.23857191069,-187500.02235174447,27445.05881608234,-187500.02235174447,-187500.02235174447,-187500.02235174447,-187500.02235174447,-187500.02235174447,1729947719.2727215,1729947719.243292,2000
12095.959436411791,-187500.02235174447,27566.13821579674,-187500.02235174447,-187500.02235174447,-187500.02235174447,-187500.02235174447,-187500.02235174447,1729947719.2767768,1729947719.243292,2000
12301.886058078537,-187500.02235174447,27635.048643952447,-187500.02235174447,-187500.02235174447,-187500.02235174447,-187500.02235174447,-187500.02235174447,1729947719.280718,1729947719.243292,2000
12379.334852616174,-187500.02235174447,27494.925557962128,-187500.02235174447,-187500.02235174447,-187500.02235174447,-187500.02235174447,-187500.02235174447,1729947719.2837844,1729947719.243292,2000
12037.28610721661,-187500.02235174447,27382.406876374112,-187500.02235174447,-187500.02235174447,-187500.02235174447,-187500.02235174447,-187500.02235174447,1729947719.2876532,1729947719.243292,2000
11872.643157558818,-187500.02235174447,27505.185008667115,-187500.02235174447,-187500.02235174447,-187500.02235174447,-187500.02235174447,-187500.02235174447,1729947719.2917852,1729947719.243292,2000
12157.426733663886,-187500.02235174447,27572.06142807739,-187500.02235174447,-187500.02235174447,-187500.02235174447,-187500.02235174447,-187500.02235174447,1729947719.295861,1729947719.243292,2000
12184.785268877182,-187500.02235174447,27502.659261543664,-187500.02235174447,-187500.02235174447,-187500.02235174447,-187500.02235174447,-187500.02235174447,1729947719.3007274,1729947719.243292,2000
12081.363747282476,-187500.02235174447,27374.449655348024,-187500.02235174447,-187500.02235174447,-187500.02235174447,-187500.02235174447,-187500.02235174447,1729947719.3048427,1729947719.243292,2000
12057.983822582224,-187500.02235174447,27449.9314963736,-187500.02235174447,-187500.02235174447,-187500.02235174447,-187500.02235174447,-187500.02235174447,1729947719.3088355,1729947719.243292,2000
12046.919709076848,-187500.02235174447,27642.17885043369,-187500.02235174447,-187500.02235174447,-187500.02235174447,-187500.02235174447,-187500.02235174447,1729947719.3117015,1729947719.243292,2000
12051.412409712364,-187500.02235174447,27652.05832148294,-187500.02235174447,-187500.02235174447,-187500.02235174447,-187500.02235174447,-187500.02235174447,1729947719.3157773,1729947719.243292,2000
12028.61363036795,-187500.02235174447,27592.55797774291,-187500.02235174447,-187500.02235174447,-187500.02235174447,-187500.02235174447,-187500.02235174447,1729947719.319693,1729947719.243292,2000
12047.791427110604,-187500.02235174447,27587.797056173928,-187500.02235174447,-187500.02235174447,-187500.02235174447,-187500.02235174447,-187500.02235174447,1729947719.323882,1729947719.243292,2000
12176.64923389545,-187500.02235174447,27710.418726255743,-187500.02235174447,-187500.02235174447,-187500.02235174447,-187500.02235174447,-187500.02235174447,1729947719.3276918,1729947719.243292,2000
12267.017336728257,-187500.02235174447,27673.650106626763,-187500.02235174447,-187500.02235174447,-187500.02235174447,-187500.02235174447,-187500.02235174447,1729947719.3328865,1729947719.243292,2000
12103.1566981264,-187500.02235174447,27497.808932996864,-187500.02235174447,-187500.02235174447,-187500.02235174447,-187500.02235174447,-187500.02235174447,1729947719.3357332,1729947719.243292,2000
11955.45637076573,-187500.02235174447,27527.15677346668,-187500.02235174447,-187500.02235174447,-187500.02235174447,-187500.02235174447,-187500.02235174447,1729947719.3398187,1729947719.243292,2000
12060.531921450129,-187500.02235174447,27667.749246090563,-187500.02235174447,-187500.02235174447,-187500.02235174447,-187500.02235174447,-187500.02235174447,1729947719.3438072,1729947719.243292,2000
11978.389260576876,-187500.02235174447,27482.31917408933,-187500.02235174447,-187500.02235174447,-187500.02235174447,-187500.02235174447,-187500.02235174447,1729947719.3479688,1729947719.243292,2000
11994.0801851845,-187500.02235174447,27127.03819597223,-187500.02235174447,-187500.02235174447,-187500.02235174447,-187500.02235174447,-187500.02235174447,1729947719.3519688,1729947719.243292,2000
12288.76558408327,-187500.02235174447,27240.361540360635,-187500.02235174447,-187500.02235174447,-187500.02235174447,-187500.02235174447,-187500.02235174447,1729947719.35584,1729947719.243292,2000
12148.553091115127,-187500.02235174447,27700.80747613996,-187500.02235174447,-187500.02235174447,-187500.02235174447,-187500.02235174447,-187500.02235174447,1729947719.3608344,1729947719.243292,2000
12089.902113664402,-187500.02235174447,27791.086171994943,-187500.02235174447,-187500.02235174447,-187500.02235174447,-187500.02235174447,-187500.02235174447,1729947719.3639622,1729947719.243292,2000
12119.093491923037,-187500.02235174447,27589.585195730357,-187500.02235174447,-187500.02235174447,-187500.02235174447,-187500.02235174447,-187500.02235174447,1729947719.3679364,1729947719.243292,2000
11987.173496147812,-187500.02235174447,27380.79755077333,-187500.02235174447,-187500.02235174447,-187500.02235174447,-187500.02235174447,-187500.02235174447,1729947719.3718474,1729947719.243292,2000
12032.391075180898,-187500.02235174447,27386.89957700963,-187500.02235174447,-187500.02235174447,-187500.02235174447,-187500.02235174447,-187500.02235174447,1729947719.376033,1729947719.243292,2000
12186.819277622615,-187500.02235174447,27470.33863906129,-187500.02235174447,-187500.02235174447,-187500.02235174447,-187500.02235174447,-187500.02235174447,1729947719.3800309,1729947719.243292,2000
12258.43426685742,-187500.02235174447,27742.49347954911,-187500.02235174447,-187500.02235174447,-187500.02235174447,-187500.02235174447,-187500.02235174447,1729947719.3840208,1729947719.243292,2000
12040.728275862728,-187500.02235174447,27708.250607043577,-187500.02235174447,-187500.02235174447,-187500.02235174447,-187500.02235174447,-187500.02235174447,1729947719.3888962,1729947719.243292,2000
12051.457113201275,-187500.02235174447,27693.05142081397,-187500.02235174447,-187500.02235174447,-187500.02235174447,-187500.02235174447,-187500.02235174447,1729947719.3920262,1729947719.243292,2000
12156.286794696663,-187500.02235174447,27666.788121078986,-187500.02235174447,-187500.02235174447,-187500.02235174447,-187500.02235174447,-187500.02235174447,1729947719.3960612,1729947719.243292,2000
11998.058795697549,-187500.02235174447,27467.85759542675,-187500.02235174447,-187500.02235174447,-187500.02235174447,-187500.02235174447,-187500.02235174447,1729947719.4000068,1729947719.243292,2000
12153.649288850938,-187500.02235174447,27465.95769714805,-187500.02235174447,-187500.02235174447,-187500.02235174447,-187500.02235174447,-187500.02235174447,1729947719.4039536,1729947719.243292,2000
12294.644092875016,-187500.02235174447,27601.67748948068,-187500.02235174447,-187500.02235174447,-187500.02235174447,-187500.02235174447,-187500.02235174447,1729947719.4080844,1729947719.243292,2000
12247.23604288531,-187500.02235174447,27689.63160391231,-187500.02235174447,-187500.02235174447,-187500.02235174447,-187500.02235174447,-187500.02235174447,1729947719.411912,1729947719.243292,2000
12104.2072301158,-187500.02235174447,27602.4150970477,-187500.02235174447,-187500.02235174447,-187500.02235174447,-187500.02235174447,-187500.02235174447,1729947719.417018,1729947719.243292,2000
11939.65368743583,-187500.02235174447,27428.18324901858,-187500.02235174447,-187500.02235174447,-187500.02235174447,-187500.02235174447,-187500.02235174447,1729947719.41987,1729947719.243292,2000
11938.022010090592,-187500.02235174447,27432.72065314301,-187500.02235174447,-187500.02235174447,-187500.02235174447,-187500.02235174447,-187500.02235174447,1729947719.422917,1729947719.243292,2000
11974.008318663637,-187500.02235174447,27516.96437799506,-187500.02235174447,-187500.02235174447,-187500.02235174447,-187500.02235174447,-187500.02235174447,1729947719.427882,1729947719.243292,2000
11952.215367819712,-187500.02235174447,27503.240406899506,-187500.02235174447,-187500.02235174447,-187500.02235174447,-187500.02235174447,-187500.02235174447,1729947719.4318855,1729947719.243292,2000
12040.638868884906,-187500.02235174447,27546.35692195379,-187500.02235174447,-187500.02235174447,-187500.02235174447,-187500.02235174447,-187500.02235174447,1729947719.4358785,1729947719.243292,2000
12164.98162328978,-187500.02235174447,27538.3997009277,-187500.02235174447,-187500.02235174447,-187500.02235174447,-187500.02235174447,-187500.02235174447,1729947719.439989,1729947719.243292,2000
12243.927984705924,-187500.02235174447,27619.55888504492,-187500.02235174447,-187500.02235174447,-187500.02235174447,-187500.02235174447,-187500.02235174447,1729947719.444908,1729947719.243292,2000
12027.361932678454,-187500.02235174447,27645.263391168523,-187500.02235174447,-187500.02235174447,-187500.02235174447,-187500.02235174447,-187500.02235174447,1729947719.4479277,1729947719.243292,2000
11867.122276678358,-187500.02235174447,27540.768985839964,-187500.02235174447,-187500.02235174447,-187500.02235174447,-187500.02235174447,-187500.02235174447,1729947719.4510384,1729947719.243292,2000
12016.610743595453,-187500.02235174447,27654.181737206192,-187500.02235174447,-187500.02235174447,-187500.02235174447,-187500.02235174447,-187500.02235174447,1729947719.4560812,1729947719.243292,2000
12148.26251843721,-187500.02235174447,27703.735554663606,-187500.02235174447,-187500.02235174447,-187500.02235174447,-187500.02235174447,-187500.02235174447,1729947719.4609368,1729947719.243292,2000
12219.631638483006,-187500.02235174447,27746.20386912869,-187500.02235174447,-187500.02235174447,-187500.02235174447,-187500.02235174447,-187500.02235174447,1729947719.465096,1729947719.243292,2000
12169.586082647573,-187500.02235174447,27653.19826045016,-187500.02235174447,-187500.02235174447,-187500.02235174447,-187500.02235174447,-187500.02235174447,1729947719.4680018,1729947719.243292,2000
12085.0517851176,-187500.02235174447,27558.56097442639,-187500.02235174447,-187500.02235174447,-187500.02235174447,-187500.02235174447,-187500.02235174447,1729947719.471989,1729947719.243292,2000
12113.282038364654,-187500.02235174447,27638.356702131838,-187500.02235174447,-187500.02235174447,-187500.02235174447,-187500.02235174447,-187500.02235174447,1729947719.4750907,1729947719.243292,2000
12111.806823230603,-187500.02235174447,27646.313923157923,-187500.02235174447,-187500.02235174447,-187500.02235174447,-187500.02235174447,-187500.02235174447,1729947719.4790778,1729947719.243292,2000
12040.907089818367,-187500.02235174447,27524.98865425452,-187500.02235174447,-187500.02235174447,-187500.02235174447,-187500.02235174447,-187500.02235174447,1729947719.4841533,1729947719.243292,2000
12028.390112923398,-187500.02235174447,27495.976089951528,-187500.02235174447,-187500.02235174447,-187500.02235174447,-187500.02235174447,-187500.02235174447,1729947719.4882169,1729947719.243292,2000
12084.448288017307,-187500.02235174447,27531.224790957545,-187500.02235174447,-187500.02235174447,-187500.02235174447,-187500.02235174447,-187500.02235174447,1729947719.492024,1729947719.243292,2000
12172.625919893497,-187500.02235174447,27568.999239087017,-187500.02235174447,-187500.02235174447,-187500.02235174447,-187500.02235174447,-187500.02235174447,1729947719.4960563,1729947719.243292,2000
12070.120819821455,-187500.02235174447,27562.45017796161,-187500.02235174447,-187500.02235174447,-187500.02235174447,-187500.02235174447,-187500.02235174447,1729947719.5001328,1729947719.243292,2000
11973.740097730171,-187500.02235174447,27499.46296208656,-187500.02235174447,-187500.02235174447,-187500.02235174447,-187500.02235174447,-187500.02235174447,1729947719.503019,1729947719.243292,2000
12120.993390201736,-187500.02235174447,27643.20703067864,-187500.02235174447,-187500.02235174447,-187500.02235174447,-187500.02235174447,-187500.02235174447,1729947719.5070992,1729947719.243292,2000
12222.313847817642,-187500.02235174447,27705.836618642406,-187500.02235174447,-187500.02235174447,-187500.02235174447,-187500.02235174447,-187500.02235174447,1729947719.5121171,1729947719.243292,2000
12115.025474432168,-187500.02235174447,27616.116716398803,-187500.02235174447,-187500.02235174447,-187500.02235174447,-187500.02235174447,-187500.02235174447,1729947719.5160143,1729947719.243292,2000
12001.61272306594,-187500.02235174447,27519.06544197386,-187500.02235174447,-187500.02235174447,-187500.02235174447,-187500.02235174447,-187500.02235174447,1729947719.5200202,1729947719.243292,2000
11895.106660736405,-187500.02235174447,27574.25189903401,-187500.02235174447,-187500.02235174447,-187500.02235174447,-187500.02235174447,-187500.02235174447,1729947719.5241532,1729947719.243292,2000
12035.408560682365,-187500.02235174447,27611.73577448556,-187500.02235174447,-187500.02235174447,-187500.02235174447,-187500.02235174447,-187500.02235174447,1729947719.5271688,1729947719.243292,2000
12234.540252034694,-187500.02235174447,27658.585030863887,-187500.02235174447,-187500.02235174447,-187500.02235174447,-187500.02235174447,-187500.02235174447,1729947719.531192,1729947719.243292,2000
12038.448397928289,-187500.02235174447,27470.696266972576,-187500.02235174447,-187500.02235174447,-187500.02235174447,-187500.02235174447,-187500.02235174447,1729947719.535402,1729947719.243292,2000
11975.03649890858,-187500.02235174447,27466.650601226163,-187500.02235174447,-187500.02235174447,-187500.02235174447,-187500.02235174447,-187500.02235174447,1729947719.5391352,1729947719.243292,2000
12167.88735006897,-187500.02235174447,27664.82116756692,-187500.02235174447,-187500.02235174447,-187500.02235174447,-187500.02235174447,-187500.02235174447,1729947719.544065,1729947719.243292,2000
12131.386951373452,-187500.02235174447,27627.627864793285,-187500.02235174447,-187500.02235174447,-187500.02235174447,-187500.02235174447,-187500.02235174447,1729947719.5482264,1729947719.243292,2000
12028.23365071221,-187500.02235174447,27486.118970646738,-187500.02235174447,-187500.02235174447,-187500.02235174447,-187500.02235174447,-187500.02235174447,1729947719.5521138,1729947719.243292,2000
12017.102481973468,-187500.02235174447,27449.5291649734,-187500.02235174447,-187500.02235174447,-187500.02235174447,-187500.02235174447,-187500.02235174447,1729947719.5553856,1729947719.243292,2000
12039.163653750857,-187500.02235174447,27538.869087561263,-187500.02235174447,-187500.02235174447,-187500.02235174447,-187500.02235174447,-187500.02235174447,1729947719.5590796,1729947719.243292,2000
12092.696081721317,-187500.02235174447,27638.96019923213,-187500.02235174447,-187500.02235174447,-187500.02235174447,-187500.02235174447,-187500.02235174447,1729947719.563226,1729947719.243292,2000
12025.61849661094,-187500.02235174447,27577.492901980037,-187500.02235174447,-187500.02235174447,-187500.02235174447,-187500.02235174447,-187500.02235174447,1729947719.5671413,1729947719.243292,2000
12038.04606652809,-187500.02235174447,27541.104262006796,-187500.02235174447,-187500.02235174447,-187500.02235174447,-187500.02235174447,-187500.02235174447,1729947719.572227,1729947719.243292,2000
12204.141879575478,-187500.02235174447,27690.61508066834,-187500.02235174447,-187500.02235174447,-187500.02235174447,-187500.02235174447,-187500.02235174447,1729947719.5762825,1729947719.243292,2000
12205.2818185427,-187500.02235174447,27685.51888293253,-187500.02235174447,-187500.02235174447,-187500.02235174447,-187500.02235174447,-187500.02235174447,1729947719.5792787,1729947719.243292,2000
12056.419200470353,-187500.02235174447,27533.795241569907,-187500.02235174447,-187500.02235174447,-187500.02235174447,-187500.02235174447,-187500.02235174447,1729947719.5832696,1729947719.243292,2000
11977.919873943314,-187500.02235174447,27471.14330186168,-187500.02235174447,-187500.02235174447,-187500.02235174447,-187500.02235174447,-187500.02235174447,1729947719.587453,1729947719.243292,2000
12097.524058523662,-187500.02235174447,27632.36643461781,-187500.02235174447,-187500.02235174447,-187500.02235174447,-187500.02235174447,-187500.02235174447,1729947719.59142,1729947719.243292,2000
12140.68527706686,-187500.02235174447,27774.322363653468,-187500.02235174447,-187500.02235174447,-187500.02235174447,-187500.02235174447,-187500.02235174447,1729947719.5953057,1729947719.243292,2000
12150.49769288274,-187500.02235174447,27670.297344958468,-187500.02235174447,-187500.02235174447,-187500.02235174447,-187500.02235174447,-187500.02235174447,1729947719.6005158,1729947719.243292,2000
12058.542616193608,-187500.02235174447,27494.63498528421,-187500.02235174447,-187500.02235174447,-187500.02235174447,-187500.02235174447,-187500.02235174447,1729947719.604316,1729947719.243292,2000
12051.077133545534,-187500.02235174447,27494.746744006487,-187500.02235174447,-187500.02235174447,-187500.02235174447,-187500.02235174447,-187500.02235174447,1729947719.6072917,1729947719.243292,2000
12122.535660569152,-187500.02235174447,27632.23232415108,-187500.02235174447,-187500.02235174447,-187500.02235174447,-187500.02235174447,-187500.02235174447,1729947719.611343,1729947719.243292,2000
12090.505610764696,-187500.02235174447,27622.151687401736,-187500.02235174447,-187500.02235174447,-187500.02235174447,-187500.02235174447,-187500.02235174447,1729947719.6152773,1729947719.243292,2000
12043.902223575382,-187500.02235174447,27522.68642457562,-187500.02235174447,-187500.02235174447,-187500.02235174447,-187500.02235174447,-187500.02235174447,1729947719.6193647,1729947719.243292,2000
12093.657206732894,-187500.02235174447,27554.33649472433,-187500.02235174447,-187500.02235174447,-187500.02235174447,-187500.02235174447,-187500.02235174447,1729947719.6234884,1729947719.243292,2000
12174.07878328309,-187500.02235174447,27662.54128963248,-187500.02235174447,-187500.02235174447,-187500.02235174447,-187500.02235174447,-187500.02235174447,1729947719.6273007,1729947719.243292,2000
12141.668753822894,-187500.02235174447,27613.94859718664,-187500.02235174447,-187500.02235174447,-187500.02235174447,-187500.02235174447,-187500.02235174447,1729947719.6324997,1729947719.243292,2000
12095.691215478328,-187500.02235174447,27491.52809280492,-187500.02235174447,-187500.02235174447,-187500.02235174447,-187500.02235174447,-187500.02235174447,1729947719.6354992,1729947719.243292,2000
12097.278189334656,-187500.02235174447,27528.699043834094,-187500.02235174447,-187500.02235174447,-187500.02235174447,-187500.02235174447,-187500.02235174447,1729947719.6394887,1729947719.243292,2000
12137.399570631933,-187500.02235174447,27645.10692895733,-187500.02235174447,-187500.02235174447,-187500.02235174447,-187500.02235174447,-187500.02235174447,1729947719.6434865,1729947719.243292,2000
12113.550259298116,-187500.02235174447,27663.502414644056,-187500.02235174447,-187500.02235174447,-187500.02235174447,-187500.02235174447,-187500.02235174447,1729947719.647339,1729947719.243292,2000
12054.675764402838,-187500.02235174447,27543.607657385783,-187500.02235174447,-187500.02235174447,-187500.02235174447,-187500.02235174447,-187500.02235174447,1729947719.651292,1729947719.243292,2000
12063.035316829124,-187500.02235174447,27516.98672973952,-187500.02235174447,-187500.02235174447,-187500.02235174447,-187500.02235174447,-187500.02235174447,1729947719.655353,1729947719.243292,2000
12084.62710197295,-187500.02235174447,27649.80079529295,-187500.02235174447,-187500.02235174447,-187500.02235174447,-187500.02235174447,-187500.02235174447,1729947719.6603444,1729947719.243292,2000
12150.140064971456,-187500.02235174447,27696.60534818237,-187500.02235174447,-187500.02235174447,-187500.02235174447,-187500.02235174447,-187500.02235174447,1729947719.6634,1729947719.243292,2000
12144.060390479612,-187500.02235174447,27584.98073637256,-187500.02235174447,-187500.02235174447,-187500.02235174447,-187500.02235174447,-187500.02235174447,1729947719.6673777,1729947719.243292,2000
12084.090660106023,-187500.02235174447,27519.8477530298,-187500.02235174447,-187500.02235174447,-187500.02235174447,-187500.02235174447,-187500.02235174447,1729947719.6713634,1729947719.243292,2000
12106.196535372324,-187500.02235174447,27583.52787298297,-187500.02235174447,-187500.02235174447,-187500.02235174447,-187500.02235174447,-187500.02235174447,1729947719.6753457,1729947719.243292,2000
12129.040018205646,-187500.02235174447,27638.13318468728,-187500.02235174447,-187500.02235174447,-187500.02235174447,-187500.02235174447,-187500.02235174447,1729947719.6792936,1729947719.243292,2000
12092.606674743494,-187500.02235174447,27576.93410836865,-187500.02235174447,-187500.02235174447,-187500.02235174447,-187500.02235174447,-187500.02235174447,1729947719.683454,1729947719.243292,2000
12045.109217775967,-187500.02235174447,27502.949834221585,-187500.02235174447,-187500.02235174447,-187500.02235174447,-187500.02235174447,-187500.02235174447,1729947719.6873388,1729947719.243292,2000
12109.616352273984,-187500.02235174447,27574.92245136767,-187500.02235174447,-187500.02235174447,-187500.02235174447,-187500.02235174447,-187500.02235174447,1729947719.6934524,1729947719.243292,2000
12216.90472565946,-187500.02235174447,27724.455621773675,-187500.02235174447,-187500.02235174447,-187500.02235174447,-187500.02235174447,-187500.02235174447,1729947719.6975088,1729947719.243292,2000
12153.02344000619,-187500.02235174447,27624.252751380536,-187500.02235174447,-187500.02235174447,-187500.02235174447,-187500.02235174447,-187500.02235174447,1729947719.702371,1729947719.243292,2000
12066.879816875437,-187500.02235174447,27511.8458285148,-187500.02235174447,-187500.02235174447,-187500.02235174447,-187500.02235174447,-187500.02235174447,1729947719.7055333,1729947719.243292,2000
12106.77768072816,-187500.02235174447,27592.40151553172,-187500.02235174447,-187500.02235174447,-187500.02235174447,-187500.02235174447,-187500.02235174447,1729947719.7084174,1729947719.243292,2000
12121.976866957768,-187500.02235174447,27646.112757457824,-187500.02235174447,-187500.02235174447,-187500.02235174447,-187500.02235174447,-187500.02235174447,1729947719.7124045,1729947719.243292,2000
12045.936232320812,-187500.02235174447,27581.225643304067,-187500.02235174447,-187500.02235174447,-187500.02235174447,-187500.02235174447,-187500.02235174447,1729947719.7156053,1729947719.243292,2000
12113.81848023158,-187500.02235174447,27579.973945614573,-187500.02235174447,-187500.02235174447,-187500.02235174447,-187500.02235174447,-187500.02235174447,1729947719.718541,1729947719.243292,2000
12112.812651731092,-187500.02235174447,27585.89715789523,-187500.02235174447,-187500.02235174447,-187500.02235174447,-187500.02235174447,-187500.02235174447,1729947719.7236147,1729947719.243292,2000
12185.098193299556,-187500.02235174447,27677.89693807327,-187500.02235174447,-187500.02235174447,-187500.02235174447,-187500.02235174447,-187500.02235174447,1729947719.727399,1729947719.243292,2000
12196.899914371956,-187500.02235174447,27655.00875175104,-187500.02235174447,-187500.02235174447,-187500.02235174447,-187500.02235174447,-187500.02235174447,1729947719.731485,1729947719.243292,2000
12093.836020688535,-187500.02235174447,27548.279171976945,-187500.02235174447,-187500.02235174447,-187500.02235174447,-187500.02235174447,-187500.02235174447,1729947719.735558,1729947719.243292,2000
12061.180122039334,-187500.02235174447,27534.465793903568,-187500.02235174447,-187500.02235174447,-187500.02235174447,-187500.02235174447,-187500.02235174447,1729947719.739634,1729947719.243292,2000
12160.444219165352,-187500.02235174447,27655.61224885133,-187500.02235174447,-187500.02235174447,-187500.02235174447,-187500.02235174447,-187500.02235174447,1729947719.7436893,1729947719.243292,2000
12198.71040567284,-187500.02235174447,27689.028106812017,-187500.02235174447,-187500.02235174447,-187500.02235174447,-187500.02235174447,-187500.02235174447,1729947719.7465816,1729947719.243292,2000
12052.462941701764,-187500.02235174447,27519.6465873297,-187500.02235174447,-187500.02235174447,-187500.02235174447,-187500.02235174447,-187500.02235174447,1729947719.7506535,1729947719.243292,2000
11964.352365058943,-187500.02235174447,27473.512586773944,-187500.02235174447,-187500.02235174447,-187500.02235174447,-187500.02235174447,-187500.02235174447,1729947719.7556987,1729947719.243292,2000
12164.288719211663,-187500.02235174447,27663.435359410687,-187500.02235174447,-187500.02235174447,-187500.02235174447,-187500.02235174447,-187500.02235174447,1729947719.7594776,1729947719.243292,2000
12255.930871478424,-187500.02235174447,27746.807366228983,-187500.02235174447,-187500.02235174447,-187500.02235174447,-187500.02235174447,-187500.02235174447,1729947719.7635033,1729947719.243292,2000
12127.184823415855,-187500.02235174447,27620.072975167397,-187500.02235174447,-187500.02235174447,-187500.02235174447,-187500.02235174447,-187500.02235174447,1729947719.7677035,1729947719.243292,2000
12036.52614790513,-187500.02235174447,27492.802142238877,-187500.02235174447,-187500.02235174447,-187500.02235174447,-187500.02235174447,-187500.02235174447,1729947719.771532,1729947719.243292,2000
12112.432672075352,-187500.02235174447,27598.861169679305,-187500.02235174447,-187500.02235174447,-187500.02235174447,-187500.02235174447,-187500.02235174447,1729947719.7746892,1729947719.243292,2000
12172.089478026566,-187500.02235174447,27675.70646711665,-187500.02235174447,-187500.02235174447,-187500.02235174447,-187500.02235174447,-187500.02235174447,1729947719.7784948,1729947719.243292,2000
12131.87868975147,-187500.02235174447,27612.5180855415,-187500.02235174447,-187500.02235174447,-187500.02235174447,-187500.02235174447,-187500.02235174447,1729947719.7834692,1729947719.243292,2000
12110.35395984101,-187500.02235174447,27535.8516020598,-187500.02235174447,-187500.02235174447,-187500.02235174447,-187500.02235174447,-187500.02235174447,1729947719.7875772,1729947719.243292,2000
12051.412409712364,-187500.02235174447,27541.283075962438,-187500.02235174447,-187500.02235174447,-187500.02235174447,-187500.02235174447,-187500.02235174447,1729947719.791698,1729947719.243292,2000
12134.605602575017,-187500.02235174447,27647.2750481695,-187500.02235174447,-187500.02235174447,-187500.02235174447,-187500.02235174447,-187500.02235174447,1729947719.795562,1729947719.243292,2000
12210.869754656524,-187500.02235174447,27681.920252075222,-187500.02235174447,-187500.02235174447,-187500.02235174447,-187500.02235174447,-187500.02235174447,1729947719.799724,1729947719.243292,2000
12074.278244290144,-187500.02235174447,27567.814596630884,-187500.02235174447,-187500.02235174447,-187500.02235174447,-187500.02235174447,-187500.02235174447,1729947719.8025253,1729947719.243292,2000
12082.369575782965,-187500.02235174447,27571.346172254824,-187500.02235174447,-187500.02235174447,-187500.02235174447,-187500.02235174447,-187500.02235174447,1729947719.8067288,1729947719.243292,2000
12209.0816151001,-187500.02235174447,27741.375892326345,-187500.02235174447,-187500.02235174447,-187500.02235174447,-187500.02235174447,-187500.02235174447,1729947719.811694,1729947719.243292,2000
12224.884298430004,-187500.02235174447,27677.025220039515,-187500.02235174447,-187500.02235174447,-187500.02235174447,-187500.02235174447,-187500.02235174447,1729947719.815621,1729947719.243292,2000
12096.58528525654,-187500.02235174447,27535.382215426234,-187500.02235174447,-187500.02235174447,-187500.02235174447,-187500.02235174447,-187500.02235174447,1729947719.819563,1729947719.243292,2000
12031.407598424865,-187500.02235174447,27516.047956472397,-187500.02235174447,-187500.02235174447,-187500.02235174447,-187500.02235174447,-187500.02235174447,1729947719.8237326,1729947719.243292,2000
12107.44823306182,-187500.02235174447,27646.71625455812,-187500.02235174447,-187500.02235174447,-187500.02235174447,-187500.02235174447,-187500.02235174447,1729947719.8265965,1729947719.243292,2000
12197.816335894626,-187500.02235174447,27683.59663290937,-187500.02235174447,-187500.02235174447,-187500.02235174447,-187500.02235174447,-187500.02235174447,1729947719.8305583,1729947719.243292,2000
12116.791262244138,-187500.02235174447,27576.196500801623,-187500.02235174447,-187500.02235174447,-187500.02235174447,-187500.02235174447,-187500.02235174447,1729947719.8347075,1729947719.243292,2000
12055.592185925509,-187500.02235174447,27569.960364098595,-187500.02235174447,-187500.02235174447,-187500.02235174447,-187500.02235174447,-187500.02235174447,1729947719.839753,1729947719.243292,2000
12124.346151870031,-187500.02235174447,27635.205106163638,-187500.02235174447,-187500.02235174447,-187500.02235174447,-187500.02235174447,-187500.02235174447,1729947719.843604,1729947719.243292,2000
12152.956384772824,-187500.02235174447,27649.01848423701,-187500.02235174447,-187500.02235174447,-187500.02235174447,-187500.02235174447,-187500.02235174447,1729947719.8476448,1729947719.243292,2000
12112.142099397432,-187500.02235174447,27608.85239945083,-187500.02235174447,-187500.02235174447,-187500.02235174447,-187500.02235174447,-187500.02235174447,1729947719.851672,1729947719.243292,2000
12091.042052631625,-187500.02235174447,27572.17318679967,-187500.02235174447,-187500.02235174447,-187500.02235174447,-187500.02235174447,-187500.02235174447,1729947719.854731,1729947719.243292,2000
12153.157550472924,-187500.02235174447,27659.65791459774,-187500.02235174447,-187500.02235174447,-187500.02235174447,-187500.02235174447,-187500.02235174447,1729947719.858631,1729947719.243292,2000
12116.277172121663,-187500.02235174447,27650.38194064879,-187500.02235174447,-187500.02235174447,-187500.02235174447,-187500.02235174447,-187500.02235174447,1729947719.8630047,1729947719.243292,2000
12039.72244736224,-187500.02235174447,27564.21596577358,-187500.02235174447,-187500.02235174447,-187500.02235174447,-187500.02235174447,-187500.02235174447,1729947719.866716,1729947719.243292,2000
12038.269583972644,-187500.02235174447,27506.92844473463,-187500.02235174447,-187500.02235174447,-187500.02235174447,-187500.02235174447,-187500.02235174447,1729947719.8727589,1729947719.243292,2000
12198.956274861846,-187500.02235174447,27606.326652327378,-187500.02235174447,-187500.02235174447,-187500.02235174447,-187500.02235174447,-187500.02235174447,1729947719.8756096,1729947719.243292,2000
12241.156368393466,-187500.02235174447,27699.265205772543,-187500.02235174447,-187500.02235174447,-187500.02235174447,-187500.02235174447,-187500.02235174447,1729947719.879711,1729947719.243292,2000
12118.847622734023,-187500.02235174447,27675.728818861106,-187500.02235174447,-187500.02235174447,-187500.02235174447,-187500.02235174447,-187500.02235174447,1729947719.8826318,1729947719.243292,2000
12003.646731811374,-187500.02235174447,27591.865073664794,-187500.02235174447,-187500.02235174447,-187500.02235174447,-187500.02235174447,-187500.02235174447,1729947719.8866343,1729947719.243292,2000
12082.034299616134,-187500.02235174447,27608.003033161527,-187500.02235174447,-187500.02235174447,-187500.02235174447,-187500.02235174447,-187500.02235174447,1729947719.89072,1729947719.243292,2000
12182.371280476009,-187500.02235174447,27690.81624636844,-187500.02235174447,-187500.02235174447,-187500.02235174447,-187500.02235174447,-187500.02235174447,1729947719.8946204,1729947719.243292,2000
12177.36448971802,-187500.02235174447,27641.240077166567,-187500.02235174447,-187500.02235174447,-187500.02235174447,-187500.02235174447,-187500.02235174447,1729947719.899774,1729947719.243292,2000
12094.551276511109,-187500.02235174447,27546.64749463171,-187500.02235174447,-187500.02235174447,-187500.02235174447,-187500.02235174447,-187500.02235174447,1729947719.9037125,1729947719.243292,2000
12018.46593838524,-187500.02235174447,27618.79892573344,-187500.02235174447,-187500.02235174447,-187500.02235174447,-187500.02235174447,-187500.02235174447,1729947719.9066496,1729947719.243292,2000
12187.869809612012,-187500.02235174447,27792.06964875098,-187500.02235174447,-187500.02235174447,-187500.02235174447,-187500.02235174447,-187500.02235174447,1729947719.9106293,1729947719.243292,2000
12252.46635108785,-187500.02235174447,27758.474976834656,-187500.02235174447,-187500.02235174447,-187500.02235174447,-187500.02235174447,-187500.02235174447,1729947719.9147542,1729947719.243292,2000
12106.44240456133,-187500.02235174447,27566.07116056337,-187500.02235174447,-187500.02235174447,-187500.02235174447,-187500.02235174447,-187500.02235174447,1729947719.9186568,1729947719.243292,2000
12072.132476822431,-187500.02235174447,27550.894326078214,-187500.02235174447,-187500.02235174447,-187500.02235174447,-187500.02235174447,-187500.02235174447,1729947719.9226496,1729947719.243292,2000
12142.473416623285,-187500.02235174447,27658.696789586164,-187500.02235174447,-187500.02235174447,-187500.02235174447,-187500.02235174447,-187500.02235174447,1729947719.927668,1729947719.243292,2000
12179.89023684147,-187500.02235174447,27648.727911559097,-187500.02235174447,-187500.02235174447,-187500.02235174447,-187500.02235174447,-187500.02235174447,1729947719.930874,1729947719.243292,2000
12067.595072698006,-187500.02235174447,27540.41135792868,-187500.02235174447,-187500.02235174447,-187500.02235174447,-187500.02235174447,-187500.02235174447,1729947719.9346995,1729947719.243292,2000
12108.118785395478,-187500.02235174447,27640.524821344,-187500.02235174447,-187500.02235174447,-187500.02235174447,-187500.02235174447,-187500.02235174447,1729947719.9389284,1729947719.243292,2000
12222.42560653992,-187500.02235174447,27764.577003070957,-187500.02235174447,-187500.02235174447,-187500.02235174447,-187500.02235174447,-187500.02235174447,1729947719.9428196,1729947719.243292,2000
12197.481059727796,-187500.02235174447,27714.57615072443,-187500.02235174447,-187500.02235174447,-187500.02235174447,-187500.02235174447,-187500.02235174447,1729947719.9467304,1729947719.243292,2000
12100.16156436939,-187500.02235174447,27582.767913671487,-187500.02235174447,-187500.02235174447,-187500.02235174447,-187500.02235174447,-187500.02235174447,1729947719.9527168,1729947719.243292,2000
12006.70892080175,-187500.02235174447,27532.565895624863,-187500.02235174447,-187500.02235174447,-187500.02235174447,-187500.02235174447,-187500.02235174447,1729947719.955815,1729947719.243292,2000
12138.740675299248,-187500.02235174447,27651.343065660367,-187500.02235174447,-187500.02235174447,-187500.02235174447,-187500.02235174447,-187500.02235174447,1729947719.959721,1729947719.243292,2000
12251.28170863172,-187500.02235174447,27782.41369514629,-187500.02235174447,-187500.02235174447,-187500.02235174447,-187500.02235174447,-187500.02235174447,1729947719.962864,1729947719.243292,2000
12149.536567871162,-187500.02235174447,27629.527763071987,-187500.02235174447,-187500.02235174447,-187500.02235174447,-187500.02235174447,-187500.02235174447,1729947719.9667735,1729947719.243292,2000
12096.607637000996,-187500.02235174447,27535.628084615244,-187500.02235174447,-187500.02235174447,-187500.02235174447,-187500.02235174447,-187500.02235174447,1729947719.9709437,1729947719.243292,2000
12078.614482714473,-187500.02235174447,27626.17500140369,-187500.02235174447,-187500.02235174447,-187500.02235174447,-187500.02235174447,-187500.02235174447,1729947719.9749188,1729947719.243292,2000
12142.674582323383,-187500.02235174447,27739.274828347545,-187500.02235174447,-187500.02235174447,-187500.02235174447,-187500.02235174447,-187500.02235174447,1729947719.9787996,1729947719.243292,2000
12201.88435338549,-187500.02235174447,27657.13216747429,-187500.02235174447,-187500.02235174447,-187500.02235174447,-187500.02235174447,-187500.02235174447,1729947719.983938,1729947719.243292,2000
12146.295564925143,-187500.02235174447,27529.615465356765,-187500.02235174447,-187500.02235174447,-187500.02235174447,-187500.02235174447,-187500.02235174447,1729947719.9868526,1729947719.243292,2000
12125.977829215268,-187500.02235174447,27585.517178239486,-187500.02235174447,-187500.02235174447,-187500.02235174447,-187500.02235174447,-187500.02235174447,1729947719.9900312,1729947719.243292,2000
12164.914568056414,-187500.02235174447,27710.39637451129,-187500.02235174447,-187500.02235174447,-187500.02235174447,-187500.02235174447,-187500.02235174447,1729947719.994779,1729947719.243292,2000
12146.563785858609,-187500.02235174447,27643.721120801107,-187500.02235174447,-187500.02235174447,-187500.02235174447,-187500.02235174447,-187500.02235174447,1729947719.9989731,1729947719.243292,2000
12090.48325902024,-187500.02235174447,27575.97298335707,-187500.02235174447,-187500.02235174447,-187500.02235174447,-187500.02235174447,-187500.02235174447,1729947720.002823,1729947719.243292,2000
12127.788320516149,-187500.02235174447,27582.812617160394,-187500.02235174447,-187500.02235174447,-187500.02235174447,-187500.02235174447,-187500.02235174447,1729947720.0070217,1729947719.243292,2000
12210.1321470895,-187500.02235174447,27738.06783414696,-187500.02235174447,-187500.02235174447,-187500.02235174447,-187500.02235174447,-187500.02235174447,1729947720.0118134,1729947719.243292,2000
12206.153536576456,-187500.02235174447,27718.979444382127,-187500.02235174447,-187500.02235174447,-187500.02235174447,-187500.02235174447,-187500.02235174447,1729947720.0149205,1729947719.243292,2000
12087.44342177432,-187500.02235174447,27566.004105330005,-187500.02235174447,-187500.02235174447,-187500.02235174447,-187500.02235174447,-187500.02235174447,1729947720.0198925,1729947719.243292,2000
12061.694212161805,-187500.02235174447,27569.669791420674,-187500.02235174447,-187500.02235174447,-187500.02235174447,-187500.02235174447,-187500.02235174447,1729947720.024058,1729947719.243292,2000
12163.372297688997,-187500.02235174447,27716.856028658876,-187500.02235174447,-187500.02235174447,-187500.02235174447,-187500.02235174447,-187500.02235174447,1729947720.0279973,1729947719.243292,2000
12185.858152611036,-187500.02235174447,27741.10767139288,-187500.02235174447,-187500.02235174447,-187500.02235174447,-187500.02235174447,-187500.02235174447,1729947720.031964,1729947719.243292,2000
12094.372462555464,-187500.02235174447,27583.52787298297,-187500.02235174447,-187500.02235174447,-187500.02235174447,-187500.02235174447,-187500.02235174447,1729947720.036852,1729947719.243292,2000
12060.28605226112,-187500.02235174447,27538.243238716517,-187500.02235174447,-187500.02235174447,-187500.02235174447,-187500.02235174447,-187500.02235174447,1729947720.0398796,1729947719.243292,2000
12225.532499019206,-187500.02235174447,27712.09510708989,-187500.02235174447,-187500.02235174447,-187500.02235174447,-187500.02235174447,-187500.02235174447,1729947720.0448856,1729947719.243292,2000
12214.714254702838,-187500.02235174447,27728.92597066474,-187500.02235174447,-187500.02235174447,-187500.02235174447,-187500.02235174447,-187500.02235174447,1729947720.0479324,1729947719.243292,2000
12068.355032009487,-187500.02235174447,27570.45210247661,-187500.02235174447,-187500.02235174447,-187500.02235174447,-187500.02235174447,-187500.02235174447,1729947720.0519297,1729947719.243292,2000
12049.467807944751,-187500.02235174447,27576.59883220182,-187500.02235174447,-187500.02235174447,-187500.02235174447,-187500.02235174447,-187500.02235174447,1729947720.0549767,1729947719.243292,2000
12165.048678523146,-187500.02235174447,27679.37215320732,-187500.02235174447,-187500.02235174447,-187500.02235174447,-187500.02235174447,-187500.02235174447,1729947720.05889,1729947719.243292,2000
12177.990338562768,-187500.02235174447,27724.477973518133,-187500.02235174447,-187500.02235174447,-187500.02235174447,-187500.02235174447,-187500.02235174447,1729947720.062886,1729947719.243292,2000
12114.220811631778,-187500.02235174447,27592.40151553172,-187500.02235174447,-187500.02235174447,-187500.02235174447,-187500.02235174447,-187500.02235174447,1729947720.0669308,1729947719.243292,2000
12092.450212532309,-187500.02235174447,27496.15490390717,-187500.02235174447,-187500.02235174447,-187500.02235174447,-187500.02235174447,-187500.02235174447,1729947720.0699153,1729947719.243292,2000
12127.698913538326,-187500.02235174447,27644.36932139031,-187500.02235174447,-187500.02235174447,-187500.02235174447,-187500.02235174447,-187500.02235174447,1729947720.0739176,1729947719.243292,2000
12193.569504448118,-187500.02235174447,27769.896718251315,-187500.02235174447,-187500.02235174447,-187500.02235174447,-187500.02235174447,-187500.02235174447,1729947720.0779214,1729947719.243292,2000
12131.297544395631,-187500.02235174447,27671.929022303702,-187500.02235174447,-187500.02235174447,-187500.02235174447,-187500.02235174447,-187500.02235174447,1729947720.0829663,1729947719.243292,2000
12016.454281384264,-187500.02235174447,27518.99838674049,-187500.02235174447,-187500.02235174447,-187500.02235174447,-187500.02235174447,-187500.02235174447,1729947720.0870943,1729947719.243292,2000
12146.183806202866,-187500.02235174447,27605.767858716,-187500.02235174447,-187500.02235174447,-187500.02235174447,-187500.02235174447,-187500.02235174447,1729947720.0911057,1729947719.243292,2000
12280.115458979066,-187500.02235174447,27768.08622695044,-187500.02235174447,-187500.02235174447,-187500.02235174447,-187500.02235174447,-187500.02235174447,1729947720.0939157,1729947719.243292,2000
12202.867830141526,-187500.02235174447,27680.400333452268,-187500.02235174447,-187500.02235174447,-187500.02235174447,-187500.02235174447,-187500.02235174447,1729947720.100064,1729947719.243292,2000
12056.799180126094,-187500.02235174447,27540.344302695317,-187500.02235174447,-187500.02235174447,-187500.02235174447,-187500.02235174447,-187500.02235174447,1729947720.1040928,1729947719.243292,2000
12034.827415326528,-187500.02235174447,27546.468680676066,-187500.02235174447,-187500.02235174447,-187500.02235174447,-187500.02235174447,-187500.02235174447,1729947720.1071568,1729947719.243292,2000
12156.420905163395,-187500.02235174447,27663.971801277617,-187500.02235174447,-187500.02235174447,-187500.02235174447,-187500.02235174447,-187500.02235174447,1729947720.1109676,1729947719.243292,2000
12186.79692587816,-187500.02235174447,27711.24574080059,-187500.02235174447,-187500.02235174447,-187500.02235174447,-187500.02235174447,-187500.02235174447,1729947720.1151152,1729947719.243292,2000
12058.2967470046,-187500.02235174447,27593.049716120928,-187500.02235174447,-187500.02235174447,-187500.02235174447,-187500.02235174447,-187500.02235174447,1729947720.118978,1729947719.243292,2000
12066.566892453062,-187500.02235174447,27609.992338418047,-187500.02235174447,-187500.02235174447,-187500.02235174447,-187500.02235174447,-187500.02235174447,1729947720.1220102,1729947719.243292,2000
12213.909591902446,-187500.02235174447,27740.615933014866,-187500.02235174447,-187500.02235174447,-187500.02235174447,-187500.02235174447,-187500.02235174447,1729947720.1260722,1729947719.243292,2000
12198.576295206109,-187500.02235174447,27734.4468515452,-187500.02235174447,-187500.02235174447,-187500.02235174447,-187500.02235174447,-187500.02235174447,1729947720.13,1729947719.243292,2000
12063.616462184962,-187500.02235174447,27542.713587607574,-187500.02235174447,-187500.02235174447,-187500.02235174447,-187500.02235174447,-187500.02235174447,1729947720.1340249,1729947719.243292,2000
12073.160657067378,-187500.02235174447,27536.34334043781,-187500.02235174447,-187500.02235174447,-187500.02235174447,-187500.02235174447,-187500.02235174447,1729947720.1392052,1729947719.243292,2000
12228.773501965226,-187500.02235174447,27684.89303408778,-187500.02235174447,-187500.02235174447,-187500.02235174447,-187500.02235174447,-187500.02235174447,1729947720.1440628,1729947719.243292,2000
12191.960178847336,-187500.02235174447,27732.25638058858,-187500.02235174447,-187500.02235174447,-187500.02235174447,-187500.02235174447,-187500.02235174447,1729947720.1470475,1729947719.243292,2000
12029.172423979331,-187500.02235174447,27602.482152281067,-187500.02235174447,-187500.02235174447,-187500.02235174447,-187500.02235174447,-187500.02235174447,1729947720.151218,1729947719.243292,2000
12028.278354201122,-187500.02235174447,27537.21505847157,-187500.02235174447,-187500.02235174447,-187500.02235174447,-187500.02235174447,-187500.02235174447,1729947720.1540666,1729947719.243292,2000
12212.479080257306,-187500.02235174447,27682.61315615334,-187500.02235174447,-187500.02235174447,-187500.02235174447,-187500.02235174447,-187500.02235174447,1729947720.1581042,1729947719.243292,2000
12266.749115794792,-187500.02235174447,27748.841374974418,-187500.02235174447,-187500.02235174447,-187500.02235174447,-187500.02235174447,-187500.02235174447,1729947720.1621876,1729947719.243292,2000
12108.074081906569,-187500.02235174447,27622.08463216837,-187500.02235174447,-187500.02235174447,-187500.02235174447,-187500.02235174447,-187500.02235174447,1729947720.1661775,1729947719.243292,2000
12042.695229374796,-187500.02235174447,27552.3024859789,-187500.02235174447,-187500.02235174447,-187500.02235174447,-187500.02235174447,-187500.02235174447,1729947720.1712167,1729947719.243292,2000
12109.92927669636,-187500.02235174447,27631.405309606234,-187500.02235174447,-187500.02235174447,-187500.02235174447,-187500.02235174447,-187500.02235174447,1729947720.1741006,1729947719.243292,2000
12217.351760548563,-187500.02235174447,27714.86672340235,-187500.02235174447,-187500.02235174447,-187500.02235174447,-187500.02235174447,-187500.02235174447,1729947720.1791515,1729947719.243292,2000
12221.240964083789,-187500.02235174447,27683.99896430957,-187500.02235174447,-187500.02235174447,-187500.02235174447,-187500.02235174447,-187500.02235174447,1729947720.1821396,1729947719.243292,2000
12077.787468169628,-187500.02235174447,27551.96720981207,-187500.02235174447,-187500.02235174447,-187500.02235174447,-187500.02235174447,-187500.02235174447,1729947720.1860971,1729947719.243292,2000
12065.672822674853,-187500.02235174447,27619.022443177997,-187500.02235174447,-187500.02235174447,-187500.02235174447,-187500.02235174447,-187500.02235174447,1729947720.190292,1729947719.243292,2000
12199.448013239862,-187500.02235174447,27746.270924362056,-187500.02235174447,-187500.02235174447,-187500.02235174447,-187500.02235174447,-187500.02235174447,1729947720.1941848,1729947719.243292,2000
12167.507370413228,-187500.02235174447,27692.62673766932,-187500.02235174447,-187500.02235174447,-187500.02235174447,-187500.02235174447,-187500.02235174447,1729947720.1993446,1729947719.243292,2000
12037.66608687235,-187500.02235174447,27533.97405552555,-187500.02235174447,-187500.02235174447,-187500.02235174447,-187500.02235174447,-187500.02235174447,1729947720.2021637,1729947719.243292,2000
12022.019865753637,-187500.02235174447,27542.8029945854,-187500.02235174447,-187500.02235174447,-187500.02235174447,-187500.02235174447,-187500.02235174447,1729947720.2063956,1729947719.243292,2000
12147.502559125727,-187500.02235174447,27688.75988587855,-187500.02235174447,-187500.02235174447,-187500.02235174447,-187500.02235174447,-187500.02235174447,1729947720.2104216,1729947719.243292,2000
12156.130332485478,-187500.02235174447,27694.52663594802,-187500.02235174447,-187500.02235174447,-187500.02235174447,-187500.02235174447,-187500.02235174447,1729947720.214354,1729947719.243292,2000
12096.29471257862,-187500.02235174447,27563.94774484012,-187500.02235174447,-187500.02235174447,-187500.02235174447,-187500.02235174447,-187500.02235174447,1729947720.2183557,1729947719.243292,2000
12079.687366448328,-187500.02235174447,27544.613485886275,-187500.02235174447,-187500.02235174447,-187500.02235174447,-187500.02235174447,-187500.02235174447,1729947720.2224083,1729947719.243292,2000
12181.74543163126,-187500.02235174447,27716.18547632521,-187500.02235174447,-187500.02235174447,-187500.02235174447,-187500.02235174447,-187500.02235174447,1729947720.2272236,1729947719.243292,2000
12199.98445510679,-187500.02235174447,27776.57988984345,-187500.02235174447,-187500.02235174447,-187500.02235174447,-187500.02235174447,-187500.02235174447,1729947720.2302952,1729947719.243292,2000
12097.38994805693,-187500.02235174447,27616.384937332263,-187500.02235174447,-187500.02235174447,-187500.02235174447,-187500.02235174447,-187500.02235174447,1729947720.2342324,1729947719.243292,2000
12051.926499834835,-187500.02235174447,27566.272326263468,-187500.02235174447,-187500.02235174447,-187500.02235174447,-187500.02235174447,-187500.02235174447,1729947720.2382662,1729947719.243292,2000
12144.753294557726,-187500.02235174447,27659.680266342195,-187500.02235174447,-187500.02235174447,-187500.02235174447,-187500.02235174447,-187500.02235174447,1729947720.2424796,1729947719.243292,2000
12224.347856563076,-187500.02235174447,27750.27188661956,-187500.02235174447,-187500.02235174447,-187500.02235174447,-187500.02235174447,-187500.02235174447,1729947720.2463777,1729947719.243292,2000
12153.381067917477,-187500.02235174447,27651.99126624957,-187500.02235174447,-187500.02235174447,-187500.02235174447,-187500.02235174447,-187500.02235174447,1729947720.250419,1729947719.243292,2000
12111.270381363676,-187500.02235174447,27546.267514975967,-187500.02235174447,-187500.02235174447,-187500.02235174447,-187500.02235174447,-187500.02235174447,1729947720.255393,1729947719.243292,2000
12138.092474710043,-187500.02235174447,27672.644278126278,-187500.02235174447,-187500.02235174447,-187500.02235174447,-187500.02235174447,-187500.02235174447,1729947720.2583542,1729947719.243292,2000
12186.819277622615,-187500.02235174447,27751.009494186583,-187500.02235174447,-187500.02235174447,-187500.02235174447,-187500.02235174447,-187500.02235174447,1729947720.2613745,1729947719.243292,2000
12149.78243706017,-187500.02235174447,27662.04955125446,-187500.02235174447,-187500.02235174447,-187500.02235174447,-187500.02235174447,-187500.02235174447,1729947720.266534,1729947719.243292,2000
12078.68153794784,-187500.02235174447,27625.70561477013,-187500.02235174447,-187500.02235174447,-187500.02235174447,-187500.02235174447,-187500.02235174447,1729947720.2704072,1729947719.243292,2000
12100.809764958592,-187500.02235174447,27722.19809558369,-187500.02235174447,-187500.02235174447,-187500.02235174447,-187500.02235174447,-187500.02235174447,1729947720.2744076,1729947719.243292,2000
12174.682280383382,-187500.02235174447,27743.05227316049,-187500.02235174447,-187500.02235174447,-187500.02235174447,-187500.02235174447,-187500.02235174447,1729947720.280984,1729947719.243292,2000
12139.768855544193,-187500.02235174447,27623.202219391136,-187500.02235174447,-187500.02235174447,-187500.02235174447,-187500.02235174447,-187500.02235174447,1729947720.283656,1729947719.243292,2000
12058.0955813045,-187500.02235174447,27542.557125396383,-187500.02235174447,-187500.02235174447,-187500.02235174447,-187500.02235174447,-187500.02235174447,1729947720.286383,1729947719.243292,2000
12087.801049685604,-187500.02235174447,27597.60947198981,-187500.02235174447,-187500.02235174447,-187500.02235174447,-187500.02235174447,-187500.02235174447,1729947720.2905583,1729947719.243292,2000
12187.60158867855,-187500.02235174447,27704.406106997267,-187500.02235174447,-187500.02235174447,-187500.02235174447,-187500.02235174447,-187500.02235174447,1729947720.2943096,1729947719.243292,2000
12184.673510154906,-187500.02235174447,27662.20601346565,-187500.02235174447,-187500.02235174447,-187500.02235174447,-187500.02235174447,-187500.02235174447,1729947720.2984896,1729947719.243292,2000
12079.39679377041,-187500.02235174447,27543.74176785252,-187500.02235174447,-187500.02235174447,-187500.02235174447,-187500.02235174447,-187500.02235174447,1729947720.302344,1729947719.243292,2000
12115.360750598998,-187500.02235174447,27600.381088302267,-187500.02235174447,-187500.02235174447,-187500.02235174447,-187500.02235174447,-187500.02235174447,1729947720.306578,1729947719.243292,2000
12160.26540520971,-187500.02235174447,27688.961051578648,-187500.02235174447,-187500.02235174447,-187500.02235174447,-187500.02235174447,-187500.02235174447,1729947720.3103428,1729947719.243292,2000
12142.16049220091,-187500.02235174447,27682.00965905305,-187500.02235174447,-187500.02235174447,-187500.02235174447,-187500.02235174447,-187500.02235174447,1729947720.31364,1729947719.243292,2000
12104.67661674936,-187500.02235174447,27615.04383266495,-187500.02235174447,-187500.02235174447,-187500.02235174447,-187500.02235174447,-187500.02235174447,1729947720.3176332,1729947719.243292,2000
12103.402567315408,-187500.02235174447,27580.68920143714,-187500.02235174447,-187500.02235174447,-187500.02235174447,-187500.02235174447,-187500.02235174447,1729947720.322526,1729947719.243292,2000
12214.42368202492,-187500.02235174447,27693.34199349189,-187500.02235174447,-187500.02235174447,-187500.02235174447,-187500.02235174447,-187500.02235174447,1729947720.3266015,1729947719.243292,2000
12171.418925692908,-187500.02235174447,27742.06879640446,-187500.02235174447,-187500.02235174447,-187500.02235174447,-187500.02235174447,-187500.02235174447,1729947720.3305857,1729947719.243292,2000
12083.375404283452,-187500.02235174447,27646.47038536911,-187500.02235174447,-187500.02235174447,-187500.02235174447,-187500.02235174447,-187500.02235174447,1729947720.3344288,1729947719.243292,2000
12071.461924488774,-187500.02235174447,27586.03126836196,-187500.02235174447,-187500.02235174447,-187500.02235174447,-187500.02235174447,-187500.02235174447,1729947720.3374577,1729947719.243292,2000
12139.143006699444,-187500.02235174447,27691.352688235365,-187500.02235174447,-187500.02235174447,-187500.02235174447,-187500.02235174447,-187500.02235174447,1729947720.341602,1729947719.243292,2000
12155.616242363008,-187500.02235174447,27716.118421091847,-187500.02235174447,-187500.02235174447,-187500.02235174447,-187500.02235174447,-187500.02235174447,1729947720.345382,1729947719.243292,2000
12165.36160294552,-187500.02235174447,27653.935868017183,-187500.02235174447,-187500.02235174447,-187500.02235174447,-187500.02235174447,-187500.02235174447,1729947720.3515873,1729947719.243292,2000
12103.067291148578,-187500.02235174447,27570.42975073216,-187500.02235174447,-187500.02235174447,-187500.02235174447,-187500.02235174447,-187500.02235174447,1729947720.354395,1729947719.243292,2000
12151.12354172749,-187500.02235174447,27630.958274717126,-187500.02235174447,-187500.02235174447,-187500.02235174447,-187500.02235174447,-187500.02235174447,1729947720.358518,1729947719.243292,2000
12204.566562720129,-187500.02235174447,27732.16697361076,-187500.02235174447,-187500.02235174447,-187500.02235174447,-187500.02235174447,-187500.02235174447,1729947720.3646576,1729947719.243292,2000
12130.515233339696,-187500.02235174447,27640.90480099974,-187500.02235174447,-187500.02235174447,-187500.02235174447,-187500.02235174447,-187500.02235174447,1729947720.3676789,1729947719.243292,2000
12039.767150851148,-187500.02235174447,27544.658189375183,-187500.02235174447,-187500.02235174447,-187500.02235174447,-187500.02235174447,-187500.02235174447,1729947720.37054,1729947719.243292,2000
12148.933070770869,-187500.02235174447,27654.15938546173,-187500.02235174447,-187500.02235174447,-187500.02235174447,-187500.02235174447,-187500.02235174447,1729947720.3744729,1729947719.243292,2000
12279.020223500756,-187500.02235174447,27817.81885836349,-187500.02235174447,-187500.02235174447,-187500.02235174447,-187500.02235174447,-187500.02235174447,1729947720.377446,1729947719.243292,2000
12159.751315087238,-187500.02235174447,27710.91046463376,-187500.02235174447,-187500.02235174447,-187500.02235174447,-187500.02235174447,-187500.02235174447,1729947720.3824573,1729947719.243292,2000
12036.61555488295,-187500.02235174447,27560.013837815983,-187500.02235174447,-187500.02235174447,-187500.02235174447,-187500.02235174447,-187500.02235174447,1729947720.3864553,1729947719.243292,2000
12026.870194300438,-187500.02235174447,27553.37536971276,-187500.02235174447,-187500.02235174447,-187500.02235174447,-187500.02235174447,-187500.02235174447,1729947720.3906724,1729947719.243292,2000
12195.044719582169,-187500.02235174447,27703.84731338588,-187500.02235174447,-187500.02235174447,-187500.02235174447,-187500.02235174447,-187500.02235174447,1729947720.3935988,1729947719.243292,2000
12222.135033862,-187500.02235174447,27683.641336398287,-187500.02235174447,-187500.02235174447,-187500.02235174447,-187500.02235174447,-187500.02235174447,1729947720.3976114,1729947719.243292,2000
12086.281131062644,-187500.02235174447,27575.145968812227,-187500.02235174447,-187500.02235174447,-187500.02235174447,-187500.02235174447,-187500.02235174447,1729947720.4015632,1729947719.243292,2000
12104.698968493816,-187500.02235174447,27631.94175147316,-187500.02235174447,-187500.02235174447,-187500.02235174447,-187500.02235174447,-187500.02235174447,1729947720.406742,1729947719.243292,2000
12221.687998972891,-187500.02235174447,27749.511927308075,-187500.02235174447,-187500.02235174447,-187500.02235174447,-187500.02235174447,-187500.02235174447,1729947720.4104817,1729947719.243292,2000
12184.40528922144,-187500.02235174447,27704.450810486174,-187500.02235174447,-187500.02235174447,-187500.02235174447,-187500.02235174447,-187500.02235174447,1729947720.415664,1729947719.243292,2000
12118.646457033929,-187500.02235174447,27634.959236974628,-187500.02235174447,-187500.02235174447,-187500.02235174447,-187500.02235174447,-187500.02235174447,1729947720.4194367,1729947719.243292,2000
12097.72522422376,-187500.02235174447,27623.246922880047,-187500.02235174447,-187500.02235174447,-187500.02235174447,-187500.02235174447,-187500.02235174447,1729947720.422658,1729947719.243292,2000
12170.927187314892,-187500.02235174447,27679.595670651877,-187500.02235174447,-187500.02235174447,-187500.02235174447,-187500.02235174447,-187500.02235174447,1729947720.427523,1729947719.243292,2000
12165.74158260126,-187500.02235174447,27696.962976093648,-187500.02235174447,-187500.02235174447,-187500.02235174447,-187500.02235174447,-187500.02235174447,1729947720.4306772,1729947719.243292,2000
12094.841849189026,-187500.02235174447,27612.60749251932,-187500.02235174447,-187500.02235174447,-187500.02235174447,-187500.02235174447,-187500.02235174447,1729947720.4336493,1729947719.243292,2000
12083.040128116623,-187500.02235174447,27587.6629457072,-187500.02235174447,-187500.02235174447,-187500.02235174447,-187500.02235174447,-187500.02235174447,1729947720.4387674,1729947719.243292,2000
12179.152629274444,-187500.02235174447,27705.456638986667,-187500.02235174447,-187500.02235174447,-187500.02235174447,-187500.02235174447,-187500.02235174447,1729947720.4425185,1729947719.243292,2000
12219.27401057172,-187500.02235174447,27739.54304928101,-187500.02235174447,-187500.02235174447,-187500.02235174447,-187500.02235174447,-187500.02235174447,1729947720.4456851,1729947719.243292,2000
12124.25674489221,-187500.02235174447,27613.635672764263,-187500.02235174447,-187500.02235174447,-187500.02235174447,-187500.02235174447,-187500.02235174447,1729947720.4498165,1729947719.243292,2000
12048.95371782228,-187500.02235174447,27536.0974712488,-187500.02235174447,-187500.02235174447,-187500.02235174447,-187500.02235174447,-187500.02235174447,1729947720.4535956,1729947719.243292,2000
12133.219794418788,-187500.02235174447,27662.988324521582,-187500.02235174447,-187500.02235174447,-187500.02235174447,-187500.02235174447,-187500.02235174447,1729947720.4578276,1729947719.243292,2000
12270.481857118828,-187500.02235174447,27784.917090525283,-187500.02235174447,-187500.02235174447,-187500.02235174447,-187500.02235174447,-187500.02235174447,1729947720.4616249,1729947719.243292,2000
12184.919379343914,-187500.02235174447,27643.36349288982,-187500.02235174447,-187500.02235174447,-187500.02235174447,-187500.02235174447,-187500.02235174447,1729947720.4667451,1729947719.243292,2000
12017.504813373664,-187500.02235174447,27567.54637569742,-187500.02235174447,-187500.02235174447,-187500.02235174447,-187500.02235174447,-187500.02235174447,1729947720.470647,1729947719.243292,2000
12121.820404746582,-187500.02235174447,27694.45958071465,-187500.02235174447,-187500.02235174447,-187500.02235174447,-187500.02235174447,-187500.02235174447,1729947720.4736938,1729947719.243292,2000
12267.263205917265,-187500.02235174447,27786.43700914824,-187500.02235174447,-187500.02235174447,-187500.02235174447,-187500.02235174447,-187500.02235174447,1729947720.4775574,1729947719.243292,2000
12174.011728049723,-187500.02235174447,27695.219540026133,-187500.02235174447,-187500.02235174447,-187500.02235174447,-187500.02235174447,-187500.02235174447,1729947720.481732,1729947719.243292,2000
12088.896285163912,-187500.02235174447,27535.8516020598,-187500.02235174447,-187500.02235174447,-187500.02235174447,-187500.02235174447,-187500.02235174447,1729947720.4856963,1729947719.243292,2000
12097.412299801386,-187500.02235174447,27596.42482953368,-187500.02235174447,-187500.02235174447,-187500.02235174447,-187500.02235174447,-187500.02235174447,1729947720.4897704,1729947719.243292,2000
12182.393632220464,-187500.02235174447,27745.868592961862,-187500.02235174447,-187500.02235174447,-187500.02235174447,-187500.02235174447,-187500.02235174447,1729947720.4945872,1729947719.243292,2000
12176.64923389545,-187500.02235174447,27707.87062738784,-187500.02235174447,-187500.02235174447,-187500.02235174447,-187500.02235174447,-187500.02235174447,1729947720.4988325,1729947719.243292,2000
12090.125631108956,-187500.02235174447,27599.263501079506,-187500.02235174447,-187500.02235174447,-187500.02235174447,-187500.02235174447,-187500.02235174447,1729947720.5019112,1729947719.243292,2000
12103.290808593132,-187500.02235174447,27607.80186746143,-187500.02235174447,-187500.02235174447,-187500.02235174447,-187500.02235174447,-187500.02235174447,1729947720.5057745,1729947719.243292,2000
12224.571374007628,-187500.02235174447,27743.856935960885,-187500.02235174447,-187500.02235174447,-187500.02235174447,-187500.02235174447,-187500.02235174447,1729947720.5097437,1729947719.243292,2000
12204.633617953494,-187500.02235174447,27708.45177274368,-187500.02235174447,-187500.02235174447,-187500.02235174447,-187500.02235174447,-187500.02235174447,1729947720.5137317,1729947719.243292,2000
12086.661110718383,-187500.02235174447,27574.25189903401,-187500.02235174447,-187500.02235174447,-187500.02235174447,-187500.02235174447,-187500.02235174447,1729947720.517812,1729947719.243292,2000
12060.062534816569,-187500.02235174447,27567.54637569742,-187500.02235174447,-187500.02235174447,-187500.02235174447,-187500.02235174447,-187500.02235174447,1729947720.5237403,1729947719.243292,2000
12183.287701998675,-187500.02235174447,27715.89490364729,-187500.02235174447,-187500.02235174447,-187500.02235174447,-187500.02235174447,-187500.02235174447,1729947720.5267987,1729947719.243292,2000
12238.921193947936,-187500.02235174447,27716.029014114025,-187500.02235174447,-187500.02235174447,-187500.02235174447,-187500.02235174447,-187500.02235174447,1729947720.5308297,1729947719.243292,2000
12131.677524051373,-187500.02235174447,27580.800960159417,-187500.02235174447,-187500.02235174447,-187500.02235174447,-187500.02235174447,-187500.02235174447,1729947720.5337229,1729947719.243292,2000
12008.787633036094,-187500.02235174447,27534.152869481197,-187500.02235174447,-187500.02235174447,-187500.02235174447,-187500.02235174447,-187500.02235174447,1729947720.5378585,1729947719.243292,2000
12162.478227910786,-187500.02235174447,27718.375947281835,-187500.02235174447,-187500.02235174447,-187500.02235174447,-187500.02235174447,-187500.02235174447,1729947720.54173,1729947719.243292,2000
12236.775426480226,-187500.02235174447,27773.763570042083,-187500.02235174447,-187500.02235174447,-187500.02235174447,-187500.02235174447,-187500.02235174447,1729947720.545876,1729947719.243292,2000
12147.12257946999,-187500.02235174447,27635.80860326393,-187500.02235174447,-187500.02235174447,-187500.02235174447,-187500.02235174447,-187500.02235174447,1729947720.5498023,1729947719.243292,2000
12081.989596127223,-187500.02235174447,27567.255803019503,-187500.02235174447,-187500.02235174447,-187500.02235174447,-187500.02235174447,-187500.02235174447,1729947720.5537083,1729947719.243292,2000
12149.916547526902,-187500.02235174447,27675.6841153722,-187500.02235174447,-187500.02235174447,-187500.02235174447,-187500.02235174447,-187500.02235174447,1729947720.5568657,1729947719.243292,2000
12229.511109532252,-187500.02235174447,27806.151247757825,-187500.02235174447,-187500.02235174447,-187500.02235174447,-187500.02235174447,-187500.02235174447,1729947720.561684,1729947719.243292,2000
12196.78815564968,-187500.02235174447,27690.52567369052,-187500.02235174447,-187500.02235174447,-187500.02235174447,-187500.02235174447,-187500.02235174447,1729947720.5657935,1729947719.243292,2000
12109.01285517369,-187500.02235174447,27564.08185530685,-187500.02235174447,-187500.02235174447,-187500.02235174447,-187500.02235174447,-187500.02235174447,1729947720.5696936,1729947719.243292,2000
12130.135253683957,-187500.02235174447,27630.377129361288,-187500.02235174447,-187500.02235174447,-187500.02235174447,-187500.02235174447,-187500.02235174447,1729947720.57374,1729947719.243292,2000
12182.907722342936,-187500.02235174447,27757.513851823074,-187500.02235174447,-187500.02235174447,-187500.02235174447,-187500.02235174447,-187500.02235174447,1729947720.577712,1729947719.243292,2000
12103.1566981264,-187500.02235174447,27681.67438288622,-187500.02235174447,-187500.02235174447,-187500.02235174447,-187500.02235174447,-187500.02235174447,1729947720.5818667,1729947719.243292,2000
12043.835168342015,-187500.02235174447,27584.958384628106,-187500.02235174447,-187500.02235174447,-187500.02235174447,-187500.02235174447,-187500.02235174447,1729947720.5848982,1729947719.243292,2000
12163.327594200087,-187500.02235174447,27619.98356818957,-187500.02235174447,-187500.02235174447,-187500.02235174447,-187500.02235174447,-187500.02235174447,1729947720.588931,1729947719.243292,2000
12230.583993266106,-187500.02235174447,27778.122160210867,-187500.02235174447,-187500.02235174447,-187500.02235174447,-187500.02235174447,-187500.02235174447,1729947720.593727,1729947719.243292,2000
12151.54822487214,-187500.02235174447,27696.49358946009,-187500.02235174447,-187500.02235174447,-187500.02235174447,-187500.02235174447,-187500.02235174447,1729947720.5977306,1729947719.243292,2000
12094.931256166848,-187500.02235174447,27597.98945164555,-187500.02235174447,-187500.02235174447,-187500.02235174447,-187500.02235174447,-187500.02235174447,1729947720.6020076,1729947719.243292,2000
12090.282093320144,-187500.02235174447,27620.698824012143,-187500.02235174447,-187500.02235174447,-187500.02235174447,-187500.02235174447,-187500.02235174447,1729947720.605867,1729947719.243292,2000
12173.341175716065,-187500.02235174447,27733.3963195558,-187500.02235174447,-187500.02235174447,-187500.02235174447,-187500.02235174447,-187500.02235174447,1729947720.6100967,1729947719.243292,2000
12176.98451006228,-187500.02235174447,27686.10002828837,-187500.02235174447,-187500.02235174447,-187500.02235174447,-187500.02235174447,-187500.02235174447,1729947720.612963,1729947719.243292,2000
12104.721320238272,-187500.02235174447,27582.52204448248,-187500.02235174447,-187500.02235174447,-187500.02235174447,-187500.02235174447,-187500.02235174447,1729947720.6181264,1729947719.243292,2000
12088.739822952726,-187500.02235174447,27607.51129478351,-187500.02235174447,-187500.02235174447,-187500.02235174447,-187500.02235174447,-187500.02235174447,1729947720.6219616,1729947719.243292,2000
12185.522876444207,-187500.02235174447,27684.46835094313,-187500.02235174447,-187500.02235174447,-187500.02235174447,-187500.02235174447,-187500.02235174447,1729947720.6259062,1729947719.243292,2000
12198.196315550364,-187500.02235174447,27723.53920025101,-187500.02235174447,-187500.02235174447,-187500.02235174447,-187500.02235174447,-187500.02235174447,1729947720.630015,1729947719.243292,2000
12087.957511896791,-187500.02235174447,27603.286815081457,-187500.02235174447,-187500.02235174447,-187500.02235174447,-187500.02235174447,-187500.02235174447,1729947720.6339593,1729947719.243292,2000
12067.43861048682,-187500.02235174447,27561.801977372408,-187500.02235174447,-187500.02235174447,-187500.02235174447,-187500.02235174447,-187500.02235174447,1729947720.6379907,1729947719.243292,2000
12196.855210883048,-187500.02235174447,27704.964900608647,-187500.02235174447,-187500.02235174447,-187500.02235174447,-187500.02235174447,-187500.02235174447,1729947720.6411417,1729947719.243292,2000
12231.008676410756,-187500.02235174447,27753.4011308433,-187500.02235174447,-187500.02235174447,-187500.02235174447,-187500.02235174447,-187500.02235174447,1729947720.6449769,1729947719.243292,2000
12146.384971902964,-187500.02235174447,27644.7269493016,-187500.02235174447,-187500.02235174447,-187500.02235174447,-187500.02235174447,-187500.02235174447,1729947720.6500075,1729947719.243292,2000
12093.836020688535,-187500.02235174447,27599.822294690883,-187500.02235174447,-187500.02235174447,-187500.02235174447,-187500.02235174447,-187500.02235174447,1729947720.6539445,1729947719.243292,2000
12115.91954421038,-187500.02235174447,27661.066074498427,-187500.02235174447,-187500.02235174447,-187500.02235174447,-187500.02235174447,-187500.02235174447,1729947720.6589696,1729947719.243292,2000
12196.564638205127,-187500.02235174447,27728.188363097717,-187500.02235174447,-187500.02235174447,-187500.02235174447,-187500.02235174447,-187500.02235174447,1729947720.663018,1729947719.243292,2000
12188.60741717904,-187500.02235174447,27684.64716489877,-187500.02235174447,-187500.02235174447,-187500.02235174447,-187500.02235174447,-187500.02235174447,1729947720.6659973,1729947719.243292,2000
12072.355994266987,-187500.02235174447,27533.81759331436,-187500.02235174447,-187500.02235174447,-187500.02235174447,-187500.02235174447,-187500.02235174447,1729947720.6699228,1729947719.243292,2000
12095.601808500507,-187500.02235174447,27615.82614372089,-187500.02235174447,-187500.02235174447,-187500.02235174447,-187500.02235174447,-187500.02235174447,1729947720.6728818,1729947719.243292,2000
12188.60741717904,-187500.02235174447,27774.16590144228,-187500.02235174447,-187500.02235174447,-187500.02235174447,-187500.02235174447,-187500.02235174447,1729947720.6779275,1729947719.243292,2000
12102.083814392545,-187500.02235174447,27690.95035683517,-187500.02235174447,-187500.02235174447,-187500.02235174447,-187500.02235174447,-187500.02235174447,1729947720.682106,1729947719.243292,2000
12072.57951171154,-187500.02235174447,27574.36365775629,-187500.02235174447,-187500.02235174447,-187500.02235174447,-187500.02235174447,-187500.02235174447,1729947720.6859784,1729947719.243292,2000
12195.625864938003,-187500.02235174447,27634.266332896517,-187500.02235174447,-187500.02235174447,-187500.02235174447,-187500.02235174447,-187500.02235174447,1729947720.6891043,1729947719.243292,2000
12276.226255443842,-187500.02235174447,27775.39524738732,-187500.02235174447,-187500.02235174447,-187500.02235174447,-187500.02235174447,-187500.02235174447,1729947720.6930315,1729947719.243292,2000
12214.133109347,-187500.02235174447,27725.461450274164,-187500.02235174447,-187500.02235174447,-187500.02235174447,-187500.02235174447,-187500.02235174447,1729947720.6972044,1729947719.243292,2000
12128.838852505549,-187500.02235174447,27606.55016977193,-187500.02235174447,-187500.02235174447,-187500.02235174447,-187500.02235174447,-187500.02235174447,1729947720.7011738,1729947719.243292,2000
12066.566892453062,-187500.02235174447,27587.50648349601,-187500.02235174447,-187500.02235174447,-187500.02235174447,-187500.02235174447,-187500.02235174447,1729947720.7061596,1729947719.243292,2000
12181.901893842449,-187500.02235174447,27711.4916099896,-187500.02235174447,-187500.02235174447,-187500.02235174447,-187500.02235174447,-187500.02235174447,1729947720.7102787,1729947719.243292,2000
12213.976647135813,-187500.02235174447,27715.224351313635,-187500.02235174447,-187500.02235174447,-187500.02235174447,-187500.02235174447,-187500.02235174447,1729947720.7140248,1729947719.243292,2000
12111.046863919124,-187500.02235174447,27605.209065104613,-187500.02235174447,-187500.02235174447,-187500.02235174447,-187500.02235174447,-187500.02235174447,1729947720.7171912,1729947719.243292,2000
12071.39486925541,-187500.02235174447,27569.960364098595,-187500.02235174447,-187500.02235174447,-187500.02235174447,-187500.02235174447,-187500.02235174447,1729947720.7211633,1729947719.243292,2000
12165.540416901162,-187500.02235174447,27719.515886249053,-187500.02235174447,-187500.02235174447,-187500.02235174447,-187500.02235174447,-187500.02235174447,1729947720.72504,1729947719.243292,2000
12242.586880038603,-187500.02235174447,27768.44385486172,-187500.02235174447,-187500.02235174447,-187500.02235174447,-187500.02235174447,-187500.02235174447,1729947720.729132,1729947719.243292,2000
12139.858262522015,-187500.02235174447,27621.302321112435,-187500.02235174447,-187500.02235174447,-187500.02235174447,-187500.02235174447,-187500.02235174447,1729947720.733118,1729947719.243292,2000
12084.53769499513,-187500.02235174447,27567.479320464052,-187500.02235174447,-187500.02235174447,-187500.02235174447,-187500.02235174447,-187500.02235174447,1729947720.7381763,1729947719.243292,2000
12175.08461178358,-187500.02235174447,27703.4896854746,-187500.02235174447,-187500.02235174447,-187500.02235174447,-187500.02235174447,-187500.02235174447,1729947720.7420356,1729947719.243292,2000
12214.580144236106,-187500.02235174447,27755.748064011103,-187500.02235174447,-187500.02235174447,-187500.02235174447,-187500.02235174447,-187500.02235174447,1729947720.7450948,1729947719.243292,2000
12144.440370135351,-187500.02235174447,27653.555888361443,-187500.02235174447,-187500.02235174447,-187500.02235174447,-187500.02235174447,-187500.02235174447,1729947720.749192,1729947719.243292,2000
12106.285942350143,-187500.02235174447,27591.909777153705,-187500.02235174447,-187500.02235174447,-187500.02235174447,-187500.02235174447,-187500.02235174447,1729947720.7530105,1729947719.243292,2000
12121.976866957768,-187500.02235174447,27634.6239608078,-187500.02235174447,-187500.02235174447,-187500.02235174447,-187500.02235174447,-187500.02235174447,1729947720.7571027,1729947719.243292,2000
12194.329463759595,-187500.02235174447,27756.3515611114,-187500.02235174447,-187500.02235174447,-187500.02235174447,-187500.02235174447,-187500.02235174447,1729947720.7610328,1729947719.243292,2000
12193.70361491485,-187500.02235174447,27696.650051671277,-187500.02235174447,-187500.02235174447,-187500.02235174447,-187500.02235174447,-187500.02235174447,1729947720.76612,1729947719.243292,2000
12105.458927805295,-187500.02235174447,27582.6114514603,-187500.02235174447,-187500.02235174447,-187500.02235174447,-187500.02235174447,-187500.02235174447,1729947720.769116,1729947719.243292,2000
12129.129425183466,-187500.02235174447,27694.504284203565,-187500.02235174447,-187500.02235174447,-187500.02235174447,-187500.02235174447,-187500.02235174447,1729947720.7731223,1729947719.243292,2000
12166.367431446008,-187500.02235174447,27755.524546566558,-187500.02235174447,-187500.02235174447,-187500.02235174447,-187500.02235174447,-187500.02235174447,1729947720.777027,1729947719.243292,2000
12176.135143772975,-187500.02235174447,27665.268202456024,-187500.02235174447,-187500.02235174447,-187500.02235174447,-187500.02235174447,-187500.02235174447,1729947720.7811873,1729947719.243292,2000
12127.676561793873,-187500.02235174447,27574.631878689757,-187500.02235174447,-187500.02235174447,-187500.02235174447,-187500.02235174447,-187500.02235174447,1729947720.7851949,1729947719.243292,2000
12127.54245132714,-187500.02235174447,27611.154629129724,-187500.02235174447,-187500.02235174447,-187500.02235174447,-187500.02235174447,-187500.02235174447,1729947720.7892363,1729947719.243292,2000
12206.309998787645,-187500.02235174447,27718.644168215294,-187500.02235174447,-187500.02235174447,-187500.02235174447,-187500.02235174447,-187500.02235174447,1729947720.7940493,1729947719.243292,2000
12219.542231505184,-187500.02235174447,27706.73068842062,-187500.02235174447,-187500.02235174447,-187500.02235174447,-187500.02235174447,-187500.02235174447,1729947720.7973263,1729947719.243292,2000
12110.3092563521,-187500.02235174447,27617.547228043943,-187500.02235174447,-187500.02235174447,-187500.02235174447,-187500.02235174447,-187500.02235174447,1729947720.8012345,1729947719.243292,2000
12125.396683859432,-187500.02235174447,27625.3703386033,-187500.02235174447,-187500.02235174447,-187500.02235174447,-187500.02235174447,-187500.02235174447,1729947720.8052764,1729947719.243292,2000
12195.84938238256,-187500.02235174447,27728.993025898104,-187500.02235174447,-187500.02235174447,-187500.02235174447,-187500.02235174447,-187500.02235174447,1729947720.8091445,1729947719.243292,2000
12210.869754656524,-187500.02235174447,27793.79073307404,-187500.02235174447,-187500.02235174447,-187500.02235174447,-187500.02235174447,-187500.02235174447,1729947720.813301,1729947719.243292,2000
12110.041035418635,-187500.02235174447,27635.495678841555,-187500.02235174447,-187500.02235174447,-187500.02235174447,-187500.02235174447,-187500.02235174447,1729947720.8172984,1729947719.243292,2000
12083.82243917256,-187500.02235174447,27561.3549424833,-187500.02235174447,-187500.02235174447,-187500.02235174447,-187500.02235174447,-187500.02235174447,1729947720.8223944,1729947719.243292,2000
12172.31299547112,-187500.02235174447,27670.94554554767,-187500.02235174447,-187500.02235174447,-187500.02235174447,-187500.02235174447,-187500.02235174447,1729947720.825466,1729947719.243292,2000
12228.840557198591,-187500.02235174447,27774.27766016456,-187500.02235174447,-187500.02235174447,-187500.02235174447,-187500.02235174447,-187500.02235174447,1729947720.829311,1729947719.243292,2000
12150.140064971456,-187500.02235174447,27687.4858364446,-187500.02235174447,-187500.02235174447,-187500.02235174447,-187500.02235174447,-187500.02235174447,1729947720.8338902,1729947719.243292,2000
12101.927352181356,-187500.02235174447,27610.729945985076,-187500.02235174447,-187500.02235174447,-187500.02235174447,-187500.02235174447,-187500.02235174447,1729947720.8373103,1729947719.243292,2000
12176.358661217531,-187500.02235174447,27642.871754511805,-187500.02235174447,-187500.02235174447,-187500.02235174447,-187500.02235174447,-187500.02235174447,1729947720.8415637,1729947719.243292,2000
12201.727891174303,-187500.02235174447,27756.46331983368,-187500.02235174447,-187500.02235174447,-187500.02235174447,-187500.02235174447,-187500.02235174447,1729947720.845202,1729947719.243292,2000
12153.962213273311,-187500.02235174447,27674.47712117161,-187500.02235174447,-187500.02235174447,-187500.02235174447,-187500.02235174447,-187500.02235174447,1729947720.8517282,1729947719.243292,2000
12091.466735776274,-187500.02235174447,27587.059448606906,-187500.02235174447,-187500.02235174447,-187500.02235174447,-187500.02235174447,-187500.02235174447,1729947720.854406,1729947719.243292,2000
12133.085683952057,-187500.02235174447,27649.19729819266,-187500.02235174447,-187500.02235174447,-187500.02235174447,-187500.02235174447,-187500.02235174447,1729947720.85842,1729947719.243292,2000
12228.304115331664,-187500.02235174447,27767.23686066113,-187500.02235174447,-187500.02235174447,-187500.02235174447,-187500.02235174447,-187500.02235174447,1729947720.8613272,1729947719.243292,2000
12203.784251664192,-187500.02235174447,27696.00185108207,-187500.02235174447,-187500.02235174447,-187500.02235174447,-187500.02235174447,-187500.02235174447,1729947720.8652337,1729947719.243292,2000
12138.02541947668,-187500.02235174447,27592.490922509543,-187500.02235174447,-187500.02235174447,-187500.02235174447,-187500.02235174447,-187500.02235174447,1729947720.8692424,1729947719.243292,2000
12146.69789632534,-187500.02235174447,27658.67443784171,-187500.02235174447,-187500.02235174447,-187500.02235174447,-187500.02235174447,-187500.02235174447,1729947720.8732817,1729947719.243292,2000
12195.424699237908,-187500.02235174447,27776.065799720986,-187500.02235174447,-187500.02235174447,-187500.02235174447,-187500.02235174447,-187500.02235174447,1729947720.8772025,1729947719.243292,2000
12184.092364799068,-187500.02235174447,27717.14660133679,-187500.02235174447,-187500.02235174447,-187500.02235174447,-187500.02235174447,-187500.02235174447,1729947720.8817043,1729947719.243292,2000
12079.799125170604,-187500.02235174447,27564.797111129417,-187500.02235174447,-187500.02235174447,-187500.02235174447,-187500.02235174447,-187500.02235174447,1729947720.8842509,1729947719.243292,2000
12065.091677319013,-187500.02235174447,27594.27906206597,-187500.02235174447,-187500.02235174447,-187500.02235174447,-187500.02235174447,-187500.02235174447,1729947720.8894713,1729947719.243292,2000
12194.374167248508,-187500.02235174447,27770.54491884052,-187500.02235174447,-187500.02235174447,-187500.02235174447,-187500.02235174447,-187500.02235174447,1729947720.8934572,1729947719.243292,2000
12188.540361945674,-187500.02235174447,27758.27381113456,-187500.02235174447,-187500.02235174447,-187500.02235174447,-187500.02235174447,-187500.02235174447,1729947720.8976188,1729947719.243292,2000
12041.734104363217,-187500.02235174447,27597.11773361179,-187500.02235174447,-187500.02235174447,-187500.02235174447,-187500.02235174447,-187500.02235174447,1729947720.9016924,1729947719.243292,2000
12126.40251235992,-187500.02235174447,27658.026237252503,-187500.02235174447,-187500.02235174447,-187500.02235174447,-187500.02235174447,-187500.02235174447,1729947720.9058895,1729947719.243292,2000
12243.793874239193,-187500.02235174447,27744.460433061176,-187500.02235174447,-187500.02235174447,-187500.02235174447,-187500.02235174447,-187500.02235174447,1729947720.91001,1729947719.243292,2000
12215.1836413364,-187500.02235174447,27737.933723680228,-187500.02235174447,-187500.02235174447,-187500.02235174447,-187500.02235174447,-187500.02235174447,1729947720.9124851,1729947719.243292,2000
12124.25674489221,-187500.02235174447,27620.22943737858,-187500.02235174447,-187500.02235174447,-187500.02235174447,-187500.02235174447,-187500.02235174447,1729947720.918605,1729947719.243292,2000
12073.317119278565,-187500.02235174447,27606.08078313837,-187500.02235174447,-187500.02235174447,-187500.02235174447,-187500.02235174447,-187500.02235174447,1729947720.9215264,1729947719.243292,2000
12187.869809612012,-187500.02235174447,27734.782127712027,-187500.02235174447,-187500.02235174447,-187500.02235174447,-187500.02235174447,-187500.02235174447,1729947720.926068,1729947719.243292,2000
12237.021295669234,-187500.02235174447,27795.377706930365,-187500.02235174447,-187500.02235174447,-187500.02235174447,-187500.02235174447,-187500.02235174447,1729947720.929464,1729947719.243292,2000
12169.36256520302,-187500.02235174447,27694.236063270106,-187500.02235174447,-187500.02235174447,-187500.02235174447,-187500.02235174447,-187500.02235174447,1729947720.9328015,1729947719.243292,2000
12100.653302747403,-187500.02235174447,27588.13233234076,-187500.02235174447,-187500.02235174447,-187500.02235174447,-187500.02235174447,-187500.02235174447,1729947720.9365408,1729947719.243292,2000
12174.79403910566,-187500.02235174447,27673.448940926664,-187500.02235174447,-187500.02235174447,-187500.02235174447,-187500.02235174447,-187500.02235174447,1729947720.9410348,1729947719.243292,2000
12209.41689126693,-187500.02235174447,27743.409901071776,-187500.02235174447,-187500.02235174447,-187500.02235174447,-187500.02235174447,-187500.02235174447,1729947720.9443328,1729947719.243292,2000
12131.901041495925,-187500.02235174447,27676.46642642813,-187500.02235174447,-187500.02235174447,-187500.02235174447,-187500.02235174447,-187500.02235174447,1729947720.9496284,1729947719.243292,2000
12088.449250274807,-187500.02235174447,27575.50359672351,-187500.02235174447,-187500.02235174447,-187500.02235174447,-187500.02235174447,-187500.02235174447,1729947720.9533591,1729947719.243292,2000
12127.564803071597,-187500.02235174447,27620.497658312044,-187500.02235174447,-187500.02235174447,-187500.02235174447,-187500.02235174447,-187500.02235174447,1729947720.9578185,1729947719.243292,2000
12176.98451006228,-187500.02235174447,27701.299214517978,-187500.02235174447,-187500.02235174447,-187500.02235174447,-187500.02235174447,-187500.02235174447,1729947720.9609237,1729947719.243292,2000
12166.479190168286,-187500.02235174447,27690.793894623985,-187500.02235174447,-187500.02235174447,-187500.02235174447,-187500.02235174447,-187500.02235174447,1729947720.964451,1729947719.243292,2000
12083.442459516818,-187500.02235174447,27604.829085448877,-187500.02235174447,-187500.02235174447,-187500.02235174447,-187500.02235174447,-187500.02235174447,1729947720.968624,1729947719.243292,2000
12170.748373359247,-187500.02235174447,27659.747321575564,-187500.02235174447,-187500.02235174447,-187500.02235174447,-187500.02235174447,-187500.02235174447,1729947720.9726272,1729947719.243292,2000
12252.33224062112,-187500.02235174447,27770.097883951414,-187500.02235174447,-187500.02235174447,-187500.02235174447,-187500.02235174447,-187500.02235174447,1729947720.9774132,1729947719.243292,2000
12188.853286368048,-187500.02235174447,27735.855011445885,-187500.02235174447,-187500.02235174447,-187500.02235174447,-187500.02235174447,-187500.02235174447,1729947720.9819627,1729947719.243292,2000
12051.635927156918,-187500.02235174447,27598.88352142376,-187500.02235174447,-187500.02235174447,-187500.02235174447,-187500.02235174447,-187500.02235174447,1729947720.9854803,1729947719.243292,2000
12103.380215570953,-187500.02235174447,27627.247885137545,-187500.02235174447,-187500.02235174447,-187500.02235174447,-187500.02235174447,-187500.02235174447,1729947720.9890845,1729947719.243292,2000
12278.886113034025,-187500.02235174447,27804.385459945854,-187500.02235174447,-187500.02235174447,-187500.02235174447,-187500.02235174447,-187500.02235174447,1729947720.992722,1729947719.243292,2000
12243.458598072362,-187500.02235174447,27733.575133511444,-187500.02235174447,-187500.02235174447,-187500.02235174447,-187500.02235174447,-187500.02235174447,1729947720.998911,1729947719.243292,2000
12098.708700979794,-187500.02235174447,27600.93988191365,-187500.02235174447,-187500.02235174447,-187500.02235174447,-187500.02235174447,-187500.02235174447,1729947721.0017183,1729947719.243292,2000
12092.047881132112,-187500.02235174447,27627.60551304883,-187500.02235174447,-187500.02235174447,-187500.02235174447,-187500.02235174447,-187500.02235174447,1729947721.005963,1729947719.243292,2000
12187.623940423004,-187500.02235174447,27736.97259866865,-187500.02235174447,-187500.02235174447,-187500.02235174447,-187500.02235174447,-187500.02235174447,1729947721.0104852,1729947719.243292,2000
12196.765803905226,-187500.02235174447,27741.48765104862,-187500.02235174447,-187500.02235174447,-187500.02235174447,-187500.02235174447,-187500.02235174447,1729947721.0139112,1729947719.243292,2000
12130.179957172866,-187500.02235174447,27622.24109437956,-187500.02235174447,-187500.02235174447,-187500.02235174447,-187500.02235174447,-187500.02235174447,1729947721.0177672,1729947719.243292,2000
12097.233485845743,-187500.02235174447,27576.867053135284,-187500.02235174447,-187500.02235174447,-187500.02235174447,-187500.02235174447,-187500.02235174447,1729947721.020488,1729947719.243292,2000
12209.640408711482,-187500.02235174447,27711.44690650069,-187500.02235174447,-187500.02235174447,-187500.02235174447,-187500.02235174447,-187500.02235174447,1729947721.0245996,1729947719.243292,2000
12264.983327982824,-187500.02235174447,27766.29808739401,-187500.02235174447,-187500.02235174447,-187500.02235174447,-187500.02235174447,-187500.02235174447,1729947721.0285804,1729947719.243292,2000
12147.54726261464,-187500.02235174447,27657.355684918846,-187500.02235174447,-187500.02235174447,-187500.02235174447,-187500.02235174447,-187500.02235174447,1729947721.0337365,1729947719.243292,2000
12043.09756077499,-187500.02235174447,27564.663000662687,-187500.02235174447,-187500.02235174447,-187500.02235174447,-187500.02235174447,-187500.02235174447,1729947721.0376768,1729947719.243292,2000
12146.317916669595,-187500.02235174447,27654.002923250548,-187500.02235174447,-187500.02235174447,-187500.02235174447,-187500.02235174447,-187500.02235174447,1729947721.0416973,1729947719.243292,2000
12210.42271976742,-187500.02235174447,27769.561442084487,-187500.02235174447,-187500.02235174447,-187500.02235174447,-187500.02235174447,-187500.02235174447,1729947721.0444489,1729947719.243292,2000
12188.897989856958,-187500.02235174447,27733.86570618936,-187500.02235174447,-187500.02235174447,-187500.02235174447,-187500.02235174447,-187500.02235174447,1729947721.0486608,1729947719.243292,2000
12102.77671847066,-187500.02235174447,27611.355794829826,-187500.02235174447,-187500.02235174447,-187500.02235174447,-187500.02235174447,-187500.02235174447,1729947721.05258,1729947719.243292,2000
12122.580364058062,-187500.02235174447,27677.852234584363,-187500.02235174447,-187500.02235174447,-187500.02235174447,-187500.02235174447,-187500.02235174447,1729947721.0567565,1729947719.243292,2000
12210.288609300687,-187500.02235174447,27744.326322594443,-187500.02235174447,-187500.02235174447,-187500.02235174447,-187500.02235174447,-187500.02235174447,1729947721.060496,1729947719.243292,2000
12191.26727476922,-187500.02235174447,27698.751115650077,-187500.02235174447,-187500.02235174447,-187500.02235174447,-187500.02235174447,-187500.02235174447,1729947721.065647,1729947719.243292,2000
12074.47940999024,-187500.02235174447,27622.352853101835,-187500.02235174447,-187500.02235174447,-187500.02235174447,-187500.02235174447,-187500.02235174447,1729947721.0684676,1729947719.243292,2000
12083.308349050089,-187500.02235174447,27624.45391708063,-187500.02235174447,-187500.02235174447,-187500.02235174447,-187500.02235174447,-187500.02235174447,1729947721.0727444,1729947719.243292,2000
12244.37501959503,-187500.02235174447,27755.613953544376,-187500.02235174447,-187500.02235174447,-187500.02235174447,-187500.02235174447,-187500.02235174447,1729947721.0767643,1729947719.243292,2000
12211.495603501273,-187500.02235174447,27718.711223448663,-187500.02235174447,-187500.02235174447,-187500.02235174447,-187500.02235174447,-187500.02235174447,1729947721.0807035,1729947719.243292,2000
12098.3063695796,-187500.02235174447,27578.23050954706,-187500.02235174447,-187500.02235174447,-187500.02235174447,-187500.02235174447,-187500.02235174447,1729947721.084648,1729947719.243292,2000
12082.749555438704,-187500.02235174447,27580.08570433685,-187500.02235174447,-187500.02235174447,-187500.02235174447,-187500.02235174447,-187500.02235174447,1729947721.0887072,1729947719.243292,2000
12168.848475080547,-187500.02235174447,27716.118421091847,-187500.02235174447,-187500.02235174447,-187500.02235174447,-187500.02235174447,-187500.02235174447,1729947721.0935173,1729947719.243292,2000
12223.543193762684,-187500.02235174447,27743.16403188277,-187500.02235174447,-187500.02235174447,-187500.02235174447,-187500.02235174447,-187500.02235174447,1729947721.096715,1729947719.243292,2000
12123.340323369544,-187500.02235174447,27635.85330675284,-187500.02235174447,-187500.02235174447,-187500.02235174447,-187500.02235174447,-187500.02235174447,1729947721.100702,1729947719.243292,2000
12092.517267765674,-187500.02235174447,27567.032285574947,-187500.02235174447,-187500.02235174447,-187500.02235174447,-187500.02235174447,-187500.02235174447,1729947721.1047404,1729947719.243292,2000
12270.168932696455,-187500.02235174447,27750.20483138619,-187500.02235174447,-187500.02235174447,-187500.02235174447,-187500.02235174447,-187500.02235174447,1729947721.1087697,1729947719.243292,2000
12236.61896426904,-187500.02235174447,27784.492407380632,-187500.02235174447,-187500.02235174447,-187500.02235174447,-187500.02235174447,-187500.02235174447,1729947721.1127653,1729947719.243292,2000
12105.749500483216,-187500.02235174447,27652.684170327684,-187500.02235174447,-187500.02235174447,-187500.02235174447,-187500.02235174447,-187500.02235174447,1729947721.1168048,1729947719.243292,2000
12082.973072883258,-187500.02235174447,27597.453009778623,-187500.02235174447,-187500.02235174447,-187500.02235174447,-187500.02235174447,-187500.02235174447,1729947721.121779,1729947719.243292,2000
12154.92333828489,-187500.02235174447,27720.49936300509,-187500.02235174447,-187500.02235174447,-187500.02235174447,-187500.02235174447,-187500.02235174447,1729947721.124581,1729947719.243292,2000
12207.204068565854,-187500.02235174447,27772.847148519417,-187500.02235174447,-187500.02235174447,-187500.02235174447,-187500.02235174447,-187500.02235174447,1729947721.128822,1729947719.243292,2000
12132.370428129489,-187500.02235174447,27690.36921147933,-187500.02235174447,-187500.02235174447,-187500.02235174447,-187500.02235174447,-187500.02235174447,1729947721.1327908,1729947719.243292,2000
12103.335512082043,-187500.02235174447,27615.64732976524,-187500.02235174447,-187500.02235174447,-187500.02235174447,-187500.02235174447,-187500.02235174447,1729947721.136597,1729947719.243292,2000
12169.854303581036,-187500.02235174447,27661.3789989208,-187500.02235174447,-187500.02235174447,-187500.02235174447,-187500.02235174447,-187500.02235174447,1729947721.1407363,1729947719.243292,2000
12241.67045851594,-187500.02235174447,27759.92784022425,-187500.02235174447,-187500.02235174447,-187500.02235174447,-187500.02235174447,-187500.02235174447,1729947721.1458323,1729947719.243292,2000
12162.902911055437,-187500.02235174447,27683.842502098385,-187500.02235174447,-187500.02235174447,-187500.02235174447,-187500.02235174447,-187500.02235174447,1729947721.1491292,1729947719.243292,2000
12076.893398391414,-187500.02235174447,27592.155646342715,-187500.02235174447,-187500.02235174447,-187500.02235174447,-187500.02235174447,-187500.02235174447,1729947721.1517985,1729947719.243292,2000
12142.227547434277,-187500.02235174447,27683.86485384284,-187500.02235174447,-187500.02235174447,-187500.02235174447,-187500.02235174447,-187500.02235174447,1729947721.1566932,1729947719.243292,2000
12255.774409267236,-187500.02235174447,27778.613898588887,-187500.02235174447,-187500.02235174447,-187500.02235174447,-187500.02235174447,-187500.02235174447,1729947721.160757,1729947719.243292,2000
12196.899914371956,-187500.02235174447,27673.895975815773,-187500.02235174447,-187500.02235174447,-187500.02235174447,-187500.02235174447,-187500.02235174447,1729947721.164792,1729947719.243292,2000
12027.71956058974,-187500.02235174447,27542.177145740647,-187500.02235174447,-187500.02235174447,-187500.02235174447,-187500.02235174447,-187500.02235174447,1729947721.1686978,1729947719.243292,2000
12104.58720977154,-187500.02235174447,27618.284835610968,-187500.02235174447,-187500.02235174447,-187500.02235174447,-187500.02235174447,-187500.02235174447,1729947721.172722,1729947719.243292,2000
12246.61019404056,-187500.02235174447,27778.144511955325,-187500.02235174447,-187500.02235174447,-187500.02235174447,-187500.02235174447,-187500.02235174447,1729947721.1769164,1729947719.243292,2000
12186.014614822225,-187500.02235174447,27713.212694312657,-187500.02235174447,-187500.02235174447,-187500.02235174447,-187500.02235174447,-187500.02235174447,1729947721.1800084,1729947719.243292,2000
12084.940026395325,-187500.02235174447,27601.051640635927,-187500.02235174447,-187500.02235174447,-187500.02235174447,-187500.02235174447,-187500.02235174447,1729947721.1838002,1729947719.243292,2000
12100.519192280672,-187500.02235174447,27656.439263396176,-187500.02235174447,-187500.02235174447,-187500.02235174447,-187500.02235174447,-187500.02235174447,1729947721.1887612,1729947719.243292,2000
12228.661743242948,-187500.02235174447,27757.49150007862,-187500.02235174447,-187500.02235174447,-187500.02235174447,-187500.02235174447,-187500.02235174447,1729947721.192955,1729947719.243292,2000
12228.102949631566,-187500.02235174447,27744.97452318365,-187500.02235174447,-187500.02235174447,-187500.02235174447,-187500.02235174447,-187500.02235174447,1729947721.197348,1729947719.243292,2000
12155.750352829738,-187500.02235174447,27653.533536616986,-187500.02235174447,-187500.02235174447,-187500.02235174447,-187500.02235174447,-187500.02235174447,1729947721.2011907,1729947719.243292,2000
12069.137343065422,-187500.02235174447,27601.342213313845,-187500.02235174447,-187500.02235174447,-187500.02235174447,-187500.02235174447,-187500.02235174447,1729947721.2046924,1729947719.243292,2000
12161.628861621484,-187500.02235174447,27737.79961321349,-187500.02235174447,-187500.02235174447,-187500.02235174447,-187500.02235174447,-187500.02235174447,1729947721.208204,1729947719.243292,2000
12210.288609300687,-187500.02235174447,27759.950191968703,-187500.02235174447,-187500.02235174447,-187500.02235174447,-187500.02235174447,-187500.02235174447,1729947721.2119155,1729947719.243292,2000
12106.44240456133,-187500.02235174447,27657.55685061894,-187500.02235174447,-187500.02235174447,-187500.02235174447,-187500.02235174447,-187500.02235174447,1729947721.2170985,1729947719.243292,2000
12093.813668944082,-187500.02235174447,27596.26836732249,-187500.02235174447,-187500.02235174447,-187500.02235174447,-187500.02235174447,-187500.02235174447,1729947721.2209356,1729947719.243292,2000
12188.74152764577,-187500.02235174447,27707.311833776457,-187500.02235174447,-187500.02235174447,-187500.02235174447,-187500.02235174447,-187500.02235174447,1729947721.224969,1729947719.243292,2000
12210.176850578411,-187500.02235174447,27746.20386912869,-187500.02235174447,-187500.02235174447,-187500.02235174447,-187500.02235174447,-187500.02235174447,1729947721.2289293,1729947719.243292,2000
12155.63859410746,-187500.02235174447,27696.068906315435,-187500.02235174447,-187500.02235174447,-187500.02235174447,-187500.02235174447,-187500.02235174447,1729947721.2328866,1729947719.243292,2000
12110.152794140911,-187500.02235174447,27664.19531872217,-187500.02235174447,-187500.02235174447,-187500.02235174447,-187500.02235174447,-187500.02235174447,1729947721.235854,1729947719.243292,2000
12165.36160294552,-187500.02235174447,27686.77058062203,-187500.02235174447,-187500.02235174447,-187500.02235174447,-187500.02235174447,-187500.02235174447,1729947721.2400317,1729947719.243292,2000
12189.36737649052,-187500.02235174447,27719.04649961549,-187500.02235174447,-187500.02235174447,-187500.02235174447,-187500.02235174447,-187500.02235174447,1729947721.244828,1729947719.243292,2000
12142.048733478634,-187500.02235174447,27646.4256818802,-187500.02235174447,-187500.02235174447,-187500.02235174447,-187500.02235174447,-187500.02235174447,1729947721.2491856,1729947719.243292,2000
12101.927352181356,-187500.02235174447,27595.17313184418,-187500.02235174447,-187500.02235174447,-187500.02235174447,-187500.02235174447,-187500.02235174447,1729947721.2528045,1729947719.243292,2000
12143.099265468034,-187500.02235174447,27660.75315007605,-187500.02235174447,-187500.02235174447,-187500.02235174447,-187500.02235174447,-187500.02235174447,1729947721.2561991,1729947719.243292,2000
12188.138030545477,-187500.02235174447,27786.36995391488,-187500.02235174447,-187500.02235174447,-187500.02235174447,-187500.02235174447,-187500.02235174447,1729947721.260058,1729947719.243292,2000
12187.690995656372,-187500.02235174447,27743.655770260782,-187500.02235174447,-187500.02235174447,-187500.02235174447,-187500.02235174447,-187500.02235174447,1729947721.2640789,1729947719.243292,2000
12119.696989023329,-187500.02235174447,27631.51706832851,-187500.02235174447,-187500.02235174447,-187500.02235174447,-187500.02235174447,-187500.02235174447,1729947721.2678292,1729947719.243292,2000
12104.788375471637,-187500.02235174447,27610.864056451806,-187500.02235174447,-187500.02235174447,-187500.02235174447,-187500.02235174447,-187500.02235174447,1729947721.2725818,1729947719.243292,2000
12203.60543770855,-187500.02235174447,27726.310816563466,-187500.02235174447,-187500.02235174447,-187500.02235174447,-187500.02235174447,-187500.02235174447,1729947721.2768583,1729947719.243292,2000
12200.342083018077,-187500.02235174447,27751.188308142224,-187500.02235174447,-187500.02235174447,-187500.02235174447,-187500.02235174447,-187500.02235174447,1729947721.2814891,1729947719.243292,2000
12052.23942425721,-187500.02235174447,27626.51027757052,-187500.02235174447,-187500.02235174447,-187500.02235174447,-187500.02235174447,-187500.02235174447,1729947721.2840333,1729947719.243292,2000
12104.050767904611,-187500.02235174447,27656.595725607363,-187500.02235174447,-187500.02235174447,-187500.02235174447,-187500.02235174447,-187500.02235174447,1729947721.288604,1729947719.243292,2000
12265.251548916289,-187500.02235174447,27805.74891635763,-187500.02235174447,-187500.02235174447,-187500.02235174447,-187500.02235174447,-187500.02235174447,1729947721.292492,1729947719.243292,2000
12212.79200467968,-187500.02235174447,27742.67229350475,-187500.02235174447,-187500.02235174447,-187500.02235174447,-187500.02235174447,-187500.02235174447,1729947721.296114,1729947719.243292,2000
12086.996386885214,-187500.02235174447,27612.36162333031,-187500.02235174447,-187500.02235174447,-187500.02235174447,-187500.02235174447,-187500.02235174447,1729947721.3004217,1729947719.243292,2000
12110.644532518929,-187500.02235174447,27619.17890538918,-187500.02235174447,-187500.02235174447,-187500.02235174447,-187500.02235174447,-187500.02235174447,1729947721.3051944,1729947719.243292,2000
12228.170004864933,-187500.02235174447,27742.67229350475,-187500.02235174447,-187500.02235174447,-187500.02235174447,-187500.02235174447,-187500.02235174447,1729947721.309271,1729947719.243292,2000
12222.269144328731,-187500.02235174447,27812.11916352739,-187500.02235174447,-187500.02235174447,-187500.02235174447,-187500.02235174447,-187500.02235174447,1729947721.3120337,1729947719.243292,2000
12088.181029341344,-187500.02235174447,27615.446164065143,-187500.02235174447,-187500.02235174447,-187500.02235174447,-187500.02235174447,-187500.02235174447,1729947721.3160915,1729947719.243292,2000
12066.902168619892,-187500.02235174447,27521.12180246375,-187500.02235174447,-187500.02235174447,-187500.02235174447,-187500.02235174447,-187500.02235174447,1729947721.323095,1729947719.243292,2000
12211.920286645924,-187500.02235174447,27732.099918377397,-187500.02235174447,-187500.02235174447,-187500.02235174447,-187500.02235174447,-187500.02235174447,1729947721.326966,1729947719.243292,2000
12279.601368856594,-187500.02235174447,27831.766346903605,-187500.02235174447,-187500.02235174447,-187500.02235174447,-187500.02235174447,-187500.02235174447,1729947721.3306923,1729947719.243292,2000
12167.194445990855,-187500.02235174447,27700.181627295213,-187500.02235174447,-187500.02235174447,-187500.02235174447,-187500.02235174447,-187500.02235174447,1729947721.333964,1729947719.243292,2000
12095.53475326714,-187500.02235174447,27618.4189460777,-187500.02235174447,-187500.02235174447,-187500.02235174447,-187500.02235174447,-187500.02235174447,1729947721.3370972,1729947719.243292,2000
12221.41977803943,-187500.02235174447,27728.188363097717,-187500.02235174447,-187500.02235174447,-187500.02235174447,-187500.02235174447,-187500.02235174447,1729947721.340236,1729947719.243292,2000
12250.164121408954,-187500.02235174447,27798.79752383203,-187500.02235174447,-187500.02235174447,-187500.02235174447,-187500.02235174447,-187500.02235174447,1729947721.3439229,1729947719.243292,2000
12160.667736609905,-187500.02235174447,27742.024092915548,-187500.02235174447,-187500.02235174447,-187500.02235174447,-187500.02235174447,-187500.02235174447,1729947721.348172,1729947719.243292,2000
12078.569779225563,-187500.02235174447,27639.85426901034,-187500.02235174447,-187500.02235174447,-187500.02235174447,-187500.02235174447,-187500.02235174447,1729947721.3519473,1729947719.243292,2000
12110.264552863187,-187500.02235174447,27649.33140865939,-187500.02235174447,-187500.02235174447,-187500.02235174447,-187500.02235174447,-187500.02235174447,1729947721.356192,1729947719.243292,2000
12183.466515954318,-187500.02235174447,27735.184459112224,-187500.02235174447,-187500.02235174447,-187500.02235174447,-187500.02235174447,-187500.02235174447,1729947721.3610206,1729947719.243292,2000
12223.409083295952,-187500.02235174447,27744.639247016818,-187500.02235174447,-187500.02235174447,-187500.02235174447,-187500.02235174447,-187500.02235174447,1729947721.3649983,1729947719.243292,2000
12145.580309102574,-187500.02235174447,27641.10596669984,-187500.02235174447,-187500.02235174447,-187500.02235174447,-187500.02235174447,-187500.02235174447,1729947721.3689213,1729947719.243292,2000
12139.768855544193,-187500.02235174447,27687.687002144696,-187500.02235174447,-187500.02235174447,-187500.02235174447,-187500.02235174447,-187500.02235174447,1729947721.373299,1729947719.243292,2000
12237.46833055834,-187500.02235174447,27806.374765202378,-187500.02235174447,-187500.02235174447,-187500.02235174447,-187500.02235174447,-187500.02235174447,1729947721.3766055,1729947719.243292,2000
12220.123376861022,-187500.02235174447,27754.228145388144,-187500.02235174447,-187500.02235174447,-187500.02235174447,-187500.02235174447,-187500.02235174447,1729947721.380733,1729947719.243292,2000
12133.55507058562,-187500.02235174447,27630.01950145001,-187500.02235174447,-187500.02235174447,-187500.02235174447,-187500.02235174447,-187500.02235174447,1729947721.384173,1729947719.243292,2000
12123.675599536373,-187500.02235174447,27623.403385091235,-187500.02235174447,-187500.02235174447,-187500.02235174447,-187500.02235174447,-187500.02235174447,1729947721.3892715,1729947719.243292,2000
12198.486888228284,-187500.02235174447,27753.4011308433,-187500.02235174447,-187500.02235174447,-187500.02235174447,-187500.02235174447,-187500.02235174447,1729947721.3932772,1729947719.243292,2000
12184.2264752658,-187500.02235174447,27760.26311639108,-187500.02235174447,-187500.02235174447,-187500.02235174447,-187500.02235174447,-187500.02235174447,1729947721.3963058,1729947719.243292,2000
12110.644532518929,-187500.02235174447,27654.919344773218,-187500.02235174447,-187500.02235174447,-187500.02235174447,-187500.02235174447,-187500.02235174447,1729947721.4012876,1729947719.243292,2000
12101.279151592154,-187500.02235174447,27609.38884131776,-187500.02235174447,-187500.02235174447,-187500.02235174447,-187500.02235174447,-187500.02235174447,1729947721.4042175,1729947719.243292,2000
12230.852214199567,-187500.02235174447,27731.16114511027,-187500.02235174447,-187500.02235174447,-187500.02235174447,-187500.02235174447,-187500.02235174447,1729947721.4101655,1729947719.243292,2000
12304.14358426852,-187500.02235174447,27796.3611836864,-187500.02235174447,-187500.02235174447,-187500.02235174447,-187500.02235174447,-187500.02235174447,1729947721.4133852,1729947719.243292,2000
12144.194500946343,-187500.02235174447,27669.02329552452,-187500.02235174447,-187500.02235174447,-187500.02235174447,-187500.02235174447,-187500.02235174447,1729947721.418319,1729947719.243292,2000
12039.320115962044,-187500.02235174447,27607.108963383314,-187500.02235174447,-187500.02235174447,-187500.02235174447,-187500.02235174447,-187500.02235174447,1729947721.421249,1729947719.243292,2000
12128.838852505549,-187500.02235174447,27727.361348552862,-187500.02235174447,-187500.02235174447,-187500.02235174447,-187500.02235174447,-187500.02235174447,1729947721.4255,1729947719.243292,2000
12181.946597331358,-187500.02235174447,27834.31444577151,-187500.02235174447,-187500.02235174447,-187500.02235174447,-187500.02235174447,-187500.02235174447,1729947721.4280224,1729947719.243292,2000
12132.325724640576,-187500.02235174447,27682.4343421977,-187500.02235174447,-187500.02235174447,-187500.02235174447,-187500.02235174447,-187500.02235174447,1729947721.4326134,1729947719.243292,2000
12113.192631386832,-187500.02235174447,27631.78528926197,-187500.02235174447,-187500.02235174447,-187500.02235174447,-187500.02235174447,-187500.02235174447,1729947721.4361012,1729947719.243292,2000
12159.192521475856,-187500.02235174447,27701.366269751343,-187500.02235174447,-187500.02235174447,-187500.02235174447,-187500.02235174447,-187500.02235174447,1729947721.4402754,1729947719.243292,2000
12270.839485030114,-187500.02235174447,27818.198838019234,-187500.02235174447,-187500.02235174447,-187500.02235174447,-187500.02235174447,-187500.02235174447,1729947721.4451115,1729947719.243292,2000
12195.357644004542,-187500.02235174447,27724.38856654031,-187500.02235174447,-187500.02235174447,-187500.02235174447,-187500.02235174447,-187500.02235174447,1729947721.4481912,1729947719.243292,2000
12100.474488791764,-187500.02235174447,27613.590969275352,-187500.02235174447,-187500.02235174447,-187500.02235174447,-187500.02235174447,-187500.02235174447,1729947721.4515753,1729947719.243292,2000
12138.606564832517,-187500.02235174447,27652.05832148294,-187500.02235174447,-187500.02235174447,-187500.02235174447,-187500.02235174447,-187500.02235174447,1729947721.4563348,1729947719.243292,2000
12217.642333226482,-187500.02235174447,27767.192157172223,-187500.02235174447,-187500.02235174447,-187500.02235174447,-187500.02235174447,-187500.02235174447,1729947721.4600804,1729947719.243292,2000
12222.22444083982,-187500.02235174447,27760.888965235827,-187500.02235174447,-187500.02235174447,-187500.02235174447,-187500.02235174447,-187500.02235174447,1729947721.4642615,1729947719.243292,2000
12113.259686620198,-187500.02235174447,27631.986454962072,-187500.02235174447,-187500.02235174447,-187500.02235174447,-187500.02235174447,-187500.02235174447,1729947721.4684925,1729947719.243292,2000
12057.00034582619,-187500.02235174447,27642.312960900425,-187500.02235174447,-187500.02235174447,-187500.02235174447,-187500.02235174447,-187500.02235174447,1729947721.4725633,1729947719.243292,2000
12167.46266692432,-187500.02235174447,27766.76747402757,-187500.02235174447,-187500.02235174447,-187500.02235174447,-187500.02235174447,-187500.02235174447,1729947721.476473,1729947719.243292,2000
12215.742434947782,-187500.02235174447,27742.225258615646,-187500.02235174447,-187500.02235174447,-187500.02235174447,-187500.02235174447,-187500.02235174447,1729947721.4794135,1729947719.243292,2000
12130.269364150688,-187500.02235174447,27634.55690557443,-187500.02235174447,-187500.02235174447,-187500.02235174447,-187500.02235174447,-187500.02235174447,1729947721.4833112,1729947719.243292,2000
12085.990558384725,-187500.02235174447,27610.059393651416,-187500.02235174447,-187500.02235174447,-187500.02235174447,-187500.02235174447,-187500.02235174447,1729947721.4883676,1729947719.243292,2000
12206.779385421203,-187500.02235174447,27766.11927343837,-187500.02235174447,-187500.02235174447,-187500.02235174447,-187500.02235174447,-187500.02235174447,1729947721.492376,1729947719.243292,2000
12226.314810075142,-187500.02235174447,27791.84613130643,-187500.02235174447,-187500.02235174447,-187500.02235174447,-187500.02235174447,-187500.02235174447,1729947721.4963636,1729947719.243292,2000
12090.572665998065,-187500.02235174447,27695.912444104248,-187500.02235174447,-187500.02235174447,-187500.02235174447,-187500.02235174447,-187500.02235174447,1729947721.5003371,1729947719.243292,2000
12079.016814114668,-187500.02235174447,27630.51123982802,-187500.02235174447,-187500.02235174447,-187500.02235174447,-187500.02235174447,-187500.02235174447,1729947721.5041907,1729947719.243292,2000
12220.749225705771,-187500.02235174447,27754.563421554976,-187500.02235174447,-187500.02235174447,-187500.02235174447,-187500.02235174447,-187500.02235174447,1729947721.5073147,1729947719.243292,2000
12261.675269803438,-187500.02235174447,27785.811160303496,-187500.02235174447,-187500.02235174447,-187500.02235174447,-187500.02235174447,-187500.02235174447,1729947721.5123107,1729947719.243292,2000
12131.185785673357,-187500.02235174447,27675.505301416557,-187500.02235174447,-187500.02235174447,-187500.02235174447,-187500.02235174447,-187500.02235174447,1729947721.5163236,1729947719.243292,2000
12091.936122409836,-187500.02235174447,27633.215800907117,-187500.02235174447,-187500.02235174447,-187500.02235174447,-187500.02235174447,-187500.02235174447,1729947721.5203145,1729947719.243292,2000
12165.674527367892,-187500.02235174447,27734.8491829454,-187500.02235174447,-187500.02235174447,-187500.02235174447,-187500.02235174447,-187500.02235174447,1729947721.5243,1729947719.243292,2000
12218.446996026874,-187500.02235174447,27792.293166195534,-187500.02235174447,-187500.02235174447,-187500.02235174447,-187500.02235174447,-187500.02235174447,1729947721.5273468,1729947719.243292,2000
12116.545393055128,-187500.02235174447,27649.19729819266,-187500.02235174447,-187500.02235174447,-187500.02235174447,-187500.02235174447,-187500.02235174447,1729947721.5313656,1729947719.243292,2000
12055.279261503132,-187500.02235174447,27561.77962562795,-187500.02235174447,-187500.02235174447,-187500.02235174447,-187500.02235174447,-187500.02235174447,1729947721.5353231,1729947719.243292,2000
12137.801902032126,-187500.02235174447,27685.67534514372,-187500.02235174447,-187500.02235174447,-187500.02235174447,-187500.02235174447,-187500.02235174447,1729947721.5395737,1729947719.243292,2000
12225.51014727475,-187500.02235174447,27779.955003256204,-187500.02235174447,-187500.02235174447,-187500.02235174447,-187500.02235174447,-187500.02235174447,1729947721.544269,1729947719.243292,2000
12198.866867884026,-187500.02235174447,27752.48470932063,-187500.02235174447,-187500.02235174447,-187500.02235174447,-187500.02235174447,-187500.02235174447,1729947721.548782,1729947719.243292,2000
12131.610468818006,-187500.02235174447,27672.040781025986,-187500.02235174447,-187500.02235174447,-187500.02235174447,-187500.02235174447,-187500.02235174447,1729947721.552219,1729947719.243292,2000
12179.756126374738,-187500.02235174447,27694.52663594802,-187500.02235174447,-187500.02235174447,-187500.02235174447,-187500.02235174447,-187500.02235174447,1729947721.5554883,1729947719.243292,2000
12236.37309508003,-187500.02235174447,27803.73725935665,-187500.02235174447,-187500.02235174447,-187500.02235174447,-187500.02235174447,-187500.02235174447,1729947721.559812,1729947719.243292,2000
12176.872751340004,-187500.02235174447,27739.43129055873,-187500.02235174447,-187500.02235174447,-187500.02235174447,-187500.02235174447,-187500.02235174447,1729947721.563418,1729947719.243292,2000
12082.369575782965,-187500.02235174447,27621.458783323626,-187500.02235174447,-187500.02235174447,-187500.02235174447,-187500.02235174447,-187500.02235174447,1729947721.567772,1729947719.243292,2000
12096.831154445548,-187500.02235174447,27637.70850154263,-187500.02235174447,-187500.02235174447,-187500.02235174447,-187500.02235174447,-187500.02235174447,1729947721.5728955,1729947719.243292,2000
12205.572391220618,-187500.02235174447,27772.69068630823,-187500.02235174447,-187500.02235174447,-187500.02235174447,-187500.02235174447,-187500.02235174447,1729947721.5763333,1729947719.243292,2000
12199.403309750953,-187500.02235174447,27753.423482587757,-187500.02235174447,-187500.02235174447,-187500.02235174447,-187500.02235174447,-187500.02235174447,1729947721.5808003,1729947719.243292,2000
12108.901096451416,-187500.02235174447,27625.32563511439,-187500.02235174447,-187500.02235174447,-187500.02235174447,-187500.02235174447,-187500.02235174447,1729947721.5835152,1729947719.243292,2000
12097.836982946035,-187500.02235174447,27618.79892573344,-187500.02235174447,-187500.02235174447,-187500.02235174447,-187500.02235174447,-187500.02235174447,1729947721.5874736,1729947719.243292,2000
12195.290588771177,-187500.02235174447,27750.18247964173,-187500.02235174447,-187500.02235174447,-187500.02235174447,-187500.02235174447,-187500.02235174447,1729947721.5917993,1729947719.243292,2000
12204.678321442403,-187500.02235174447,27747.14264239581,-187500.02235174447,-187500.02235174447,-187500.02235174447,-187500.02235174447,-187500.02235174447,1729947721.595267,1729947719.243292,2000
12064.711697663271,-187500.02235174447,27642.670588811707,-187500.02235174447,-187500.02235174447,-187500.02235174447,-187500.02235174447,-187500.02235174447,1729947721.6002617,1729947719.243292,2000
12082.973072883258,-187500.02235174447,27664.642353611274,-187500.02235174447,-187500.02235174447,-187500.02235174447,-187500.02235174447,-187500.02235174447,1729947721.6044583,1729947719.243292,2000
12182.728908387293,-187500.02235174447,27787.308727182,-187500.02235174447,-187500.02235174447,-187500.02235174447,-187500.02235174447,-187500.02235174447,1729947721.608312,1729947719.243292,2000
12232.394484566985,-187500.02235174447,27776.669296821277,-187500.02235174447,-187500.02235174447,-187500.02235174447,-187500.02235174447,-187500.02235174447,1729947721.6113346,1729947719.243292,2000
12121.149852412922,-187500.02235174447,27660.931964031693,-187500.02235174447,-187500.02235174447,-187500.02235174447,-187500.02235174447,-187500.02235174447,1729947721.6158888,1729947719.243292,2000
12086.214075829275,-187500.02235174447,27609.187675617657,-187500.02235174447,-187500.02235174447,-187500.02235174447,-187500.02235174447,-187500.02235174447,1729947721.6194005,1729947719.243292,2000
12221.33037106161,-187500.02235174447,27756.664485533773,-187500.02235174447,-187500.02235174447,-187500.02235174447,-187500.02235174447,-187500.02235174447,1729947721.6235068,1729947719.243292,2000
12246.744304507292,-187500.02235174447,27835.208515549723,-187500.02235174447,-187500.02235174447,-187500.02235174447,-187500.02235174447,-187500.02235174447,1729947721.627272,1729947719.243292,2000
12150.02830624918,-187500.02235174447,27706.57422620943,-187500.02235174447,-187500.02235174447,-187500.02235174447,-187500.02235174447,-187500.02235174447,1729947721.6328013,1729947719.243292,2000
12097.501706779209,-187500.02235174447,27620.14003040076,-187500.02235174447,-187500.02235174447,-187500.02235174447,-187500.02235174447,-187500.02235174447,1729947721.6354277,1729947719.243292,2000
12154.543358629153,-187500.02235174447,27699.421667983734,-187500.02235174447,-187500.02235174447,-187500.02235174447,-187500.02235174447,-187500.02235174447,1729947721.6393297,1729947719.243292,2000
12230.338124077098,-187500.02235174447,27793.50016039612,-187500.02235174447,-187500.02235174447,-187500.02235174447,-187500.02235174447,-187500.02235174447,1729947721.644415,1729947719.243292,2000
12163.908739555924,-187500.02235174447,27702.215636040644,-187500.02235174447,-187500.02235174447,-187500.02235174447,-187500.02235174447,-187500.02235174447,1729947721.649963,1729947719.243292,2000
