Fp1,Fp2,C3,C4,P7,P8,O1,O2,time_board,time_marker,marker
-2250.418335249225,-187500.02235174447,10230.616954638595,-187500.02235174447,-187500.02235174447,-187500.02235174447,-187500.02235174447,-187500.02235174447,1729950423.4756925,1729950423.47399,2000
-2177.082261691364,-187500.02235174447,10236.49546343034,-187500.02235174447,-187500.02235174447,-187500.02235174447,-187500.02235174447,-187500.02235174447,1729950423.4786425,1729950423.47399,2000
-2529.233995584726,-187500.02235174447,10112.577392170118,-187500.02235174447,-187500.02235174447,-187500.02235174447,-187500.02235174447,-187500.02235174447,1729950423.4826555,1729950423.47399,2000
-2587.4155864018903,-187500.02235174447,10122.166290541443,-187500.02235174447,-187500.02235174447,-187500.02235174447,-187500.02235174447,-187500.02235174447,1729950423.486591,1729950423.47399,2000
-2198.092901479352,-187500.02235174447,10107.771767112228,-187500.02235174447,-187500.02235174447,-187500.02235174447,-187500.02235174447,-187500.02235174447,1729950423.490564,1729950423.47399,2000
-2203.770244571,-187500.02235174447,10204.554820603707,-187500.02235174447,-187500.02235174447,-187500.02235174447,-187500.02235174447,-187500.02235174447,1729950423.4957294,1729950423.47399,2000
-2526.618841483455,-187500.02235174447,10238.97650706488,-187500.02235174447,-187500.02235174447,-187500.02235174447,-187500.02235174447,-187500.02235174447,1729950423.4998252,1729950423.47399,2000
-2443.269186409615,-187500.02235174447,10156.67738398044,-187500.02235174447,-187500.02235174447,-187500.02235174447,-187500.02235174447,-187500.02235174447,1729950423.5038075,1729950423.47399,2000
-2318.300583159993,-187500.02235174447,10135.264412792256,-187500.02235174447,-187500.02235174447,-187500.02235174447,-187500.02235174447,-187500.02235174447,1729950423.506817,1729950423.47399,2000
-2257.1685620747285,-187500.02235174447,10108.71054037935,-187500.02235174447,-187500.02235174447,-187500.02235174447,-187500.02235174447,-187500.02235174447,1729950423.5108063,1729950423.47399,2000
-2130.702391946601,-187500.02235174447,9848.402124452845,-187500.02235174447,-187500.02235174447,-187500.02235174447,-187500.02235174447,-187500.02235174447,1729950423.5147195,1729950423.47399,2000
-2180.770299526489,-187500.02235174447,9803.899801242327,-187500.02235174447,-187500.02235174447,-187500.02235174447,-187500.02235174447,-187500.02235174447,1729950423.518638,1729950423.47399,2000
-2379.365549011892,-187500.02235174447,10241.256384999322,-187500.02235174447,-187500.02235174447,-187500.02235174447,-187500.02235174447,-187500.02235174447,1729950423.5228877,1729950423.47399,2000
-2476.0368437810957,-187500.02235174447,10714.487518607082,-187500.02235174447,-187500.02235174447,-187500.02235174447,-187500.02235174447,-187500.02235174447,1729950423.5278192,1729950423.47399,2000
-2242.8857973677877,-187500.02235174447,10460.30348066133,-187500.02235174447,-187500.02235174447,-187500.02235174447,-187500.02235174447,-187500.02235174447,1729950423.53174,1729950423.47399,2000
-2385.534630481557,-187500.02235174447,10201.693797313428,-187500.02235174447,-187500.02235174447,-187500.02235174447,-187500.02235174447,-187500.02235174447,1729950423.5348208,1729950423.47399,2000
-2442.464523609224,-187500.02235174447,10159.96309041537,-187500.02235174447,-187500.02235174447,-187500.02235174447,-187500.02235174447,-187500.02235174447,1729950423.5389185,1729950423.47399,2000
-2167.2698458754835,-187500.02235174447,10213.24964919682,-187500.02235174447,-187500.02235174447,-187500.02235174447,-187500.02235174447,-187500.02235174447,1729950423.5428157,1729950423.47399,2000
-2158.329148093361,-187500.02235174447,10114.1867177709,-187500.02235174447,-187500.02235174447,-187500.02235174447,-187500.02235174447,-187500.02235174447,1729950423.546786,1729950423.47399,2000
-2655.700165712853,-187500.02235174447,10000.393986748932,-187500.02235174447,-187500.02235174447,-187500.02235174447,-187500.02235174447,-187500.02235174447,1729950423.5509164,1729950423.47399,2000
-2608.8956128234404,-187500.02235174447,10086.358795924045,-187500.02235174447,-187500.02235174447,-187500.02235174447,-187500.02235174447,-187500.02235174447,1729950423.555934,1729950423.47399,2000
-2331.89044378882,-187500.02235174447,10474.9215215351,-187500.02235174447,-187500.02235174447,-187500.02235174447,-187500.02235174447,-187500.02235174447,1729950423.559914,1729950423.47399,2000
-2328.8282547984427,-187500.02235174447,10552.727943984026,-187500.02235174447,-187500.02235174447,-187500.02235174447,-187500.02235174447,-187500.02235174447,1729950423.5627325,1729950423.47399,2000
-2570.919998993874,-187500.02235174447,10156.275052580244,-187500.02235174447,-187500.02235174447,-187500.02235174447,-187500.02235174447,-187500.02235174447,1729950423.5667684,1729950423.47399,2000
-2616.428150704879,-187500.02235174447,10054.909891475429,-187500.02235174447,-187500.02235174447,-187500.02235174447,-187500.02235174447,-187500.02235174447,1729950423.5707157,1729950423.47399,2000
-2248.853713137354,-187500.02235174447,10328.830519775214,-187500.02235174447,-187500.02235174447,-187500.02235174447,-187500.02235174447,-187500.02235174447,1729950423.5748012,1729950423.47399,2000
-2194.762491555511,-187500.02235174447,10356.881959066624,-187500.02235174447,-187500.02235174447,-187500.02235174447,-187500.02235174447,-187500.02235174447,1729950423.578823,1729950423.47399,2000
-2400.957334155719,-187500.02235174447,10143.48985475181,-187500.02235174447,-187500.02235174447,-187500.02235174447,-187500.02235174447,-187500.02235174447,1729950423.58376,1729950423.47399,2000
-2510.078550586528,-187500.02235174447,10022.27634457068,-187500.02235174447,-187500.02235174447,-187500.02235174447,-187500.02235174447,-187500.02235174447,1729950423.5877345,1729950423.47399,2000
-2379.365549011892,-187500.02235174447,10162.958224172382,-187500.02235174447,-187500.02235174447,-187500.02235174447,-187500.02235174447,-187500.02235174447,1729950423.590908,1729950423.47399,2000
-2256.4533062521587,-187500.02235174447,10322.057941205258,-187500.02235174447,-187500.02235174447,-187500.02235174447,-187500.02235174447,-187500.02235174447,1729950423.5950675,1729950423.47399,2000
-2390.116738094895,-187500.02235174447,10199.726843801362,-187500.02235174447,-187500.02235174447,-187500.02235174447,-187500.02235174447,-187500.02235174447,1729950423.5988052,1729950423.47399,2000
-2519.7345041912204,-187500.02235174447,9998.807012892608,-187500.02235174447,-187500.02235174447,-187500.02235174447,-187500.02235174447,-187500.02235174447,1729950423.6029918,1729950423.47399,2000
-2479.501364171668,-187500.02235174447,10047.734981505271,-187500.02235174447,-187500.02235174447,-187500.02235174447,-187500.02235174447,-187500.02235174447,1729950423.6068246,1729950423.47399,2000
-2266.7127569571444,-187500.02235174447,10341.61571760365,-187500.02235174447,-187500.02235174447,-187500.02235174447,-187500.02235174447,-187500.02235174447,1729950423.611926,1729950423.47399,2000
-2320.3345919054264,-187500.02235174447,10232.852129084127,-187500.02235174447,-187500.02235174447,-187500.02235174447,-187500.02235174447,-187500.02235174447,1729950423.6148205,1729950423.47399,2000
-2459.854180795453,-187500.02235174447,10016.800167179128,-187500.02235174447,-187500.02235174447,-187500.02235174447,-187500.02235174447,-187500.02235174447,1729950423.618944,1729950423.47399,2000
-2389.312075294504,-187500.02235174447,10133.38686625801,-187500.02235174447,-187500.02235174447,-187500.02235174447,-187500.02235174447,-187500.02235174447,1729950423.6227837,1729950423.47399,2000
-2345.8379323289314,-187500.02235174447,10178.045651679711,-187500.02235174447,-187500.02235174447,-187500.02235174447,-187500.02235174447,-187500.02235174447,1729950423.626943,1729950423.47399,2000
-2401.605534744923,-187500.02235174447,10097.221743729324,-187500.02235174447,-187500.02235174447,-187500.02235174447,-187500.02235174447,-187500.02235174447,1729950423.6309493,1729950423.47399,2000
-2545.3496033370025,-187500.02235174447,10024.086835871558,-187500.02235174447,-187500.02235174447,-187500.02235174447,-187500.02235174447,-187500.02235174447,1729950423.634984,1729950423.47399,2000
-2450.712317313232,-187500.02235174447,10067.538627092676,-187500.02235174447,-187500.02235174447,-187500.02235174447,-187500.02235174447,-187500.02235174447,1729950423.6398983,1729950423.47399,2000
-2211.7498173415443,-187500.02235174447,10279.65668197354,-187500.02235174447,-187500.02235174447,-187500.02235174447,-187500.02235174447,-187500.02235174447,1729950423.6429644,1729950423.47399,2000
-2242.34935550086,-187500.02235174447,10256.299109017744,-187500.02235174447,-187500.02235174447,-187500.02235174447,-187500.02235174447,-187500.02235174447,1729950423.6460097,1729950423.47399,2000
-2452.38869814738,-187500.02235174447,10047.444408827354,-187500.02235174447,-187500.02235174447,-187500.02235174447,-187500.02235174447,-187500.02235174447,1729950423.6510675,1729950423.47399,2000
-2456.3896604048805,-187500.02235174447,10081.731984821796,-187500.02235174447,-187500.02235174447,-187500.02235174447,-187500.02235174447,-187500.02235174447,1729950423.654919,1729950423.47399,2000
-2322.726228562144,-187500.02235174447,10288.485621033386,-187500.02235174447,-187500.02235174447,-187500.02235174447,-187500.02235174447,-187500.02235174447,1729950423.6591344,1729950423.47399,2000
-2294.227754381628,-187500.02235174447,10326.148310440578,-187500.02235174447,-187500.02235174447,-187500.02235174447,-187500.02235174447,-187500.02235174447,1729950423.663037,1729950423.47399,2000
-2393.3577410409143,-187500.02235174447,10098.09346176308,-187500.02235174447,-187500.02235174447,-187500.02235174447,-187500.02235174447,-187500.02235174447,1729950423.6670394,1729950423.47399,2000
-2483.591733406989,-187500.02235174447,10009.60290546452,-187500.02235174447,-187500.02235174447,-187500.02235174447,-187500.02235174447,-187500.02235174447,1729950423.6720903,1729950423.47399,2000
-2383.5453252250345,-187500.02235174447,10199.30216065671,-187500.02235174447,-187500.02235174447,-187500.02235174447,-187500.02235174447,-187500.02235174447,1729950423.6750247,1729950423.47399,2000
-2283.1636408762506,-187500.02235174447,10304.780042741304,-187500.02235174447,-187500.02235174447,-187500.02235174447,-187500.02235174447,-187500.02235174447,1729950423.6791136,1729950423.47399,2000
-2418.458750064224,-187500.02235174447,10062.107153190036,-187500.02235174447,-187500.02235174447,-187500.02235174447,-187500.02235174447,-187500.02235174447,1729950423.683116,1729950423.47399,2000
-2416.737665741165,-187500.02235174447,9984.859524352494,-187500.02235174447,-187500.02235174447,-187500.02235174447,-187500.02235174447,-187500.02235174447,1729950423.6871183,1729950423.47399,2000
-2342.4851706606355,-187500.02235174447,10204.376006648065,-187500.02235174447,-187500.02235174447,-187500.02235174447,-187500.02235174447,-187500.02235174447,1729950423.690926,1729950423.47399,2000
-2327.956536764686,-187500.02235174447,10315.0841969352,-187500.02235174447,-187500.02235174447,-187500.02235174447,-187500.02235174447,-187500.02235174447,1729950423.6950953,1729950423.47399,2000
-2472.169991990327,-187500.02235174447,10094.248961716768,-187500.02235174447,-187500.02235174447,-187500.02235174447,-187500.02235174447,-187500.02235174447,1729950423.698943,1729950423.47399,2000
-2492.9347625893074,-187500.02235174447,10000.304579771111,-187500.02235174447,-187500.02235174447,-187500.02235174447,-187500.02235174447,-187500.02235174447,1729950423.7021568,1729950423.47399,2000
-2244.316309012927,-187500.02235174447,10215.283657942256,-187500.02235174447,-187500.02235174447,-187500.02235174447,-187500.02235174447,-187500.02235174447,1729950423.7069857,1729950423.47399,2000
-2162.263055117495,-187500.02235174447,10335.871319278636,-187500.02235174447,-187500.02235174447,-187500.02235174447,-187500.02235174447,-187500.02235174447,1729950423.7110991,1729950423.47399,2000
-2349.7718393530654,-187500.02235174447,10225.49840515833,-187500.02235174447,-187500.02235174447,-187500.02235174447,-187500.02235174447,-187500.02235174447,1729950423.7150087,1729950423.47399,2000
-2463.810439564042,-187500.02235174447,10065.348156136057,-187500.02235174447,-187500.02235174447,-187500.02235174447,-187500.02235174447,-187500.02235174447,1729950423.7191377,1729950423.47399,2000
-2441.324584642003,-187500.02235174447,10040.4706645573,-187500.02235174447,-187500.02235174447,-187500.02235174447,-187500.02235174447,-187500.02235174447,1729950423.724053,1729950423.47399,2000
-2311.148024934295,-187500.02235174447,10295.70523449245,-187500.02235174447,-187500.02235174447,-187500.02235174447,-187500.02235174447,-187500.02235174447,1729950423.727239,1729950423.47399,2000
-2231.7099251401337,-187500.02235174447,10349.416476418552,-187500.02235174447,-187500.02235174447,-187500.02235174447,-187500.02235174447,-187500.02235174447,1729950423.730186,1729950423.47399,2000
-2426.505378068134,-187500.02235174447,10086.80583081315,-187500.02235174447,-187500.02235174447,-187500.02235174447,-187500.02235174447,-187500.02235174447,1729950423.7342596,1729950423.47399,2000
-2489.6714078988325,-187500.02235174447,10071.874865517006,-187500.02235174447,-187500.02235174447,-187500.02235174447,-187500.02235174447,-187500.02235174447,1729950423.7393715,1729950423.47399,2000
-2338.7077258476884,-187500.02235174447,10292.732452479891,-187500.02235174447,-187500.02235174447,-187500.02235174447,-187500.02235174447,-187500.02235174447,1729950423.7433128,1729950423.47399,2000
-2276.234600095105,-187500.02235174447,10310.122109666125,-187500.02235174447,-187500.02235174447,-187500.02235174447,-187500.02235174447,-187500.02235174447,1729950423.7472048,1729950423.47399,2000
-2433.7473432716542,-187500.02235174447,10064.454086357842,-187500.02235174447,-187500.02235174447,-187500.02235174447,-187500.02235174447,-187500.02235174447,1729950423.7512288,1729950423.47399,2000
-2475.545105403078,-187500.02235174447,9986.245332508724,-187500.02235174447,-187500.02235174447,-187500.02235174447,-187500.02235174447,-187500.02235174447,1729950423.7542553,1729950423.47399,2000
-2314.1878621802166,-187500.02235174447,10256.097943317644,-187500.02235174447,-187500.02235174447,-187500.02235174447,-187500.02235174447,-187500.02235174447,1729950423.758114,1729950423.47399,2000
-2271.8536581818653,-187500.02235174447,10391.34834901671,-187500.02235174447,-187500.02235174447,-187500.02235174447,-187500.02235174447,-187500.02235174447,1729950423.7632651,1729950423.47399,2000
-2465.755041331654,-187500.02235174447,10108.352912468066,-187500.02235174447,-187500.02235174447,-187500.02235174447,-187500.02235174447,-187500.02235174447,1729950423.7672167,1729950423.47399,2000
-2526.1494548498936,-187500.02235174447,9993.822573879072,-187500.02235174447,-187500.02235174447,-187500.02235174447,-187500.02235174447,-187500.02235174447,1729950423.7712183,1729950423.47399,2000
-2325.9001762747976,-187500.02235174447,10231.376913950076,-187500.02235174447,-187500.02235174447,-187500.02235174447,-187500.02235174447,-187500.02235174447,1729950423.775142,1729950423.47399,2000
-2182.312569893905,-187500.02235174447,10371.835276107226,-187500.02235174447,-187500.02235174447,-187500.02235174447,-187500.02235174447,-187500.02235174447,1729950423.7782693,1729950423.47399,2000
-2402.678418478777,-187500.02235174447,10093.80192682766,-187500.02235174447,-187500.02235174447,-187500.02235174447,-187500.02235174447,-187500.02235174447,1729950423.7821383,1729950423.47399,2000
-2488.464413698246,-187500.02235174447,9947.643869834408,-187500.02235174447,-187500.02235174447,-187500.02235174447,-187500.02235174447,-187500.02235174447,1729950423.7861912,1729950423.47399,2000
-2301.447367840692,-187500.02235174447,10198.229276922855,-187500.02235174447,-187500.02235174447,-187500.02235174447,-187500.02235174447,-187500.02235174447,1729950423.790167,1729950423.47399,2000
-2215.6166691323124,-187500.02235174447,10379.680738411038,-187500.02235174447,-187500.02235174447,-187500.02235174447,-187500.02235174447,-187500.02235174447,1729950423.7951903,1729950423.47399,2000
-2326.5707286084566,-187500.02235174447,10247.98426008037,-187500.02235174447,-187500.02235174447,-187500.02235174447,-187500.02235174447,-187500.02235174447,1729950423.7991605,1729950423.47399,2000
-2508.916259874852,-187500.02235174447,10064.722307291308,-187500.02235174447,-187500.02235174447,-187500.02235174447,-187500.02235174447,-187500.02235174447,1729950423.8032937,1729950423.47399,2000
-2426.103046667939,-187500.02235174447,10138.930098882924,-187500.02235174447,-187500.02235174447,-187500.02235174447,-187500.02235174447,-187500.02235174447,1729950423.8061793,1729950423.47399,2000
-2277.8439256958877,-187500.02235174447,10307.596362542674,-187500.02235174447,-187500.02235174447,-187500.02235174447,-187500.02235174447,-187500.02235174447,1729950423.8103976,1729950423.47399,2000
-2329.36469666537,-187500.02235174447,10210.030997995258,-187500.02235174447,-187500.02235174447,-187500.02235174447,-187500.02235174447,-187500.02235174447,1729950423.8143077,1729950423.47399,2000
-2489.470242198735,-187500.02235174447,10012.106300843514,-187500.02235174447,-187500.02235174447,-187500.02235174447,-187500.02235174447,-187500.02235174447,1729950423.818369,1729950423.47399,2000
-2344.429772428248,-187500.02235174447,10131.62107844604,-187500.02235174447,-187500.02235174447,-187500.02235174447,-187500.02235174447,-187500.02235174447,1729950423.8232176,1729950423.47399,2000
-2216.7566080995334,-187500.02235174447,10335.312525667254,-187500.02235174447,-187500.02235174447,-187500.02235174447,-187500.02235174447,-187500.02235174447,1729950423.827286,1729950423.47399,2000
-2399.750339955132,-187500.02235174447,10265.619786455609,-187500.02235174447,-187500.02235174447,-187500.02235174447,-187500.02235174447,-187500.02235174447,1729950423.831241,1729950423.47399,2000
-2478.5849426490004,-187500.02235174447,10087.968121524826,-187500.02235174447,-187500.02235174447,-187500.02235174447,-187500.02235174447,-187500.02235174447,1729950423.8342583,1729950423.47399,2000
-2413.42960756178,-187500.02235174447,10156.76679095826,-187500.02235174447,-187500.02235174447,-187500.02235174447,-187500.02235174447,-187500.02235174447,1729950423.8383524,1729950423.47399,2000
-2310.5892313229124,-187500.02235174447,10272.928806892493,-187500.02235174447,-187500.02235174447,-187500.02235174447,-187500.02235174447,-187500.02235174447,1729950423.8422935,1729950423.47399,2000
-2234.7721141305105,-187500.02235174447,10263.451667243442,-187500.02235174447,-187500.02235174447,-187500.02235174447,-187500.02235174447,-187500.02235174447,1729950423.8463287,1729950423.47399,2000
-2407.7746162145872,-187500.02235174447,10101.110947264546,-187500.02235174447,-187500.02235174447,-187500.02235174447,-187500.02235174447,-187500.02235174447,1729950423.850378,1729950423.47399,2000
-2500.176727792827,-187500.02235174447,10063.783534024184,-187500.02235174447,-187500.02235174447,-187500.02235174447,-187500.02235174447,-187500.02235174447,1729950423.8553703,1729950423.47399,2000
-2342.5522258940014,-187500.02235174447,10218.97169577738,-187500.02235174447,-187500.02235174447,-187500.02235174447,-187500.02235174447,-187500.02235174447,1729950423.859491,1729950423.47399,2000
-2228.446570449659,-187500.02235174447,10316.693522535985,-187500.02235174447,-187500.02235174447,-187500.02235174447,-187500.02235174447,-187500.02235174447,1729950423.862445,1729950423.47399,2000
-2421.81151173252,-187500.02235174447,10087.588141869086,-187500.02235174447,-187500.02235174447,-187500.02235174447,-187500.02235174447,-187500.02235174447,1729950423.8663833,1729950423.47399,2000
-2536.163036365871,-187500.02235174447,10020.197632336334,-187500.02235174447,-187500.02235174447,-187500.02235174447,-187500.02235174447,-187500.02235174447,1729950423.8703928,1729950423.47399,2000
-2328.8506065428983,-187500.02235174447,10194.87651525456,-187500.02235174447,-187500.02235174447,-187500.02235174447,-187500.02235174447,-187500.02235174447,1729950423.8743184,1729950423.47399,2000
-2232.4922361960694,-187500.02235174447,10338.374714657632,-187500.02235174447,-187500.02235174447,-187500.02235174447,-187500.02235174447,-187500.02235174447,1729950423.8784063,1729950423.47399,2000
-2339.981775281641,-187500.02235174447,10183.745346515816,-187500.02235174447,-187500.02235174447,-187500.02235174447,-187500.02235174447,-187500.02235174447,1729950423.8833897,1729950423.47399,2000
-2446.0408027220733,-187500.02235174447,10061.503656089742,-187500.02235174447,-187500.02235174447,-187500.02235174447,-187500.02235174447,-187500.02235174447,1729950423.8863971,1729950423.47399,2000
-2370.313092507493,-187500.02235174447,10195.54706758822,-187500.02235174447,-187500.02235174447,-187500.02235174447,-187500.02235174447,-187500.02235174447,1729950423.8903952,1729950423.47399,2000
-2242.9081491122424,-187500.02235174447,10387.682662926038,-187500.02235174447,-187500.02235174447,-187500.02235174447,-187500.02235174447,-187500.02235174447,1729950423.8944275,1729950423.47399,2000
-2281.7107774866554,-187500.02235174447,10231.399265694532,-187500.02235174447,-187500.02235174447,-187500.02235174447,-187500.02235174447,-187500.02235174447,1729950423.8983257,1729950423.47399,2000
-2477.0650240260397,-187500.02235174447,10047.399705338445,-187500.02235174447,-187500.02235174447,-187500.02235174447,-187500.02235174447,-187500.02235174447,1729950423.9025047,1729950423.47399,2000
-2478.1826112488047,-187500.02235174447,10156.72208746935,-187500.02235174447,-187500.02235174447,-187500.02235174447,-187500.02235174447,-187500.02235174447,1729950423.906423,1729950423.47399,2000
-2288.438652567703,-187500.02235174447,10314.078368434712,-187500.02235174447,-187500.02235174447,-187500.02235174447,-187500.02235174447,-187500.02235174447,1729950423.911533,1729950423.47399,2000
-2289.578591534924,-187500.02235174447,10260.724754419894,-187500.02235174447,-187500.02235174447,-187500.02235174447,-187500.02235174447,-187500.02235174447,1729950423.9143472,1729950423.47399,2000
-2431.690982781766,-187500.02235174447,10064.342327635566,-187500.02235174447,-187500.02235174447,-187500.02235174447,-187500.02235174447,-187500.02235174447,1729950423.9184368,1729950423.47399,2000
-2392.843650918442,-187500.02235174447,10109.939886324391,-187500.02235174447,-187500.02235174447,-187500.02235174447,-187500.02235174447,-187500.02235174447,1729950423.9224577,1729950423.47399,2000
-2262.01889062153,-187500.02235174447,10290.2290571009,-187500.02235174447,-187500.02235174447,-187500.02235174447,-187500.02235174447,-187500.02235174447,1729950423.9265692,1729950423.47399,2000
-2308.890498744309,-187500.02235174447,10258.534283463274,-187500.02235174447,-187500.02235174447,-187500.02235174447,-187500.02235174447,-187500.02235174447,1729950423.9306316,1729950423.47399,2000
-2457.1049162274503,-187500.02235174447,10039.241318612256,-187500.02235174447,-187500.02235174447,-187500.02235174447,-187500.02235174447,-187500.02235174447,1729950423.934523,1729950423.47399,2000
-2497.181594035816,-187500.02235174447,10049.768990250706,-187500.02235174447,-187500.02235174447,-187500.02235174447,-187500.02235174447,-187500.02235174447,1729950423.939398,1729950423.47399,2000
-2331.979850766641,-187500.02235174447,10264.211626554925,-187500.02235174447,-187500.02235174447,-187500.02235174447,-187500.02235174447,-187500.02235174447,1729950423.9425952,1729950423.47399,2000
-2254.7322219291,-187500.02235174447,10356.054944521778,-187500.02235174447,-187500.02235174447,-187500.02235174447,-187500.02235174447,-187500.02235174447,1729950423.9455428,1729950423.47399,2000
-2365.75333663861,-187500.02235174447,10139.332430283122,-187500.02235174447,-187500.02235174447,-187500.02235174447,-187500.02235174447,-187500.02235174447,1729950423.9505792,1729950423.47399,2000
-2499.237954525704,-187500.02235174447,10050.394839095456,-187500.02235174447,-187500.02235174447,-187500.02235174447,-187500.02235174447,-187500.02235174447,1729950423.954544,1729950423.47399,2000
-2384.372339769881,-187500.02235174447,10254.063934572212,-187500.02235174447,-187500.02235174447,-187500.02235174447,-187500.02235174447,-187500.02235174447,1729950423.9584515,1729950423.47399,2000
-2224.6914773811677,-187500.02235174447,10366.984947560424,-187500.02235174447,-187500.02235174447,-187500.02235174447,-187500.02235174447,-187500.02235174447,1729950423.9625423,1729950423.47399,2000
-2353.661042888289,-187500.02235174447,10185.958169216892,-187500.02235174447,-187500.02235174447,-187500.02235174447,-187500.02235174447,-187500.02235174447,1729950423.967477,1729950423.47399,2000
-2425.007811189629,-187500.02235174447,10068.767973037717,-187500.02235174447,-187500.02235174447,-187500.02235174447,-187500.02235174447,-187500.02235174447,1729950423.9706142,1729950423.47399,2000
-2301.045036440496,-187500.02235174447,10200.531506601752,-187500.02235174447,-187500.02235174447,-187500.02235174447,-187500.02235174447,-187500.02235174447,1729950423.9736152,1729950423.47399,2000
-2269.752594203066,-187500.02235174447,10302.65662701805,-187500.02235174447,-187500.02235174447,-187500.02235174447,-187500.02235174447,-187500.02235174447,1729950423.978685,1729950423.47399,2000
-2445.616119577422,-187500.02235174447,10129.76588365625,-187500.02235174447,-187500.02235174447,-187500.02235174447,-187500.02235174447,-187500.02235174447,1729950423.982476,1729950423.47399,2000
-2506.1222918179383,-187500.02235174447,10034.502748787732,-187500.02235174447,-187500.02235174447,-187500.02235174447,-187500.02235174447,-187500.02235174447,1729950423.9866865,1729950423.47399,2000
-2314.7466557916,-187500.02235174447,10212.489689885342,-187500.02235174447,-187500.02235174447,-187500.02235174447,-187500.02235174447,-187500.02235174447,1729950423.9905105,1729950423.47399,2000
-2231.0617245509297,-187500.02235174447,10366.80613360478,-187500.02235174447,-187500.02235174447,-187500.02235174447,-187500.02235174447,-187500.02235174447,1729950423.9956937,1729950423.47399,2000
-2343.468647416669,-187500.02235174447,10226.772454592285,-187500.02235174447,-187500.02235174447,-187500.02235174447,-187500.02235174447,-187500.02235174447,1729950423.9986105,1729950423.47399,2000
-2482.071814784028,-187500.02235174447,10061.593063067565,-187500.02235174447,-187500.02235174447,-187500.02235174447,-187500.02235174447,-187500.02235174447,1729950424.0016384,1729950423.47399,2000
-2420.1574826428277,-187500.02235174447,10138.773636671738,-187500.02235174447,-187500.02235174447,-187500.02235174447,-187500.02235174447,-187500.02235174447,1729950424.0065465,1729950423.47399,2000
-2277.5533530179687,-187500.02235174447,10312.692560278483,-187500.02235174447,-187500.02235174447,-187500.02235174447,-187500.02235174447,-187500.02235174447,1729950424.0107698,1729950423.47399,2000
-2303.6154870528567,-187500.02235174447,10258.98131835238,-187500.02235174447,-187500.02235174447,-187500.02235174447,-187500.02235174447,-187500.02235174447,1729950424.0144937,1729950423.47399,2000
-2445.169084688316,-187500.02235174447,10049.545472806152,-187500.02235174447,-187500.02235174447,-187500.02235174447,-187500.02235174447,-187500.02235174447,1729950424.018795,1729950423.47399,2000
-2424.71723851171,-187500.02235174447,10106.587124656096,-187500.02235174447,-187500.02235174447,-187500.02235174447,-187500.02235174447,-187500.02235174447,1729950424.0227177,1729950423.47399,2000
-2258.330852786404,-187500.02235174447,10325.924792996026,-187500.02235174447,-187500.02235174447,-187500.02235174447,-187500.02235174447,-187500.02235174447,1729950424.025602,1729950423.47399,2000
-2269.8643529253427,-187500.02235174447,10295.414661814531,-187500.02235174447,-187500.02235174447,-187500.02235174447,-187500.02235174447,-187500.02235174447,1729950424.0297244,1729950423.47399,2000
-2438.709430540732,-187500.02235174447,10072.165438194925,-187500.02235174447,-187500.02235174447,-187500.02235174447,-187500.02235174447,-187500.02235174447,1729950424.0337389,1729950423.47399,2000
-2445.81728527752,-187500.02235174447,10047.734981505271,-187500.02235174447,-187500.02235174447,-187500.02235174447,-187500.02235174447,-187500.02235174447,1729950424.038558,1729950423.47399,2000
-2309.471644100147,-187500.02235174447,10263.675184687994,-187500.02235174447,-187500.02235174447,-187500.02235174447,-187500.02235174447,-187500.02235174447,1729950424.0425642,1729950423.47399,2000
-2333.209196711683,-187500.02235174447,10296.308731592742,-187500.02235174447,-187500.02235174447,-187500.02235174447,-187500.02235174447,-187500.02235174447,1729950424.0468335,1729950423.47399,2000
-2423.3090786110256,-187500.02235174447,10112.24211600329,-187500.02235174447,-187500.02235174447,-187500.02235174447,-187500.02235174447,-187500.02235174447,1729950424.049605,1729950423.47399,2000
-2441.05636370854,-187500.02235174447,10065.057583458136,-187500.02235174447,-187500.02235174447,-187500.02235174447,-187500.02235174447,-187500.02235174447,1729950424.053662,1729950423.47399,2000
-2363.875790104364,-187500.02235174447,10234.081475029168,-187500.02235174447,-187500.02235174447,-187500.02235174447,-187500.02235174447,-187500.02235174447,1729950424.0576365,1729950423.47399,2000
-2310.633934811823,-187500.02235174447,10306.2329061309,-187500.02235174447,-187500.02235174447,-187500.02235174447,-187500.02235174447,-187500.02235174447,1729950424.061663,1729950423.47399,2000
-2404.019523146096,-187500.02235174447,10112.152709025468,-187500.02235174447,-187500.02235174447,-187500.02235174447,-187500.02235174447,-187500.02235174447,1729950424.0668032,1729950423.47399,2000
-2464.279826197604,-187500.02235174447,10018.633010224465,-187500.02235174447,-187500.02235174447,-187500.02235174447,-187500.02235174447,-187500.02235174447,1729950424.0709407,1729950423.47399,2000
-2311.2597836565715,-187500.02235174447,10204.934800259449,-187500.02235174447,-187500.02235174447,-187500.02235174447,-187500.02235174447,-187500.02235174447,1729950424.074674,1729950423.47399,2000
-2228.983012316586,-187500.02235174447,10368.393107461108,-187500.02235174447,-187500.02235174447,-187500.02235174447,-187500.02235174447,-187500.02235174447,1729950424.0777798,1729950423.47399,2000
-2327.688315831222,-187500.02235174447,10225.87838481407,-187500.02235174447,-187500.02235174447,-187500.02235174447,-187500.02235174447,-187500.02235174447,1729950424.083644,1729950423.47399,2000
-2471.29827395657,-187500.02235174447,10028.624239995986,-187500.02235174447,-187500.02235174447,-187500.02235174447,-187500.02235174447,-187500.02235174447,1729950424.0868297,1729950423.47399,2000
-2383.992360114141,-187500.02235174447,10131.084636579111,-187500.02235174447,-187500.02235174447,-187500.02235174447,-187500.02235174447,-187500.02235174447,1729950424.0896814,1729950423.47399,2000
-2268.277379069016,-187500.02235174447,10329.545775597784,-187500.02235174447,-187500.02235174447,-187500.02235174447,-187500.02235174447,-187500.02235174447,1729950424.0948155,1729950423.47399,2000
-2306.0965306873954,-187500.02235174447,10262.870521887604,-187500.02235174447,-187500.02235174447,-187500.02235174447,-187500.02235174447,-187500.02235174447,1729950424.0986717,1729950423.47399,2000
-2489.626704409922,-187500.02235174447,10069.215007926823,-187500.02235174447,-187500.02235174447,-187500.02235174447,-187500.02235174447,-187500.02235174447,1729950424.102722,1729950423.47399,2000
-2466.0009105206623,-187500.02235174447,10134.01271510276,-187500.02235174447,-187500.02235174447,-187500.02235174447,-187500.02235174447,-187500.02235174447,1729950424.1056545,1729950423.47399,2000
-2315.8418912699094,-187500.02235174447,10298.052167660257,-187500.02235174447,-187500.02235174447,-187500.02235174447,-187500.02235174447,-187500.02235174447,1729950424.109775,1729950423.47399,2000
-2295.993542193597,-187500.02235174447,10242.530434433274,-187500.02235174447,-187500.02235174447,-187500.02235174447,-187500.02235174447,-187500.02235174447,1729950424.11376,1729950423.47399,2000
-2450.3770411464025,-187500.02235174447,10067.583330581589,-187500.02235174447,-187500.02235174447,-187500.02235174447,-187500.02235174447,-187500.02235174447,1729950424.1177604,1729950423.47399,2000
-2455.5402941155785,-187500.02235174447,10099.166345496937,-187500.02235174447,-187500.02235174447,-187500.02235174447,-187500.02235174447,-187500.02235174447,1729950424.1226468,1729950423.47399,2000
-2275.7428617170885,-187500.02235174447,10294.788812969782,-187500.02235174447,-187500.02235174447,-187500.02235174447,-187500.02235174447,-187500.02235174447,1729950424.1267366,1729950423.47399,2000
-2258.442611508681,-187500.02235174447,10283.121202364113,-187500.02235174447,-187500.02235174447,-187500.02235174447,-187500.02235174447,-187500.02235174447,1729950424.1308513,1729950423.47399,2000
-2451.8969597693635,-187500.02235174447,10074.355909151544,-187500.02235174447,-187500.02235174447,-187500.02235174447,-187500.02235174447,-187500.02235174447,1729950424.1338873,1729950423.47399,2000
-2466.783221576598,-187500.02235174447,10089.04100525868,-187500.02235174447,-187500.02235174447,-187500.02235174447,-187500.02235174447,-187500.02235174447,1729950424.1378846,1729950423.47399,2000
-2273.328873315916,-187500.02235174447,10294.56529552523,-187500.02235174447,-187500.02235174447,-187500.02235174447,-187500.02235174447,-187500.02235174447,1729950424.141883,1729950423.47399,2000
-2253.771096917522,-187500.02235174447,10305.003560185858,-187500.02235174447,-187500.02235174447,-187500.02235174447,-187500.02235174447,-187500.02235174447,1729950424.1458,1729950423.47399,2000
-2423.756113500132,-187500.02235174447,10080.524990621208,-187500.02235174447,-187500.02235174447,-187500.02235174447,-187500.02235174447,-187500.02235174447,1729950424.1509624,1729950423.47399,2000
-2491.0572160550614,-187500.02235174447,10033.183995864869,-187500.02235174447,-187500.02235174447,-187500.02235174447,-187500.02235174447,-187500.02235174447,1729950424.1549103,1729950423.47399,2000
-2358.913702835286,-187500.02235174447,10227.800634837227,-187500.02235174447,-187500.02235174447,-187500.02235174447,-187500.02235174447,-187500.02235174447,1729950424.1578217,1729950423.47399,2000
-2242.9081491122424,-187500.02235174447,10330.395141887086,-187500.02235174447,-187500.02235174447,-187500.02235174447,-187500.02235174447,-187500.02235174447,1729950424.1619723,1729950423.47399,2000
-2379.9243426232747,-187500.02235174447,10150.57535774414,-187500.02235174447,-187500.02235174447,-187500.02235174447,-187500.02235174447,-187500.02235174447,1729950424.165743,1729950423.47399,2000
-2479.367253704936,-187500.02235174447,10035.061542399117,-187500.02235174447,-187500.02235174447,-187500.02235174447,-187500.02235174447,-187500.02235174447,1729950424.1699169,1729950423.47399,2000
-2372.9953018421297,-187500.02235174447,10186.315797128176,-187500.02235174447,-187500.02235174447,-187500.02235174447,-187500.02235174447,-187500.02235174447,1729950424.1737623,1729950423.47399,2000
-2287.566934533946,-187500.02235174447,10302.790737484782,-187500.02235174447,-187500.02235174447,-187500.02235174447,-187500.02235174447,-187500.02235174447,1729950424.1779397,1729950423.47399,2000
-2389.3791305278696,-187500.02235174447,10139.15361632748,-187500.02235174447,-187500.02235174447,-187500.02235174447,-187500.02235174447,-187500.02235174447,1729950424.1839547,1729950423.47399,2000
-2495.68402715731,-187500.02235174447,9968.699213111307,-187500.02235174447,-187500.02235174447,-187500.02235174447,-187500.02235174447,-187500.02235174447,1729950424.1869588,1729950423.47399,2000
-2419.755151242632,-187500.02235174447,10146.999078631292,-187500.02235174447,-187500.02235174447,-187500.02235174447,-187500.02235174447,-187500.02235174447,1729950424.1909535,1729950423.47399,2000
-2285.8234984664323,-187500.02235174447,10351.38342993062,-187500.02235174447,-187500.02235174447,-187500.02235174447,-187500.02235174447,-187500.02235174447,1729950424.193968,1729950423.47399,2000
-2310.991562723108,-187500.02235174447,10245.056181556723,-187500.02235174447,-187500.02235174447,-187500.02235174447,-187500.02235174447,-187500.02235174447,1729950424.1977613,1729950423.47399,2000
-2468.616064621933,-187500.02235174447,10039.286022101169,-187500.02235174447,-187500.02235174447,-187500.02235174447,-187500.02235174447,-187500.02235174447,1729950424.201803,1729950423.47399,2000
-2438.307099140537,-187500.02235174447,10103.681397876906,-187500.02235174447,-187500.02235174447,-187500.02235174447,-187500.02235174447,-187500.02235174447,1729950424.2059083,1729950423.47399,2000
-2254.2628352955385,-187500.02235174447,10301.89666770657,-187500.02235174447,-187500.02235174447,-187500.02235174447,-187500.02235174447,-187500.02235174447,1729950424.211033,1729950423.47399,2000
-2296.4852805716137,-187500.02235174447,10240.78699836576,-187500.02235174447,-187500.02235174447,-187500.02235174447,-187500.02235174447,-187500.02235174447,1729950424.213962,1729950423.47399,2000
-2439.1788171742937,-187500.02235174447,10029.808882452116,-187500.02235174447,-187500.02235174447,-187500.02235174447,-187500.02235174447,-187500.02235174447,1729950424.217952,1729950423.47399,2000
-2386.09342409294,-187500.02235174447,10064.521141591207,-187500.02235174447,-187500.02235174447,-187500.02235174447,-187500.02235174447,-187500.02235174447,1729950424.2219472,1729950423.47399,2000
-2319.015838982563,-187500.02235174447,10266.357394022632,-187500.02235174447,-187500.02235174447,-187500.02235174447,-187500.02235174447,-187500.02235174447,1729950424.2259989,1729950423.47399,2000
-2374.179944298261,-187500.02235174447,10273.93463539298,-187500.02235174447,-187500.02235174447,-187500.02235174447,-187500.02235174447,-187500.02235174447,1729950424.2299905,1729950423.47399,2000
-2468.459602410746,-187500.02235174447,10085.017691256726,-187500.02235174447,-187500.02235174447,-187500.02235174447,-187500.02235174447,-187500.02235174447,1729950424.2340157,1729950423.47399,2000
-2461.843486051975,-187500.02235174447,10060.877807244991,-187500.02235174447,-187500.02235174447,-187500.02235174447,-187500.02235174447,-187500.02235174447,1729950424.2390575,1729950423.47399,2000
-2298.631048039323,-187500.02235174447,10293.268894346822,-187500.02235174447,-187500.02235174447,-187500.02235174447,-187500.02235174447,-187500.02235174447,1729950424.242041,1729950423.47399,2000
-2257.347376030371,-187500.02235174447,10327.779987785816,-187500.02235174447,-187500.02235174447,-187500.02235174447,-187500.02235174447,-187500.02235174447,1729950424.2459023,1729950423.47399,2000
-2439.067058452017,-187500.02235174447,10096.372377440022,-187500.02235174447,-187500.02235174447,-187500.02235174447,-187500.02235174447,-187500.02235174447,1729950424.2501404,1729950423.47399,2000
-2522.1484925923937,-187500.02235174447,10017.26955381269,-187500.02235174447,-187500.02235174447,-187500.02235174447,-187500.02235174447,-187500.02235174447,1729950424.2541273,1729950423.47399,2000
-2344.742696850621,-187500.02235174447,10198.49749785632,-187500.02235174447,-187500.02235174447,-187500.02235174447,-187500.02235174447,-187500.02235174447,1729950424.2581253,1729950423.47399,2000
-2282.02370190903,-187500.02235174447,10288.530324522297,-187500.02235174447,-187500.02235174447,-187500.02235174447,-187500.02235174447,-187500.02235174447,1729950424.26187,1729950423.47399,2000
-2391.211973573205,-187500.02235174447,10103.81550834364,-187500.02235174447,-187500.02235174447,-187500.02235174447,-187500.02235174447,-187500.02235174447,1729950424.2671428,1729950423.47399,2000
-2431.914500226319,-187500.02235174447,10015.101434600523,-187500.02235174447,-187500.02235174447,-187500.02235174447,-187500.02235174447,-187500.02235174447,1729950424.2701168,1729950423.47399,2000
-2375.7445664101324,-187500.02235174447,10184.907637227492,-187500.02235174447,-187500.02235174447,-187500.02235174447,-187500.02235174447,-187500.02235174447,1729950424.272936,1729950423.47399,2000
-2267.6291784798123,-187500.02235174447,10348.500054895883,-187500.02235174447,-187500.02235174447,-187500.02235174447,-187500.02235174447,-187500.02235174447,1729950424.277918,1729950423.47399,2000
-2381.04192984604,-187500.02235174447,10202.25259092481,-187500.02235174447,-187500.02235174447,-187500.02235174447,-187500.02235174447,-187500.02235174447,1729950424.2818851,1729950423.47399,2000
-2488.285599742604,-187500.02235174447,10040.962402935314,-187500.02235174447,-187500.02235174447,-187500.02235174447,-187500.02235174447,-187500.02235174447,1729950424.2861185,1729950423.47399,2000
-2416.1341686408723,-187500.02235174447,10139.086561094113,-187500.02235174447,-187500.02235174447,-187500.02235174447,-187500.02235174447,-187500.02235174447,1729950424.2899208,1729950423.47399,2000
-2294.920658459742,-187500.02235174447,10307.775176498317,-187500.02235174447,-187500.02235174447,-187500.02235174447,-187500.02235174447,-187500.02235174447,1729950424.2941449,1729950423.47399,2000
-2336.181978724239,-187500.02235174447,10221.45273941192,-187500.02235174447,-187500.02235174447,-187500.02235174447,-187500.02235174447,-187500.02235174447,1729950424.2970667,1729950423.47399,2000
-2443.336241642981,-187500.02235174447,10046.975022193792,-187500.02235174447,-187500.02235174447,-187500.02235174447,-187500.02235174447,-187500.02235174447,1729950424.3011758,1729950423.47399,2000
-2441.749267786654,-187500.02235174447,10085.397670912464,-187500.02235174447,-187500.02235174447,-187500.02235174447,-187500.02235174447,-187500.02235174447,1729950424.3059535,1729950423.47399,2000
-2315.283097658527,-187500.02235174447,10274.493429004364,-187500.02235174447,-187500.02235174447,-187500.02235174447,-187500.02235174447,-187500.02235174447,1729950424.3100677,1729950423.47399,2000
-2291.6573037692674,-187500.02235174447,10257.304937518233,-187500.02235174447,-187500.02235174447,-187500.02235174447,-187500.02235174447,-187500.02235174447,1729950424.314093,1729950423.47399,2000
-2450.3099859130366,-187500.02235174447,10069.930263749393,-187500.02235174447,-187500.02235174447,-187500.02235174447,-187500.02235174447,-187500.02235174447,1729950424.3180475,1729950423.47399,2000
-2441.637509064378,-187500.02235174447,10079.027423742704,-187500.02235174447,-187500.02235174447,-187500.02235174447,-187500.02235174447,-187500.02235174447,1729950424.3211083,1729950423.47399,2000
-2253.1005445838628,-187500.02235174447,10266.2232835559,-187500.02235174447,-187500.02235174447,-187500.02235174447,-187500.02235174447,-187500.02235174447,1729950424.3251655,1729950423.47399,2000
-2204.8431283048544,-187500.02235174447,10293.492411791374,-187500.02235174447,-187500.02235174447,-187500.02235174447,-187500.02235174447,-187500.02235174447,1729950424.329213,1729950423.47399,2000
-2486.7880328640977,-187500.02235174447,10072.299548661656,-187500.02235174447,-187500.02235174447,-187500.02235174447,-187500.02235174447,-187500.02235174447,1729950424.3341548,1729950423.47399,2000
-2548.1212196494603,-187500.02235174447,10026.590231250551,-187500.02235174447,-187500.02235174447,-187500.02235174447,-187500.02235174447,-187500.02235174447,1729950424.3380816,1729950423.47399,2000
-2335.086743245929,-187500.02235174447,10245.637326912562,-187500.02235174447,-187500.02235174447,-187500.02235174447,-187500.02235174447,-187500.02235174447,1729950424.342176,1729950423.47399,2000
-2274.312350071949,-187500.02235174447,10297.85100196016,-187500.02235174447,-187500.02235174447,-187500.02235174447,-187500.02235174447,-187500.02235174447,1729950424.346113,1729950423.47399,2000
-2424.404314089336,-187500.02235174447,10065.124638691505,-187500.02235174447,-187500.02235174447,-187500.02235174447,-187500.02235174447,-187500.02235174447,1729950424.3501155,1729950423.47399,2000
-2478.070852526528,-187500.02235174447,10018.767120691196,-187500.02235174447,-187500.02235174447,-187500.02235174447,-187500.02235174447,-187500.02235174447,1729950424.3530524,1729950423.47399,2000
-2398.431587032269,-187500.02235174447,10205.53829735974,-187500.02235174447,-187500.02235174447,-187500.02235174447,-187500.02235174447,-187500.02235174447,1729950424.3570547,1729950423.47399,2000
-2298.631048039323,-187500.02235174447,10310.412682344042,-187500.02235174447,-187500.02235174447,-187500.02235174447,-187500.02235174447,-187500.02235174447,1729950424.3621647,1729950423.47399,2000
-2414.1895668732604,-187500.02235174447,10136.896090137494,-187500.02235174447,-187500.02235174447,-187500.02235174447,-187500.02235174447,-187500.02235174447,1729950424.366052,1729950423.47399,2000
-2502.7471784051872,-187500.02235174447,10014.02855086667,-187500.02235174447,-187500.02235174447,-187500.02235174447,-187500.02235174447,-187500.02235174447,1729950424.3702075,1729950423.47399,2000
-2359.539551680035,-187500.02235174447,10183.812401749185,-187500.02235174447,-187500.02235174447,-187500.02235174447,-187500.02235174447,-187500.02235174447,1729950424.3741844,1729950423.47399,2000
-2225.831416348388,-187500.02235174447,10355.518502654852,-187500.02235174447,-187500.02235174447,-187500.02235174447,-187500.02235174447,-187500.02235174447,1729950424.3784835,1729950423.47399,2000
-2323.7767605515432,-187500.02235174447,10178.179762146445,-187500.02235174447,-187500.02235174447,-187500.02235174447,-187500.02235174447,-187500.02235174447,1729950424.3811889,1729950423.47399,2000
-2447.784238789587,-187500.02235174447,10021.136405603458,-187500.02235174447,-187500.02235174447,-187500.02235174447,-187500.02235174447,-187500.02235174447,1729950424.385202,1729950423.47399,2000
-2407.6405057478555,-187500.02235174447,10135.644392447995,-187500.02235174447,-187500.02235174447,-187500.02235174447,-187500.02235174447,-187500.02235174447,1729950424.389186,1729950423.47399,2000
-2274.8487919388763,-187500.02235174447,10323.0861214502,-187500.02235174447,-187500.02235174447,-187500.02235174447,-187500.02235174447,-187500.02235174447,1729950424.3943045,1729950423.47399,2000
-2326.1907489527166,-187500.02235174447,10228.471187170886,-187500.02235174447,-187500.02235174447,-187500.02235174447,-187500.02235174447,-187500.02235174447,1729950424.398152,1729950423.47399,2000
-2486.0504252970727,-187500.02235174447,10037.721399989296,-187500.02235174447,-187500.02235174447,-187500.02235174447,-187500.02235174447,-187500.02235174447,1729950424.4021733,1729950423.47399,2000
-2470.627721622911,-187500.02235174447,10075.495848118764,-187500.02235174447,-187500.02235174447,-187500.02235174447,-187500.02235174447,-187500.02235174447,1729950424.4051275,1729950423.47399,2000
-2325.788417552521,-187500.02235174447,10260.858864886626,-187500.02235174447,-187500.02235174447,-187500.02235174447,-187500.02235174447,-187500.02235174447,1729950424.4093056,1729950423.47399,2000
-2341.479342160146,-187500.02235174447,10220.87159405608,-187500.02235174447,-187500.02235174447,-187500.02235174447,-187500.02235174447,-187500.02235174447,1729950424.413201,1729950423.47399,2000
-2510.5255854756338,-187500.02235174447,9995.230733779756,-187500.02235174447,-187500.02235174447,-187500.02235174447,-187500.02235174447,-187500.02235174447,1729950424.4174235,1729950423.47399,2000
-2451.360517902436,-187500.02235174447,10059.871978744504,-187500.02235174447,-187500.02235174447,-187500.02235174447,-187500.02235174447,-187500.02235174447,1729950424.422218,1729950423.47399,2000
-2275.295826827982,-187500.02235174447,10307.641066031583,-187500.02235174447,-187500.02235174447,-187500.02235174447,-187500.02235174447,-187500.02235174447,1729950424.4263055,1729950423.47399,2000
-2243.4669427236254,-187500.02235174447,10326.41653137404,-187500.02235174447,-187500.02235174447,-187500.02235174447,-187500.02235174447,-187500.02235174447,1729950424.4292932,1729950423.47399,2000
-2410.009790660118,-187500.02235174447,10094.695996605871,-187500.02235174447,-187500.02235174447,-187500.02235174447,-187500.02235174447,-187500.02235174447,1729950424.4332335,1729950423.47399,2000
-2490.5431259325896,-187500.02235174447,10019.92941140287,-187500.02235174447,-187500.02235174447,-187500.02235174447,-187500.02235174447,-187500.02235174447,1729950424.4372215,1729950423.47399,2000
-2340.764086337577,-187500.02235174447,10212.087358485149,-187500.02235174447,-187500.02235174447,-187500.02235174447,-187500.02235174447,-187500.02235174447,1729950424.4412453,1729950423.47399,2000
-2275.6758064837227,-187500.02235174447,10274.60518772664,-187500.02235174447,-187500.02235174447,-187500.02235174447,-187500.02235174447,-187500.02235174447,1729950424.445356,1729950423.47399,2000
-2430.618099047911,-187500.02235174447,10082.402537155454,-187500.02235174447,-187500.02235174447,-187500.02235174447,-187500.02235174447,-187500.02235174447,1729950424.4493616,1729950423.47399,2000
-2486.0951287859834,-187500.02235174447,10017.448367768333,-187500.02235174447,-187500.02235174447,-187500.02235174447,-187500.02235174447,-187500.02235174447,1729950424.45444,1729950423.47399,2000
-2364.613397671389,-187500.02235174447,10217.898812043526,-187500.02235174447,-187500.02235174447,-187500.02235174447,-187500.02235174447,-187500.02235174447,1729950424.4573069,1729950423.47399,2000
-2230.34646872836,-187500.02235174447,10331.088045965202,-187500.02235174447,-187500.02235174447,-187500.02235174447,-187500.02235174447,-187500.02235174447,1729950424.4614277,1729950423.47399,2000
-2352.118772520873,-187500.02235174447,10164.411087561975,-187500.02235174447,-187500.02235174447,-187500.02235174447,-187500.02235174447,-187500.02235174447,1729950424.4652524,1729950423.47399,2000
-2518.1251785904383,-187500.02235174447,10018.118920101992,-187500.02235174447,-187500.02235174447,-187500.02235174447,-187500.02235174447,-187500.02235174447,1729950424.469374,1729950423.47399,2000
-2397.8057381875205,-187500.02235174447,10165.305157340188,-187500.02235174447,-187500.02235174447,-187500.02235174447,-187500.02235174447,-187500.02235174447,1729950424.4732735,1729950423.47399,2000
-2265.483411012103,-187500.02235174447,10318.861641748148,-187500.02235174447,-187500.02235174447,-187500.02235174447,-187500.02235174447,-187500.02235174447,1729950424.4784882,1729950423.47399,2000
-2386.987493871152,-187500.02235174447,10174.312910355677,-187500.02235174447,-187500.02235174447,-187500.02235174447,-187500.02235174447,-187500.02235174447,1729950424.482335,1729950423.47399,2000
-2519.0192483686506,-187500.02235174447,9993.152021545411,-187500.02235174447,-187500.02235174447,-187500.02235174447,-187500.02235174447,-187500.02235174447,1729950424.4855895,1729950423.47399,2000
-2428.0923519244616,-187500.02235174447,10092.796098327171,-187500.02235174447,-187500.02235174447,-187500.02235174447,-187500.02235174447,-187500.02235174447,1729950424.4892683,1729950423.47399,2000
-2231.508759440036,-187500.02235174447,10312.603153300664,-187500.02235174447,-187500.02235174447,-187500.02235174447,-187500.02235174447,-187500.02235174447,1729950424.4935975,1729950423.47399,2000
-2282.694254242689,-187500.02235174447,10239.535300676263,-187500.02235174447,-187500.02235174447,-187500.02235174447,-187500.02235174447,-187500.02235174447,1729950424.4976685,1729950423.47399,2000
-2487.7938613645865,-187500.02235174447,10024.578574249575,-187500.02235174447,-187500.02235174447,-187500.02235174447,-187500.02235174447,-187500.02235174447,1729950424.5016537,1729950423.47399,2000
-2492.554782933567,-187500.02235174447,10061.99539446776,-187500.02235174447,-187500.02235174447,-187500.02235174447,-187500.02235174447,-187500.02235174447,1729950424.5063632,1729950423.47399,2000
-2271.384271548304,-187500.02235174447,10281.55658025224,-187500.02235174447,-187500.02235174447,-187500.02235174447,-187500.02235174447,-187500.02235174447,1729950424.5105882,1729950423.47399,2000
-2287.075196155929,-187500.02235174447,10266.93853937847,-187500.02235174447,-187500.02235174447,-187500.02235174447,-187500.02235174447,-187500.02235174447,1729950424.5134816,1729950423.47399,2000
-2463.721032586221,-187500.02235174447,10044.09164715906,-187500.02235174447,-187500.02235174447,-187500.02235174447,-187500.02235174447,-187500.02235174447,1729950424.517622,1729950423.47399,2000
-2492.800652122576,-187500.02235174447,10036.737923233262,-187500.02235174447,-187500.02235174447,-187500.02235174447,-187500.02235174447,-187500.02235174447,1729950424.5214207,1729950423.47399,2000
-2350.442391686725,-187500.02235174447,10217.630591110064,-187500.02235174447,-187500.02235174447,-187500.02235174447,-187500.02235174447,-187500.02235174447,1729950424.5255685,1729950423.47399,2000
-2295.1665276487506,-187500.02235174447,10287.300978577254,-187500.02235174447,-187500.02235174447,-187500.02235174447,-187500.02235174447,-187500.02235174447,1729950424.5295997,1729950423.47399,2000
-2413.787235473065,-187500.02235174447,10093.3325401941,-187500.02235174447,-187500.02235174447,-187500.02235174447,-187500.02235174447,-187500.02235174447,1729950424.5335991,1729950423.47399,2000
-2456.3449569159698,-187500.02235174447,10036.134426132969,-187500.02235174447,-187500.02235174447,-187500.02235174447,-187500.02235174447,-187500.02235174447,1729950424.539088,1729950423.47399,2000
-2352.0070137985963,-187500.02235174447,10229.40996043801,-187500.02235174447,-187500.02235174447,-187500.02235174447,-187500.02235174447,-187500.02235174447,1729950424.5414677,1729950423.47399,2000
-2283.700082743178,-187500.02235174447,10291.503106534852,-187500.02235174447,-187500.02235174447,-187500.02235174447,-187500.02235174447,-187500.02235174447,1729950424.545672,1729950423.47399,2000
-2428.4499798357465,-187500.02235174447,10108.33056072361,-187500.02235174447,-187500.02235174447,-187500.02235174447,-187500.02235174447,-187500.02235174447,1729950424.5494857,1729950423.47399,2000
-2495.505213201668,-187500.02235174447,10008.865297897495,-187500.02235174447,-187500.02235174447,-187500.02235174447,-187500.02235174447,-187500.02235174447,1729950424.553526,1729950423.47399,2000
-2376.526877466068,-187500.02235174447,10157.124418869544,-187500.02235174447,-187500.02235174447,-187500.02235174447,-187500.02235174447,-187500.02235174447,1729950424.557442,1729950423.47399,2000
-2266.556294745957,-187500.02235174447,10300.644970017072,-187500.02235174447,-187500.02235174447,-187500.02235174447,-187500.02235174447,-187500.02235174447,1729950424.562662,1729950423.47399,2000
-2364.7028046492105,-187500.02235174447,10171.898921954504,-187500.02235174447,-187500.02235174447,-187500.02235174447,-187500.02235174447,-187500.02235174447,1729950424.5654504,1729950423.47399,2000
-2485.1563555188604,-187500.02235174447,10017.962457890804,-187500.02235174447,-187500.02235174447,-187500.02235174447,-187500.02235174447,-187500.02235174447,1729950424.569124,1729950423.47399,2000
-2418.3246395974925,-187500.02235174447,10125.72021790984,-187500.02235174447,-187500.02235174447,-187500.02235174447,-187500.02235174447,-187500.02235174447,1729950424.573527,1729950423.47399,2000
-2260.1413440872843,-187500.02235174447,10304.400063085564,-187500.02235174447,-187500.02235174447,-187500.02235174447,-187500.02235174447,-187500.02235174447,1729950424.5775928,1729950423.47399,2000
-2362.84760985942,-187500.02235174447,10165.103991640091,-187500.02235174447,-187500.02235174447,-187500.02235174447,-187500.02235174447,-187500.02235174447,1729950424.5815473,1729950423.47399,2000
-2493.2476870116816,-187500.02235174447,9992.481469211754,-187500.02235174447,-187500.02235174447,-187500.02235174447,-187500.02235174447,-187500.02235174447,1729950424.5861971,1729950423.47399,2000
-2435.3119653835256,-187500.02235174447,10098.831069330105,-187500.02235174447,-187500.02235174447,-187500.02235174447,-187500.02235174447,-187500.02235174447,1729950424.5905452,1729950423.47399,2000
-2246.886759625287,-187500.02235174447,10318.034627203302,-187500.02235174447,-187500.02235174447,-187500.02235174447,-187500.02235174447,-187500.02235174447,1729950424.5937517,1729950423.47399,2000
-2302.944934719197,-187500.02235174447,10238.685934386962,-187500.02235174447,-187500.02235174447,-187500.02235174447,-187500.02235174447,-187500.02235174447,1729950424.5970285,1729950423.47399,2000
-2456.1884947047824,-187500.02235174447,10026.83610043956,-187500.02235174447,-187500.02235174447,-187500.02235174447,-187500.02235174447,-187500.02235174447,1729950424.60182,1729950423.47399,2000
-2469.241913466682,-187500.02235174447,10066.488095103276,-187500.02235174447,-187500.02235174447,-187500.02235174447,-187500.02235174447,-187500.02235174447,1729950424.6057732,1729950423.47399,2000
-2336.2937374465155,-187500.02235174447,10249.794751381249,-187500.02235174447,-187500.02235174447,-187500.02235174447,-187500.02235174447,-187500.02235174447,1729950424.609785,1729950423.47399,2000
-2331.331650177437,-187500.02235174447,10222.257402212312,-187500.02235174447,-187500.02235174447,-187500.02235174447,-187500.02235174447,-187500.02235174447,1729950424.614042,1729950423.47399,2000
-2413.1166831394057,-187500.02235174447,10061.61541481202,-187500.02235174447,-187500.02235174447,-187500.02235174447,-187500.02235174447,-187500.02235174447,1729950424.6190808,1729950423.47399,2000
-2431.556872315034,-187500.02235174447,10064.409382868933,-187500.02235174447,-187500.02235174447,-187500.02235174447,-187500.02235174447,-187500.02235174447,1729950424.6217968,1729950423.47399,2000
-2364.144011037828,-187500.02235174447,10239.535300676263,-187500.02235174447,-187500.02235174447,-187500.02235174447,-187500.02235174447,-187500.02235174447,1729950424.624519,1729950423.47399,2000
-2327.330687919937,-187500.02235174447,10260.992975353358,-187500.02235174447,-187500.02235174447,-187500.02235174447,-187500.02235174447,-187500.02235174447,1729950424.630055,1729950423.47399,2000
-2443.9620904877297,-187500.02235174447,10089.599798870064,-187500.02235174447,-187500.02235174447,-187500.02235174447,-187500.02235174447,-187500.02235174447,1729950424.6336665,1729950423.47399,2000
-2474.0028350356624,-187500.02235174447,10044.89630995945,-187500.02235174447,-187500.02235174447,-187500.02235174447,-187500.02235174447,-187500.02235174447,1729950424.6379545,1729950423.47399,2000
-2305.7165510316554,-187500.02235174447,10222.704437101416,-187500.02235174447,-187500.02235174447,-187500.02235174447,-187500.02235174447,-187500.02235174447,1729950424.64172,1729950423.47399,2000
-2237.431971720692,-187500.02235174447,10297.582781026696,-187500.02235174447,-187500.02235174447,-187500.02235174447,-187500.02235174447,-187500.02235174447,1729950424.6461835,1729950423.47399,2000
-2432.920328726808,-187500.02235174447,10118.969991084336,-187500.02235174447,-187500.02235174447,-187500.02235174447,-187500.02235174447,-187500.02235174447,1729950424.6496,1729950423.47399,2000
-2524.7636466936647,-187500.02235174447,10013.626219466474,-187500.02235174447,-187500.02235174447,-187500.02235174447,-187500.02235174447,-187500.02235174447,1729950424.6527336,1729950423.47399,2000
-2376.6386361883447,-187500.02235174447,10145.501511752786,-187500.02235174447,-187500.02235174447,-187500.02235174447,-187500.02235174447,-187500.02235174447,1729950424.6566422,1729950423.47399,2000
-2289.7797572350214,-187500.02235174447,10264.591606210664,-187500.02235174447,-187500.02235174447,-187500.02235174447,-187500.02235174447,-187500.02235174447,1729950424.6618185,1729950423.47399,2000
-2399.7056364662217,-187500.02235174447,10142.10404659558,-187500.02235174447,-187500.02235174447,-187500.02235174447,-187500.02235174447,-187500.02235174447,1729950424.6656616,1729950423.47399,2000
-2484.8210793520307,-187500.02235174447,10030.144158618948,-187500.02235174447,-187500.02235174447,-187500.02235174447,-187500.02235174447,-187500.02235174447,1729950424.6701124,1729950423.47399,2000
-2412.5802412724784,-187500.02235174447,10118.657066661965,-187500.02235174447,-187500.02235174447,-187500.02235174447,-187500.02235174447,-187500.02235174447,1729950424.6737168,1729950423.47399,2000
-2325.9448797637083,-187500.02235174447,10259.473056730398,-187500.02235174447,-187500.02235174447,-187500.02235174447,-187500.02235174447,-187500.02235174447,1729950424.6778789,1729950423.47399,2000
-2305.493033587102,-187500.02235174447,10195.234143165844,-187500.02235174447,-187500.02235174447,-187500.02235174447,-187500.02235174447,-187500.02235174447,1729950424.6808002,1729950423.47399,2000
-2465.308006442548,-187500.02235174447,10034.905080187928,-187500.02235174447,-187500.02235174447,-187500.02235174447,-187500.02235174447,-187500.02235174447,1729950424.6849089,1729950423.47399,2000
-2456.1661429603278,-187500.02235174447,10090.918551792927,-187500.02235174447,-187500.02235174447,-187500.02235174447,-187500.02235174447,-187500.02235174447,1729950424.6896205,1729950423.47399,2000
-2267.271550568528,-187500.02235174447,10307.417548587033,-187500.02235174447,-187500.02235174447,-187500.02235174447,-187500.02235174447,-187500.02235174447,1729950424.6943743,1729950423.47399,2000
-2305.8730132428427,-187500.02235174447,10254.086286316668,-187500.02235174447,-187500.02235174447,-187500.02235174447,-187500.02235174447,-187500.02235174447,1729950424.697588,1729950423.47399,2000
-2483.390567706891,-187500.02235174447,10044.024591925692,-187500.02235174447,-187500.02235174447,-187500.02235174447,-187500.02235174447,-187500.02235174447,1729950424.7009037,1729950423.47399,2000
-2501.0707975710397,-187500.02235174447,10032.60285050903,-187500.02235174447,-187500.02235174447,-187500.02235174447,-187500.02235174447,-187500.02235174447,1729950424.7048912,1729950423.47399,2000
-2349.3918596973253,-187500.02235174447,10228.895870315537,-187500.02235174447,-187500.02235174447,-187500.02235174447,-187500.02235174447,-187500.02235174447,1729950424.7088213,1729950423.47399,2000
-2297.5134608165577,-187500.02235174447,10258.534283463274,-187500.02235174447,-187500.02235174447,-187500.02235174447,-187500.02235174447,-187500.02235174447,1729950424.7128096,1729950423.47399,2000
-2414.1225116398946,-187500.02235174447,10088.236342458287,-187500.02235174447,-187500.02235174447,-187500.02235174447,-187500.02235174447,-187500.02235174447,1729950424.7176993,1729950423.47399,2000
-2419.397523331347,-187500.02235174447,10049.009030939224,-187500.02235174447,-187500.02235174447,-187500.02235174447,-187500.02235174447,-187500.02235174447,1729950424.721797,1729950423.47399,2000
-2290.763233991055,-187500.02235174447,10235.579041907671,-187500.02235174447,-187500.02235174447,-187500.02235174447,-187500.02235174447,-187500.02235174447,1729950424.7258604,1729950423.47399,2000
-2282.1578123757618,-187500.02235174447,10289.022062900312,-187500.02235174447,-187500.02235174447,-187500.02235174447,-187500.02235174447,-187500.02235174447,1729950424.7288594,1729950423.47399,2000
-2446.219616677716,-187500.02235174447,10072.94774925086,-187500.02235174447,-187500.02235174447,-187500.02235174447,-187500.02235174447,-187500.02235174447,1729950424.7326825,1729950423.47399,2000
-2507.955134863273,-187500.02235174447,9979.293939983125,-187500.02235174447,-187500.02235174447,-187500.02235174447,-187500.02235174447,-187500.02235174447,1729950424.7368665,1729950423.47399,2000
-2384.081767091962,-187500.02235174447,10172.189494632425,-187500.02235174447,-187500.02235174447,-187500.02235174447,-187500.02235174447,-187500.02235174447,1729950424.7407331,1729950423.47399,2000
-2271.5183820150355,-187500.02235174447,10303.573048540718,-187500.02235174447,-187500.02235174447,-187500.02235174447,-187500.02235174447,-187500.02235174447,1729950424.7459047,1729950423.47399,2000
-2376.012787343596,-187500.02235174447,10123.19447078639,-187500.02235174447,-187500.02235174447,-187500.02235174447,-187500.02235174447,-187500.02235174447,1729950424.7497747,1729950423.47399,2000
-2508.715094174754,-187500.02235174447,10004.149079817424,-187500.02235174447,-187500.02235174447,-187500.02235174447,-187500.02235174447,-187500.02235174447,1729950424.753822,1729950423.47399,2000
-2420.2245378761936,-187500.02235174447,10150.687116466415,-187500.02235174447,-187500.02235174447,-187500.02235174447,-187500.02235174447,-187500.02235174447,1729950424.7566397,1729950423.47399,2000
-2280.3473210748816,-187500.02235174447,10300.644970017072,-187500.02235174447,-187500.02235174447,-187500.02235174447,-187500.02235174447,-187500.02235174447,1729950424.7606711,1729950423.47399,2000
-2366.021557572074,-187500.02235174447,10159.828979948636,-187500.02235174447,-187500.02235174447,-187500.02235174447,-187500.02235174447,-187500.02235174447,1729950424.764654,1729950423.47399,2000
-2468.325491944014,-187500.02235174447,10025.472644027788,-187500.02235174447,-187500.02235174447,-187500.02235174447,-187500.02235174447,-187500.02235174447,1729950424.768919,1729950423.47399,2000
-2358.421964457269,-187500.02235174447,10144.249814063289,-187500.02235174447,-187500.02235174447,-187500.02235174447,-187500.02235174447,-187500.02235174447,1729950424.7726376,1729950423.47399,2000
-2245.5009514690582,-187500.02235174447,10312.625505045116,-187500.02235174447,-187500.02235174447,-187500.02235174447,-187500.02235174447,-187500.02235174447,1729950424.77782,1729950423.47399,2000
-2377.242133288638,-187500.02235174447,10180.750212758803,-187500.02235174447,-187500.02235174447,-187500.02235174447,-187500.02235174447,-187500.02235174447,1729950424.7816625,1729950423.47399,2000
-2508.357466263469,-187500.02235174447,10007.948876374829,-187500.02235174447,-187500.02235174447,-187500.02235174447,-187500.02235174447,-187500.02235174447,1729950424.7848673,1729950423.47399,2000
-2431.690982781766,-187500.02235174447,10077.351042908556,-187500.02235174447,-187500.02235174447,-187500.02235174447,-187500.02235174447,-187500.02235174447,1729950424.788843,1729950423.47399,2000
-2332.5162926335684,-187500.02235174447,10254.153341550034,-187500.02235174447,-187500.02235174447,-187500.02235174447,-187500.02235174447,-187500.02235174447,1729950424.7927134,1729950423.47399,2000
-2334.349135678904,-187500.02235174447,10228.895870315537,-187500.02235174447,-187500.02235174447,-187500.02235174447,-187500.02235174447,-187500.02235174447,1729950424.7966735,1729950423.47399,2000
-2477.8696868264306,-187500.02235174447,10033.787492965164,-187500.02235174447,-187500.02235174447,-187500.02235174447,-187500.02235174447,-187500.02235174447,1729950424.8009129,1729950423.47399,2000
-2485.8716113414303,-187500.02235174447,10042.974059936292,-187500.02235174447,-187500.02235174447,-187500.02235174447,-187500.02235174447,-187500.02235174447,1729950424.8058336,1729950423.47399,2000
-2280.6602454972563,-187500.02235174447,10266.335042278177,-187500.02235174447,-187500.02235174447,-187500.02235174447,-187500.02235174447,-187500.02235174447,1729950424.8087804,1729950423.47399,2000
-2262.868256910832,-187500.02235174447,10286.98805415488,-187500.02235174447,-187500.02235174447,-187500.02235174447,-187500.02235174447,-187500.02235174447,1729950424.812848,1729950423.47399,2000
-2448.857122523442,-187500.02235174447,10073.79711554016,-187500.02235174447,-187500.02235174447,-187500.02235174447,-187500.02235174447,-187500.02235174447,1729950424.8168528,1729950423.47399,2000
-2486.1845357638044,-187500.02235174447,10017.157795090414,-187500.02235174447,-187500.02235174447,-187500.02235174447,-187500.02235174447,-187500.02235174447,1729950424.8208542,1729950423.47399,2000
-2328.8059030539875,-187500.02235174447,10205.895925271026,-187500.02235174447,-187500.02235174447,-187500.02235174447,-187500.02235174447,-187500.02235174447,1729950424.8249776,1729950423.47399,2000
-2275.564047761446,-187500.02235174447,10297.985112426892,-187500.02235174447,-187500.02235174447,-187500.02235174447,-187500.02235174447,-187500.02235174447,1729950424.8290415,1729950423.47399,2000
-2414.7930639735537,-187500.02235174447,10111.258639247257,-187500.02235174447,-187500.02235174447,-187500.02235174447,-187500.02235174447,-187500.02235174447,1729950424.8344402,1729950423.47399,2000
-2475.25453272516,-187500.02235174447,10033.519272031695,-187500.02235174447,-187500.02235174447,-187500.02235174447,-187500.02235174447,-187500.02235174447,1729950424.8370168,1729950423.47399,2000
-2374.0011303426186,-187500.02235174447,10190.182648918944,-187500.02235174447,-187500.02235174447,-187500.02235174447,-187500.02235174447,-187500.02235174447,1729950424.8408804,1729950423.47399,2000
-2279.9449896746864,-187500.02235174447,10293.335949580189,-187500.02235174447,-187500.02235174447,-187500.02235174447,-187500.02235174447,-187500.02235174447,1729950424.844983,1729950423.47399,2000
-2384.2829327920595,-187500.02235174447,10125.519052209742,-187500.02235174447,-187500.02235174447,-187500.02235174447,-187500.02235174447,-187500.02235174447,1729950424.8488376,1729950423.47399,2000
-2497.650980669377,-187500.02235174447,10001.399815249422,-187500.02235174447,-187500.02235174447,-187500.02235174447,-187500.02235174447,-187500.02235174447,1729950424.8527803,1729950423.47399,2000
-2378.85145888942,-187500.02235174447,10155.805665946684,-187500.02235174447,-187500.02235174447,-187500.02235174447,-187500.02235174447,-187500.02235174447,1729950424.8568633,1729950423.47399,2000
-2234.9062245972427,-187500.02235174447,10285.758708209838,-187500.02235174447,-187500.02235174447,-187500.02235174447,-187500.02235174447,-187500.02235174447,1729950424.8624964,1729950423.47399,2000
-2379.365549011892,-187500.02235174447,10140.00298261678,-187500.02235174447,-187500.02235174447,-187500.02235174447,-187500.02235174447,-187500.02235174447,1729950424.8648636,1729950423.47399,2000
-2521.88027165893,-187500.02235174447,10007.613600207997,-187500.02235174447,-187500.02235174447,-187500.02235174447,-187500.02235174447,-187500.02235174447,1729950424.8692195,1729950423.47399,2000
-2417.318811097004,-187500.02235174447,10134.839729647603,-187500.02235174447,-187500.02235174447,-187500.02235174447,-187500.02235174447,-187500.02235174447,1729950424.8727849,1729950423.47399,2000
-2265.3493005453706,-187500.02235174447,10295.414661814531,-187500.02235174447,-187500.02235174447,-187500.02235174447,-187500.02235174447,-187500.02235174447,1729950424.8771205,1729950423.47399,2000
-2323.2179669401607,-187500.02235174447,10187.96982621787,-187500.02235174447,-187500.02235174447,-187500.02235174447,-187500.02235174447,-187500.02235174447,1729950424.8808525,1729950423.47399,2000
-2518.25928905717,-187500.02235174447,9997.421204736376,-187500.02235174447,-187500.02235174447,-187500.02235174447,-187500.02235174447,-187500.02235174447,1729950424.8855743,1729950423.47399,2000
-2468.861933810941,-187500.02235174447,10082.380185411,-187500.02235174447,-187500.02235174447,-187500.02235174447,-187500.02235174447,-187500.02235174447,1729950424.8899405,1729950423.47399,2000
-2280.369672819337,-187500.02235174447,10280.818972685216,-187500.02235174447,-187500.02235174447,-187500.02235174447,-187500.02235174447,-187500.02235174447,1729950424.8928828,1729950423.47399,2000
-2307.4152836102585,-187500.02235174447,10236.763684363805,-187500.02235174447,-187500.02235174447,-187500.02235174447,-187500.02235174447,-187500.02235174447,1729950424.8963802,1729950423.47399,2000
-2458.5130761281343,-187500.02235174447,10027.55135626213,-187500.02235174447,-187500.02235174447,-187500.02235174447,-187500.02235174447,-187500.02235174447,1729950424.901183,1729950423.47399,2000
-2454.802686548553,-187500.02235174447,10061.70482178984,-187500.02235174447,-187500.02235174447,-187500.02235174447,-187500.02235174447,-187500.02235174447,1729950424.9048584,1729950423.47399,2000
-2310.1868999227167,-187500.02235174447,10251.135856048568,-187500.02235174447,-187500.02235174447,-187500.02235174447,-187500.02235174447,-187500.02235174447,1729950424.9088724,1729950423.47399,2000
-2286.091719399896,-187500.02235174447,10269.97837662439,-187500.02235174447,-187500.02235174447,-187500.02235174447,-187500.02235174447,-187500.02235174447,1729950424.913076,1729950423.47399,2000
-2467.721994843721,-187500.02235174447,10028.758350462718,-187500.02235174447,-187500.02235174447,-187500.02235174447,-187500.02235174447,-187500.02235174447,1729950424.9179828,1729950423.47399,2000
-2549.8870074614297,-187500.02235174447,9964.899416553906,-187500.02235174447,-187500.02235174447,-187500.02235174447,-187500.02235174447,-187500.02235174447,1729950424.9210584,1729950423.47399,2000
-2349.794191097521,-187500.02235174447,10215.954210275915,-187500.02235174447,-187500.02235174447,-187500.02235174447,-187500.02235174447,-187500.02235174447,1729950424.9238784,1729950423.47399,2000
-2249.233692793094,-187500.02235174447,10321.722665038427,-187500.02235174447,-187500.02235174447,-187500.02235174447,-187500.02235174447,-187500.02235174447,1729950424.9289117,1729950423.47399,2000
-2399.3480085549368,-187500.02235174447,10101.557982153652,-187500.02235174447,-187500.02235174447,-187500.02235174447,-187500.02235174447,-187500.02235174447,1729950424.9329035,1729950423.47399,2000
-2482.340035717492,-187500.02235174447,10008.64178045294,-187500.02235174447,-187500.02235174447,-187500.02235174447,-187500.02235174447,-187500.02235174447,1729950424.9369185,1729950423.47399,2000
-2360.9924150696297,-187500.02235174447,10202.25259092481,-187500.02235174447,-187500.02235174447,-187500.02235174447,-187500.02235174447,-187500.02235174447,1729950424.940909,1729950423.47399,2000
-2253.6146347063345,-187500.02235174447,10323.622563317129,-187500.02235174447,-187500.02235174447,-187500.02235174447,-187500.02235174447,-187500.02235174447,1729950424.9464824,1729950423.47399,2000
-2369.1731535402723,-187500.02235174447,10132.33633426861,-187500.02235174447,-187500.02235174447,-187500.02235174447,-187500.02235174447,-187500.02235174447,1729950424.94911,1729950423.47399,2000
-2511.4867104872123,-187500.02235174447,9983.78664061864,-187500.02235174447,-187500.02235174447,-187500.02235174447,-187500.02235174447,-187500.02235174447,1729950424.952498,1729950423.47399,2000
-2371.788307641543,-187500.02235174447,10116.980685827815,-187500.02235174447,-187500.02235174447,-187500.02235174447,-187500.02235174447,-187500.02235174447,1729950424.9569197,1729950423.47399,2000
-2258.956701631153,-187500.02235174447,10305.718816008428,-187500.02235174447,-187500.02235174447,-187500.02235174447,-187500.02235174447,-187500.02235174447,1729950424.961255,1729950423.47399,2000
-2390.0273311170736,-187500.02235174447,10179.677329024951,-187500.02235174447,-187500.02235174447,-187500.02235174447,-187500.02235174447,-187500.02235174447,1729950424.9650245,1729950423.47399,2000
-2507.172823807338,-187500.02235174447,10006.808937407606,-187500.02235174447,-187500.02235174447,-187500.02235174447,-187500.02235174447,-187500.02235174447,1729950424.9692938,1729950423.47399,2000
-2439.379982874392,-187500.02235174447,10089.666854103429,-187500.02235174447,-187500.02235174447,-187500.02235174447,-187500.02235174447,-187500.02235174447,1729950424.972258,1729950423.47399,2000
-2313.562013335468,-187500.02235174447,10250.420600225998,-187500.02235174447,-187500.02235174447,-187500.02235174447,-187500.02235174447,-187500.02235174447,1729950424.976746,1729950423.47399,2000
-2338.9982985256074,-187500.02235174447,10195.748233288316,-187500.02235174447,-187500.02235174447,-187500.02235174447,-187500.02235174447,-187500.02235174447,1729950424.9806173,1729950423.47399,2000
-2471.67825361231,-187500.02235174447,10032.2675743422,-187500.02235174447,-187500.02235174447,-187500.02235174447,-187500.02235174447,-187500.02235174447,1729950424.985538,1729950423.47399,2000
-2427.757075757632,-187500.02235174447,10086.694072090871,-187500.02235174447,-187500.02235174447,-187500.02235174447,-187500.02235174447,-187500.02235174447,1729950424.9892936,1729950423.47399,2000
-2271.361919803848,-187500.02235174447,10283.881161675592,-187500.02235174447,-187500.02235174447,-187500.02235174447,-187500.02235174447,-187500.02235174447,1729950424.9930415,1729950423.47399,2000
-2298.5192893170465,-187500.02235174447,10234.036771540255,-187500.02235174447,-187500.02235174447,-187500.02235174447,-187500.02235174447,-187500.02235174447,1729950424.9973297,1729950423.47399,2000
-2482.161221761849,-187500.02235174447,10019.392969535944,-187500.02235174447,-187500.02235174447,-187500.02235174447,-187500.02235174447,-187500.02235174447,1729950425.0014124,1729950423.47399,2000
-2468.660768110844,-187500.02235174447,10049.143141405955,-187500.02235174447,-187500.02235174447,-187500.02235174447,-187500.02235174447,-187500.02235174447,1729950425.0042267,1729950423.47399,2000
-2315.573670336446,-187500.02235174447,10250.97939383738,-187500.02235174447,-187500.02235174447,-187500.02235174447,-187500.02235174447,-187500.02235174447,1729950425.008299,1729950423.47399,2000
-2294.451271826181,-187500.02235174447,10273.420545270508,-187500.02235174447,-187500.02235174447,-187500.02235174447,-187500.02235174447,-187500.02235174447,1729950425.0125084,1729950423.47399,2000
-2427.2206338907044,-187500.02235174447,10068.85738001554,-187500.02235174447,-187500.02235174447,-187500.02235174447,-187500.02235174447,-187500.02235174447,1729950425.0172868,1729950423.47399,2000
-2507.552803463078,-187500.02235174447,10003.70204492832,-187500.02235174447,-187500.02235174447,-187500.02235174447,-187500.02235174447,-187500.02235174447,1729950425.0213933,1729950423.47399,2000
-2352.9681388101744,-187500.02235174447,10204.59952409262,-187500.02235174447,-187500.02235174447,-187500.02235174447,-187500.02235174447,-187500.02235174447,1729950425.025321,1729950423.47399,2000
-2275.318178572438,-187500.02235174447,10287.479792532897,-187500.02235174447,-187500.02235174447,-187500.02235174447,-187500.02235174447,-187500.02235174447,1729950425.0283415,1729950423.47399,2000
-2450.757020802143,-187500.02235174447,10068.678566059896,-187500.02235174447,-187500.02235174447,-187500.02235174447,-187500.02235174447,-187500.02235174447,1729950425.032304,1729950423.47399,2000
-2550.065821417072,-187500.02235174447,9914.652695018374,-187500.02235174447,-187500.02235174447,-187500.02235174447,-187500.02235174447,-187500.02235174447,1729950425.036306,1729950423.47399,2000
-2399.7950434440427,-187500.02235174447,10135.86790989255,-187500.02235174447,-187500.02235174447,-187500.02235174447,-187500.02235174447,-187500.02235174447,1729950425.0401847,1729950423.47399,2000
-2261.7283179436117,-187500.02235174447,10340.028743747323,-187500.02235174447,-187500.02235174447,-187500.02235174447,-187500.02235174447,-187500.02235174447,1729950425.0454152,1729950423.47399,2000
-2352.6775661322554,-187500.02235174447,10170.244892864812,-187500.02235174447,-187500.02235174447,-187500.02235174447,-187500.02235174447,-187500.02235174447,1729950425.0492609,1729950423.47399,2000
-2486.96684681974,-187500.02235174447,10011.70396944332,-187500.02235174447,-187500.02235174447,-187500.02235174447,-187500.02235174447,-187500.02235174447,1729950425.0532832,1729950423.47399,2000
-2386.629865959867,-187500.02235174447,10145.76973268625,-187500.02235174447,-187500.02235174447,-187500.02235174447,-187500.02235174447,-187500.02235174447,1729950425.056128,1729950423.47399,2000
-2258.7108324421447,-187500.02235174447,10310.65855153305,-187500.02235174447,-187500.02235174447,-187500.02235174447,-187500.02235174447,-187500.02235174447,1729950425.0607214,1729950423.47399,2000
-2350.0624120309844,-187500.02235174447,10176.950416201404,-187500.02235174447,-187500.02235174447,-187500.02235174447,-187500.02235174447,-187500.02235174447,1729950425.064157,1729950423.47399,2000
-2483.122346773428,-187500.02235174447,9990.179239532858,-187500.02235174447,-187500.02235174447,-187500.02235174447,-187500.02235174447,-187500.02235174447,1729950425.06838,1729950423.47399,2000
-2412.021447661096,-187500.02235174447,10074.355909151544,-187500.02235174447,-187500.02235174447,-187500.02235174447,-187500.02235174447,-187500.02235174447,1729950425.0731444,1729950423.47399,2000
-2296.5523358049795,-187500.02235174447,10230.080512771669,-187500.02235174447,-187500.02235174447,-187500.02235174447,-187500.02235174447,-187500.02235174447,1729950425.0776713,1729950423.47399,2000
-2364.6804529047554,-187500.02235174447,10199.615085079084,-187500.02235174447,-187500.02235174447,-187500.02235174447,-187500.02235174447,-187500.02235174447,1729950425.0803957,1729950423.47399,2000
-2479.30019847157,-187500.02235174447,10063.336499135075,-187500.02235174447,-187500.02235174447,-187500.02235174447,-187500.02235174447,-187500.02235174447,1729950425.0843558,1729950423.47399,2000
-2439.7376107856767,-187500.02235174447,10082.51429587773,-187500.02235174447,-187500.02235174447,-187500.02235174447,-187500.02235174447,-187500.02235174447,1729950425.0883749,1729950423.47399,2000
-2293.758367748066,-187500.02235174447,10270.000728368846,-187500.02235174447,-187500.02235174447,-187500.02235174447,-187500.02235174447,-187500.02235174447,1729950425.092207,1729950423.47399,2000
-2313.7855307800214,-187500.02235174447,10241.435198954963,-187500.02235174447,-187500.02235174447,-187500.02235174447,-187500.02235174447,-187500.02235174447,1729950425.0966566,1729950423.47399,2000
-2490.63253291041,-187500.02235174447,10025.718513216796,-187500.02235174447,-187500.02235174447,-187500.02235174447,-187500.02235174447,-187500.02235174447,1729950425.1003184,1729950423.47399,2000
-2495.818137624042,-187500.02235174447,10016.978981134773,-187500.02235174447,-187500.02235174447,-187500.02235174447,-187500.02235174447,-187500.02235174447,1729950425.1055343,1729950423.47399,2000
-2309.2928301445045,-187500.02235174447,10242.55278617773,-187500.02235174447,-187500.02235174447,-187500.02235174447,-187500.02235174447,-187500.02235174447,1729950425.108459,1729950423.47399,2000
-2256.9450446301757,-187500.02235174447,10282.383594797087,-187500.02235174447,-187500.02235174447,-187500.02235174447,-187500.02235174447,-187500.02235174447,1729950425.1124673,1729950423.47399,2000
-2433.9038054828416,-187500.02235174447,10062.777705523697,-187500.02235174447,-187500.02235174447,-187500.02235174447,-187500.02235174447,-187500.02235174447,1729950425.1164117,1729950423.47399,2000
-2525.5459577496003,-187500.02235174447,9982.959626073793,-187500.02235174447,-187500.02235174447,-187500.02235174447,-187500.02235174447,-187500.02235174447,1729950425.120654,1729950423.47399,2000
-2376.012787343596,-187500.02235174447,10165.081639895636,-187500.02235174447,-187500.02235174447,-187500.02235174447,-187500.02235174447,-187500.02235174447,1729950425.1243656,1729950423.47399,2000
-2287.6786932562227,-187500.02235174447,10299.0803479052,-187500.02235174447,-187500.02235174447,-187500.02235174447,-187500.02235174447,-187500.02235174447,1729950425.1286652,1729950423.47399,2000
-2436.8318840064867,-187500.02235174447,10099.546325152674,-187500.02235174447,-187500.02235174447,-187500.02235174447,-187500.02235174447,-187500.02235174447,1729950425.1334326,1729950423.47399,2000
-2494.812309123553,-187500.02235174447,10005.579591462563,-187500.02235174447,-187500.02235174447,-187500.02235174447,-187500.02235174447,-187500.02235174447,1729950425.1365852,1729950423.47399,2000
-2356.4550109452025,-187500.02235174447,10186.002872705803,-187500.02235174447,-187500.02235174447,-187500.02235174447,-187500.02235174447,-187500.02235174447,1729950425.1404269,1729950423.47399,2000
-2261.527152243513,-187500.02235174447,10308.490432320885,-187500.02235174447,-187500.02235174447,-187500.02235174447,-187500.02235174447,-187500.02235174447,1729950425.144921,1729950423.47399,2000
-2366.423888972269,-187500.02235174447,10146.216767575355,-187500.02235174447,-187500.02235174447,-187500.02235174447,-187500.02235174447,-187500.02235174447,1729950425.1483428,1729950423.47399,2000
-2487.5032886866675,-187500.02235174447,10010.586382220554,-187500.02235174447,-187500.02235174447,-187500.02235174447,-187500.02235174447,-187500.02235174447,1729950425.1526277,1729950423.47399,2000
-2406.075883635984,-187500.02235174447,10127.754226655272,-187500.02235174447,-187500.02235174447,-187500.02235174447,-187500.02235174447,-187500.02235174447,1729950425.1563203,1729950423.47399,2000
-2266.9586261461527,-187500.02235174447,10289.245580344868,-187500.02235174447,-187500.02235174447,-187500.02235174447,-187500.02235174447,-187500.02235174447,1729950425.1616485,1729950423.47399,2000
-2384.394691514336,-187500.02235174447,10158.48787528132,-187500.02235174447,-187500.02235174447,-187500.02235174447,-187500.02235174447,-187500.02235174447,1729950425.1643183,1729950423.47399,2000
-2532.430295041835,-187500.02235174447,9978.39987020491,-187500.02235174447,-187500.02235174447,-187500.02235174447,-187500.02235174447,-187500.02235174447,1729950425.1687968,1729950423.47399,2000
-2435.535482828079,-187500.02235174447,10078.84860978706,-187500.02235174447,-187500.02235174447,-187500.02235174447,-187500.02235174447,-187500.02235174447,1729950425.172384,1729950423.47399,2000
-2271.473678526125,-187500.02235174447,10286.742184965871,-187500.02235174447,-187500.02235174447,-187500.02235174447,-187500.02235174447,-187500.02235174447,1729950425.1770513,1729950423.47399,2000
-2329.4988071321022,-187500.02235174447,10198.296332156222,-187500.02235174447,-187500.02235174447,-187500.02235174447,-187500.02235174447,-187500.02235174447,1729950425.1805472,1729950423.47399,2000
-2510.5702889645445,-187500.02235174447,9986.960588331292,-187500.02235174447,-187500.02235174447,-187500.02235174447,-187500.02235174447,-187500.02235174447,1729950425.1850848,1729950423.47399,2000
-2484.262285740648,-187500.02235174447,10045.432751826376,-187500.02235174447,-187500.02235174447,-187500.02235174447,-187500.02235174447,-187500.02235174447,1729950425.1894248,1729950423.47399,2000
-2313.986696480119,-187500.02235174447,10273.46524875942,-187500.02235174447,-187500.02235174447,-187500.02235174447,-187500.02235174447,-187500.02235174447,1729950425.192546,1729950423.47399,2000
-2302.095568429896,-187500.02235174447,10253.54984444974,-187500.02235174447,-187500.02235174447,-187500.02235174447,-187500.02235174447,-187500.02235174447,1729950425.1966534,1729950423.47399,2000
-2439.9611282302294,-187500.02235174447,10055.51338857572,-187500.02235174447,-187500.02235174447,-187500.02235174447,-187500.02235174447,-187500.02235174447,1729950425.200515,1729950423.47399,2000
-2447.1583899448383,-187500.02235174447,10044.829254726084,-187500.02235174447,-187500.02235174447,-187500.02235174447,-187500.02235174447,-187500.02235174447,1729950425.2049732,1729950423.47399,2000
-2310.991562723108,-187500.02235174447,10237.41188495301,-187500.02235174447,-187500.02235174447,-187500.02235174447,-187500.02235174447,-187500.02235174447,1729950425.2085764,1729950423.47399,2000
-2292.9090014587646,-187500.02235174447,10269.441934757464,-187500.02235174447,-187500.02235174447,-187500.02235174447,-187500.02235174447,-187500.02235174447,1729950425.2125423,1729950423.47399,2000
-2460.748250573665,-187500.02235174447,10055.46868508681,-187500.02235174447,-187500.02235174447,-187500.02235174447,-187500.02235174447,-187500.02235174447,1729950425.217664,1729950423.47399,2000
-2531.178597352338,-187500.02235174447,9971.917864312873,-187500.02235174447,-187500.02235174447,-187500.02235174447,-187500.02235174447,-187500.02235174447,1729950425.2209868,1729950423.47399,2000
-2367.6085314284005,-187500.02235174447,10168.076773652649,-187500.02235174447,-187500.02235174447,-187500.02235174447,-187500.02235174447,-187500.02235174447,1729950425.224406,1729950423.47399,2000
-2235.733239142089,-187500.02235174447,10320.22509815992,-187500.02235174447,-187500.02235174447,-187500.02235174447,-187500.02235174447,-187500.02235174447,1729950425.2290373,1729950423.47399,2000
-2412.33437208347,-187500.02235174447,10120.132281796014,-187500.02235174447,-187500.02235174447,-187500.02235174447,-187500.02235174447,-187500.02235174447,1729950425.2323644,1729950423.47399,2000
-2520.5838704805224,-187500.02235174447,10001.422166993878,-187500.02235174447,-187500.02235174447,-187500.02235174447,-187500.02235174447,-187500.02235174447,1729950425.2370603,1729950423.47399,2000
-2408.199299359238,-187500.02235174447,10151.715296711362,-187500.02235174447,-187500.02235174447,-187500.02235174447,-187500.02235174447,-187500.02235174447,1729950425.2404509,1729950423.47399,2000
-2243.243425279072,-187500.02235174447,10295.66053100354,-187500.02235174447,-187500.02235174447,-187500.02235174447,-187500.02235174447,-187500.02235174447,1729950425.2450352,1729950423.47399,2000
-2333.522121134057,-187500.02235174447,10159.426648548442,-187500.02235174447,-187500.02235174447,-187500.02235174447,-187500.02235174447,-187500.02235174447,1729950425.2473884,1729950423.47399,2000
-2525.769475194153,-187500.02235174447,9992.369710489478,-187500.02235174447,-187500.02235174447,-187500.02235174447,-187500.02235174447,-187500.02235174447,1729950425.2517562,1729950423.47399,2000
-2436.742477028665,-187500.02235174447,10115.259601504757,-187500.02235174447,-187500.02235174447,-187500.02235174447,-187500.02235174447,-187500.02235174447,1729950425.2564309,1729950423.47399,2000
-2255.3580707738483,-187500.02235174447,10293.961798424936,-187500.02235174447,-187500.02235174447,-187500.02235174447,-187500.02235174447,-187500.02235174447,1729950425.2610831,1729950423.47399,2000
-2359.0925167909286,-187500.02235174447,10170.82603822065,-187500.02235174447,-187500.02235174447,-187500.02235174447,-187500.02235174447,-187500.02235174447,1729950425.2644804,1729950423.47399,2000
-2523.064914115061,-187500.02235174447,9993.956684345803,-187500.02235174447,-187500.02235174447,-187500.02235174447,-187500.02235174447,-187500.02235174447,1729950425.2686908,1729950423.47399,2000
-2474.494573413679,-187500.02235174447,10066.219874169812,-187500.02235174447,-187500.02235174447,-187500.02235174447,-187500.02235174447,-187500.02235174447,1729950425.2724235,1729950423.47399,2000
-2303.3472661193928,-187500.02235174447,10271.028908613793,-187500.02235174447,-187500.02235174447,-187500.02235174447,-187500.02235174447,-187500.02235174447,1729950425.2756257,1729950423.47399,2000
-2308.3317051329263,-187500.02235174447,10219.239916710843,-187500.02235174447,-187500.02235174447,-187500.02235174447,-187500.02235174447,-187500.02235174447,1729950425.2796977,1729950423.47399,2000
-2469.7336518446987,-187500.02235174447,10009.111167086505,-187500.02235174447,-187500.02235174447,-187500.02235174447,-187500.02235174447,-187500.02235174447,1729950425.2851985,1729950423.47399,2000
-2448.141866700872,-187500.02235174447,10082.491944133277,-187500.02235174447,-187500.02235174447,-187500.02235174447,-187500.02235174447,-187500.02235174447,1729950425.2889085,1729950423.47399,2000
-2286.985789178108,-187500.02235174447,10298.856830460649,-187500.02235174447,-187500.02235174447,-187500.02235174447,-187500.02235174447,-187500.02235174447,1729950425.292605,1729950423.47399,2000
-2278.201553607172,-187500.02235174447,10263.943405621458,-187500.02235174447,-187500.02235174447,-187500.02235174447,-187500.02235174447,-187500.02235174447,1729950425.2967298,1729950423.47399,2000
-2478.115556015439,-187500.02235174447,10020.577611992076,-187500.02235174447,-187500.02235174447,-187500.02235174447,-187500.02235174447,-187500.02235174447,1729950425.30069,1729950423.47399,2000
-2521.0532571140834,-187500.02235174447,9998.963475103794,-187500.02235174447,-187500.02235174447,-187500.02235174447,-187500.02235174447,-187500.02235174447,1729950425.3037455,1729950423.47399,2000
-2364.456935460202,-187500.02235174447,10195.882343755047,-187500.02235174447,-187500.02235174447,-187500.02235174447,-187500.02235174447,-187500.02235174447,1729950425.3076992,1729950423.47399,2000
-2286.8516787113763,-187500.02235174447,10281.243655829869,-187500.02235174447,-187500.02235174447,-187500.02235174447,-187500.02235174447,-187500.02235174447,1729950425.312673,1729950423.47399,2000
-2423.331430355481,-187500.02235174447,10096.104156506555,-187500.02235174447,-187500.02235174447,-187500.02235174447,-187500.02235174447,-187500.02235174447,1729950425.3167384,1729950423.47399,2000
-2501.49548071569,-187500.02235174447,9998.538791959145,-187500.02235174447,-187500.02235174447,-187500.02235174447,-187500.02235174447,-187500.02235174447,1729950425.320994,1729950423.47399,2000
-2371.453031474713,-187500.02235174447,10166.355689329588,-187500.02235174447,-187500.02235174447,-187500.02235174447,-187500.02235174447,-187500.02235174447,1729950425.3247824,1729950423.47399,2000
-2246.640890436279,-187500.02235174447,10309.205688143456,-187500.02235174447,-187500.02235174447,-187500.02235174447,-187500.02235174447,-187500.02235174447,1729950425.328184,1729950423.47399,2000
-2415.1506918848386,-187500.02235174447,10139.734761683318,-187500.02235174447,-187500.02235174447,-187500.02235174447,-187500.02235174447,-187500.02235174447,1729950425.3316424,1729950423.47399,2000
-2498.992085336696,-187500.02235174447,10012.799204921628,-187500.02235174447,-187500.02235174447,-187500.02235174447,-187500.02235174447,-187500.02235174447,1729950425.3358648,1729950423.47399,2000
-2372.0565285750067,-187500.02235174447,10171.451887065396,-187500.02235174447,-187500.02235174447,-187500.02235174447,-187500.02235174447,-187500.02235174447,1729950425.3405435,1729950423.47399,2000
-2257.30267254146,-187500.02235174447,10293.55946702474,-187500.02235174447,-187500.02235174447,-187500.02235174447,-187500.02235174447,-187500.02235174447,1729950425.3451965,1729950423.47399,2000
-2388.7756334275764,-187500.02235174447,10130.90582262347,-187500.02235174447,-187500.02235174447,-187500.02235174447,-187500.02235174447,-187500.02235174447,1729950425.3486528,1729950423.47399,2000
-2508.737445919209,-187500.02235174447,9982.64670165142,-187500.02235174447,-187500.02235174447,-187500.02235174447,-187500.02235174447,-187500.02235174447,1729950425.3519373,1729950423.47399,2000
-2406.7687877140984,-187500.02235174447,10115.930153838415,-187500.02235174447,-187500.02235174447,-187500.02235174447,-187500.02235174447,-187500.02235174447,1729950425.3558512,1729950423.47399,2000
-2285.2647048550493,-187500.02235174447,10317.542888825285,-187500.02235174447,-187500.02235174447,-187500.02235174447,-187500.02235174447,-187500.02235174447,1729950425.3603532,1729950423.47399,2000
-2356.410307456292,-187500.02235174447,10190.316759385678,-187500.02235174447,-187500.02235174447,-187500.02235174447,-187500.02235174447,-187500.02235174447,1729950425.3640077,1729950423.47399,2000
-2500.7578731486647,-187500.02235174447,9974.01892829167,-187500.02235174447,-187500.02235174447,-187500.02235174447,-187500.02235174447,-187500.02235174447,1729950425.3683684,1729950423.47399,2000
-2465.7997448205647,-187500.02235174447,10078.155705708949,-187500.02235174447,-187500.02235174447,-187500.02235174447,-187500.02235174447,-187500.02235174447,1729950425.3725898,1729950423.47399,2000
-2328.2024059536943,-187500.02235174447,10268.480809745886,-187500.02235174447,-187500.02235174447,-187500.02235174447,-187500.02235174447,-187500.02235174447,1729950425.3771768,1729950423.47399,2000
-2338.595967125412,-187500.02235174447,10200.866782768582,-187500.02235174447,-187500.02235174447,-187500.02235174447,-187500.02235174447,-187500.02235174447,1729950425.3800845,1729950423.47399,2000
-2474.1592972468493,-187500.02235174447,9983.138440029436,-187500.02235174447,-187500.02235174447,-187500.02235174447,-187500.02235174447,-187500.02235174447,1729950425.3838325,1729950423.47399,2000
-2475.3439397029806,-187500.02235174447,10043.08581865857,-187500.02235174447,-187500.02235174447,-187500.02235174447,-187500.02235174447,-187500.02235174447,1729950425.3879228,1729950423.47399,2000
-2336.7184205911663,-187500.02235174447,10266.737373678372,-187500.02235174447,-187500.02235174447,-187500.02235174447,-187500.02235174447,-187500.02235174447,1729950425.3916864,1729950423.47399,2000
-2297.6475712832894,-187500.02235174447,10278.650853473053,-187500.02235174447,-187500.02235174447,-187500.02235174447,-187500.02235174447,-187500.02235174447,1729950425.3961575,1729950423.47399,2000
-2406.6793807362774,-187500.02235174447,10089.28687444769,-187500.02235174447,-187500.02235174447,-187500.02235174447,-187500.02235174447,-187500.02235174447,1729950425.400839,1729950423.47399,2000
-2476.081547270006,-187500.02235174447,10036.17912962188,-187500.02235174447,-187500.02235174447,-187500.02235174447,-187500.02235174447,-187500.02235174447,1729950425.404908,1729950423.47399,2000
-2331.644574599812,-187500.02235174447,10206.432367137952,-187500.02235174447,-187500.02235174447,-187500.02235174447,-187500.02235174447,-187500.02235174447,1729950425.4077327,1729950423.47399,2000
-2285.1752978772283,-187500.02235174447,10271.83357141418,-187500.02235174447,-187500.02235174447,-187500.02235174447,-187500.02235174447,-187500.02235174447,1729950425.4117732,1729950423.47399,2000
-2455.272073182115,-187500.02235174447,10092.147897737968,-187500.02235174447,-187500.02235174447,-187500.02235174447,-187500.02235174447,-187500.02235174447,1729950425.4157336,1729950423.47399,2000
-2521.9920303812064,-187500.02235174447,10002.204478049813,-187500.02235174447,-187500.02235174447,-187500.02235174447,-187500.02235174447,-187500.02235174447,1729950425.420014,1729950423.47399,2000
-2368.2567320176045,-187500.02235174447,10183.834753493638,-187500.02235174447,-187500.02235174447,-187500.02235174447,-187500.02235174447,-187500.02235174447,1729950425.4236948,1729950423.47399,2000
-2251.535922471991,-187500.02235174447,10318.36990337013,-187500.02235174447,-187500.02235174447,-187500.02235174447,-187500.02235174447,-187500.02235174447,1729950425.4279785,1729950423.47399,2000
-2374.336406509448,-187500.02235174447,10132.112816824058,-187500.02235174447,-187500.02235174447,-187500.02235174447,-187500.02235174447,-187500.02235174447,1729950425.4327688,1729950423.47399,2000
-2493.359445733958,-187500.02235174447,9987.564085431586,-187500.02235174447,-187500.02235174447,-187500.02235174447,-187500.02235174447,-187500.02235174447,1729950425.435938,1729950423.47399,2000
-2438.307099140537,-187500.02235174447,10126.86015687706,-187500.02235174447,-187500.02235174447,-187500.02235174447,-187500.02235174447,-187500.02235174447,1729950425.4398112,1729950423.47399,2000
-2308.8457952553986,-187500.02235174447,10286.630426243595,-187500.02235174447,-187500.02235174447,-187500.02235174447,-187500.02235174447,-187500.02235174447,1729950425.44394,1729950423.47399,2000
-2375.923380365775,-187500.02235174447,10155.269224079757,-187500.02235174447,-187500.02235174447,-187500.02235174447,-187500.02235174447,-187500.02235174447,1729950425.4477627,1729950423.47399,2000
-2503.395378994391,-187500.02235174447,10001.668036182886,-187500.02235174447,-187500.02235174447,-187500.02235174447,-187500.02235174447,-187500.02235174447,1729950425.4520843,1729950423.47399,2000
-2443.7385730431765,-187500.02235174447,10099.211048985846,-187500.02235174447,-187500.02235174447,-187500.02235174447,-187500.02235174447,-187500.02235174447,1729950425.4557424,1729950423.47399,2000
-2313.472606357647,-187500.02235174447,10271.542998736262,-187500.02235174447,-187500.02235174447,-187500.02235174447,-187500.02235174447,-187500.02235174447,1729950425.460962,1729950423.47399,2000
-2349.570673652968,-187500.02235174447,10187.67925353995,-187500.02235174447,-187500.02235174447,-187500.02235174447,-187500.02235174447,-187500.02235174447,1729950425.4639845,1729950423.47399,2000
-2467.945512288274,-187500.02235174447,10015.45906251181,-187500.02235174447,-187500.02235174447,-187500.02235174447,-187500.02235174447,-187500.02235174447,1729950425.4680123,1729950423.47399,2000
-2437.8600642514307,-187500.02235174447,10089.108060492046,-187500.02235174447,-187500.02235174447,-187500.02235174447,-187500.02235174447,-187500.02235174447,1729950425.4719417,1729950423.47399,2000
-2292.797242736488,-187500.02235174447,10269.821914413204,-187500.02235174447,-187500.02235174447,-187500.02235174447,-187500.02235174447,-187500.02235174447,1729950425.4759705,1729950423.47399,2000
-2329.252937943094,-187500.02235174447,10213.3614079191,-187500.02235174447,-187500.02235174447,-187500.02235174447,-187500.02235174447,-187500.02235174447,1729950425.4800344,1729950423.47399,2000
-2480.820117094531,-187500.02235174447,10017.850699168528,-187500.02235174447,-187500.02235174447,-187500.02235174447,-187500.02235174447,-187500.02235174447,1729950425.4840405,1729950423.47399,2000
-2487.570343920034,-187500.02235174447,10057.435638598876,-187500.02235174447,-187500.02235174447,-187500.02235174447,-187500.02235174447,-187500.02235174447,1729950425.488042,1729950423.47399,2000
-2311.0362662120183,-187500.02235174447,10259.74127766386,-187500.02235174447,-187500.02235174447,-187500.02235174447,-187500.02235174447,-187500.02235174447,1729950425.4909024,1729950423.47399,2000
-2280.7049489861665,-187500.02235174447,10275.521609249308,-187500.02235174447,-187500.02235174447,-187500.02235174447,-187500.02235174447,-187500.02235174447,1729950425.4950066,1729950423.47399,2000
-2437.658898551333,-187500.02235174447,10062.934167734882,-187500.02235174447,-187500.02235174447,-187500.02235174447,-187500.02235174447,-187500.02235174447,1729950425.4999323,1729950423.47399,2000
-2499.886155114908,-187500.02235174447,10014.02855086667,-187500.02235174447,-187500.02235174447,-187500.02235174447,-187500.02235174447,-187500.02235174447,1729950425.5040169,1729950423.47399,2000
-2369.6201884293782,-187500.02235174447,10209.3604456616,-187500.02235174447,-187500.02235174447,-187500.02235174447,-187500.02235174447,-187500.02235174447,1729950425.5079367,1729950423.47399,2000
-2289.7127020016555,-187500.02235174447,10284.283493075787,-187500.02235174447,-187500.02235174447,-187500.02235174447,-187500.02235174447,-187500.02235174447,1729950425.5119448,1729950423.47399,2000
-2434.3061368830367,-187500.02235174447,10102.787328098697,-187500.02235174447,-187500.02235174447,-187500.02235174447,-187500.02235174447,-187500.02235174447,1729950425.5158844,1729950423.47399,2000
-2491.548954433078,-187500.02235174447,10008.12769033047,-187500.02235174447,-187500.02235174447,-187500.02235174447,-187500.02235174447,-187500.02235174447,1729950425.5189347,1729950423.47399,2000
-2384.5064502366126,-187500.02235174447,10164.075811395149,-187500.02235174447,-187500.02235174447,-187500.02235174447,-187500.02235174447,-187500.02235174447,1729950425.5238278,1729950423.47399,2000
-2264.54463774498,-187500.02235174447,10282.964740152926,-187500.02235174447,-187500.02235174447,-187500.02235174447,-187500.02235174447,-187500.02235174447,1729950425.52798,1729950423.47399,2000
-2393.0671683629957,-187500.02235174447,10121.071055063136,-187500.02235174447,-187500.02235174447,-187500.02235174447,-187500.02235174447,-187500.02235174447,1729950425.5317905,1729950423.47399,2000
-2531.4468182858013,-187500.02235174447,10011.748672932228,-187500.02235174447,-187500.02235174447,-187500.02235174447,-187500.02235174447,-187500.02235174447,1729950425.5360055,1729950423.47399,2000
-2428.360572857925,-187500.02235174447,10124.535575453709,-187500.02235174447,-187500.02235174447,-187500.02235174447,-187500.02235174447,-187500.02235174447,1729950425.5399904,1729950423.47399,2000
-2294.40656833727,-187500.02235174447,10256.164998551012,-187500.02235174447,-187500.02235174447,-187500.02235174447,-187500.02235174447,-187500.02235174447,1729950425.5440836,1729950423.47399,2000
-2360.4559732027024,-187500.02235174447,10149.234253076822,-187500.02235174447,-187500.02235174447,-187500.02235174447,-187500.02235174447,-187500.02235174447,1729950425.5471935,1729950423.47399,2000
-2511.911393631863,-187500.02235174447,10008.12769033047,-187500.02235174447,-187500.02235174447,-187500.02235174447,-187500.02235174447,-187500.02235174447,1729950425.5514302,1729950423.47399,2000
-2451.449924880257,-187500.02235174447,10112.219764258834,-187500.02235174447,-187500.02235174447,-187500.02235174447,-187500.02235174447,-187500.02235174447,1729950425.5559075,1729950423.47399,2000
-2300.642705040301,-187500.02235174447,10284.708176220438,-187500.02235174447,-187500.02235174447,-187500.02235174447,-187500.02235174447,-187500.02235174447,1729950425.5604444,1729950423.47399,2000
-2342.4181154272696,-187500.02235174447,10208.287561927744,-187500.02235174447,-187500.02235174447,-187500.02235174447,-187500.02235174447,-187500.02235174447,1729950425.5641575,1729950423.47399,2000
-2489.425538709824,-187500.02235174447,10020.287039314157,-187500.02235174447,-187500.02235174447,-187500.02235174447,-187500.02235174447,-187500.02235174447,1729950425.5686836,1729950423.47399,2000
-2453.8415615369754,-187500.02235174447,10071.114906205525,-187500.02235174447,-187500.02235174447,-187500.02235174447,-187500.02235174447,-187500.02235174447,1729950425.5722497,1729950423.47399,2000
-2302.319085874449,-187500.02235174447,10280.662510474029,-187500.02235174447,-187500.02235174447,-187500.02235174447,-187500.02235174447,-187500.02235174447,1729950425.575179,1729950423.47399,2000
-2325.408437896781,-187500.02235174447,10231.466320927895,-187500.02235174447,-187500.02235174447,-187500.02235174447,-187500.02235174447,-187500.02235174447,1729950425.579224,1729950423.47399,2000
-2496.5110417021565,-187500.02235174447,9999.902248370916,-187500.02235174447,-187500.02235174447,-187500.02235174447,-187500.02235174447,-187500.02235174447,1729950425.5840142,1729950423.47399,2000
-2454.310948170537,-187500.02235174447,10054.105228675036,-187500.02235174447,-187500.02235174447,-187500.02235174447,-187500.02235174447,-187500.02235174447,1729950425.5882633,1729950423.47399,2000
-2267.9421029021864,-187500.02235174447,10254.13098980558,-187500.02235174447,-187500.02235174447,-187500.02235174447,-187500.02235174447,-187500.02235174447,1729950425.5922177,1729950423.47399,2000
-2318.0770657154403,-187500.02235174447,10263.630481199085,-187500.02235174447,-187500.02235174447,-187500.02235174447,-187500.02235174447,-187500.02235174447,1729950425.5963109,1729950423.47399,2000
-2469.8007070780645,-187500.02235174447,10070.1761329384,-187500.02235174447,-187500.02235174447,-187500.02235174447,-187500.02235174447,-187500.02235174447,1729950425.599152,1729950423.47399,2000
-2513.1630913213603,-187500.02235174447,10015.70493170082,-187500.02235174447,-187500.02235174447,-187500.02235174447,-187500.02235174447,-187500.02235174447,1729950425.6029963,1729950423.47399,2000
-2374.582275698456,-187500.02235174447,10203.59369559213,-187500.02235174447,-187500.02235174447,-187500.02235174447,-187500.02235174447,-187500.02235174447,1729950425.607007,1729950423.47399,2000
-2257.794410919477,-187500.02235174447,10302.522516551318,-187500.02235174447,-187500.02235174447,-187500.02235174447,-187500.02235174447,-187500.02235174447,1729950425.612506,1729950423.47399,2000
-2387.9933223716407,-187500.02235174447,10118.344142239588,-187500.02235174447,-187500.02235174447,-187500.02235174447,-187500.02235174447,-187500.02235174447,1729950425.6159952,1729950423.47399,2000
-2517.6781437013324,-187500.02235174447,9999.4105099929,-187500.02235174447,-187500.02235174447,-187500.02235174447,-187500.02235174447,-187500.02235174447,1729950425.620499,1729950423.47399,2000
-2401.292610322548,-187500.02235174447,10160.76775321576,-187500.02235174447,-187500.02235174447,-187500.02235174447,-187500.02235174447,-187500.02235174447,1729950425.624132,1729950423.47399,2000
-2261.594207476879,-187500.02235174447,10309.049225932267,-187500.02235174447,-187500.02235174447,-187500.02235174447,-187500.02235174447,-187500.02235174447,1729950425.6283112,1729950423.47399,2000
-2376.437470488247,-187500.02235174447,10141.969936128848,-187500.02235174447,-187500.02235174447,-187500.02235174447,-187500.02235174447,-187500.02235174447,1729950425.6310663,1729950423.47399,2000
-2528.7422572067094,-187500.02235174447,9978.73514637174,-187500.02235174447,-187500.02235174447,-187500.02235174447,-187500.02235174447,-187500.02235174447,1729950425.6356752,1729950423.47399,2000
-2431.199244403749,-187500.02235174447,10114.253773004268,-187500.02235174447,-187500.02235174447,-187500.02235174447,-187500.02235174447,-187500.02235174447,1729950425.6390648,1729950423.47399,2000
-2265.505762756558,-187500.02235174447,10299.99676942787,-187500.02235174447,-187500.02235174447,-187500.02235174447,-187500.02235174447,-187500.02235174447,1729950425.6441977,1729950423.47399,2000
-2358.623130157367,-187500.02235174447,10146.127360597537,-187500.02235174447,-187500.02235174447,-187500.02235174447,-187500.02235174447,-187500.02235174447,1729950425.6480458,1729950423.47399,2000
-2571.299978649614,-187500.02235174447,9955.712849582776,-187500.02235174447,-187500.02235174447,-187500.02235174447,-187500.02235174447,-187500.02235174447,1729950425.6511626,1729950423.47399,2000
-2460.301215684559,-187500.02235174447,10103.703749621362,-187500.02235174447,-187500.02235174447,-187500.02235174447,-187500.02235174447,-187500.02235174447,1729950425.655154,1729950423.47399,2000
-2289.1986118791838,-187500.02235174447,10306.344664853175,-187500.02235174447,-187500.02235174447,-187500.02235174447,-187500.02235174447,-187500.02235174447,1729950425.6591456,1729950423.47399,2000
-2359.628958657856,-187500.02235174447,10216.02126550928,-187500.02235174447,-187500.02235174447,-187500.02235174447,-187500.02235174447,-187500.02235174447,1729950425.6631324,1729950423.47399,2000
-2471.4547361677573,-187500.02235174447,10025.60675449452,-187500.02235174447,-187500.02235174447,-187500.02235174447,-187500.02235174447,-187500.02235174447,1729950425.6681397,1729950423.47399,2000
-2475.455698425257,-187500.02235174447,10048.383182094478,-187500.02235174447,-187500.02235174447,-187500.02235174447,-187500.02235174447,-187500.02235174447,1729950425.6720994,1729950423.47399,2000
-2344.675641617256,-187500.02235174447,10215.753044575817,-187500.02235174447,-187500.02235174447,-187500.02235174447,-187500.02235174447,-187500.02235174447,1729950425.6761675,1729950423.47399,2000
-2325.922528019253,-187500.02235174447,10216.870631798582,-187500.02235174447,-187500.02235174447,-187500.02235174447,-187500.02235174447,-187500.02235174447,1729950425.6791496,1729950423.47399,2000
-2434.484950838679,-187500.02235174447,10076.702842319351,-187500.02235174447,-187500.02235174447,-187500.02235174447,-187500.02235174447,-187500.02235174447,1729950425.683164,1729950423.47399,2000
-2413.2284418616823,-187500.02235174447,10087.789307569185,-187500.02235174447,-187500.02235174447,-187500.02235174447,-187500.02235174447,-187500.02235174447,1729950425.687189,1729950423.47399,2000
-2292.59607703639,-187500.02235174447,10263.429315498986,-187500.02235174447,-187500.02235174447,-187500.02235174447,-187500.02235174447,-187500.02235174447,1729950425.6913507,1729950423.47399,2000
-2327.8000745534987,-187500.02235174447,10258.087248574167,-187500.02235174447,-187500.02235174447,-187500.02235174447,-187500.02235174447,-187500.02235174447,1729950425.695299,1729950423.47399,2000
-2488.620875909433,-187500.02235174447,10031.79818770864,-187500.02235174447,-187500.02235174447,-187500.02235174447,-187500.02235174447,-187500.02235174447,1729950425.7004664,1729950423.47399,2000
-2509.5197569751454,-187500.02235174447,9992.481469211754,-187500.02235174447,-187500.02235174447,-187500.02235174447,-187500.02235174447,-187500.02235174447,1729950425.704272,1729950423.47399,2000
-2323.6873535737222,-187500.02235174447,10219.195213221934,-187500.02235174447,-187500.02235174447,-187500.02235174447,-187500.02235174447,-187500.02235174447,1729950425.7071657,1729950423.47399,2000
-2231.642869906768,-187500.02235174447,10325.745979040385,-187500.02235174447,-187500.02235174447,-187500.02235174447,-187500.02235174447,-187500.02235174447,1729950425.7111657,1729950423.47399,2000
-2389.4238340167803,-187500.02235174447,10126.1896045434,-187500.02235174447,-187500.02235174447,-187500.02235174447,-187500.02235174447,-187500.02235174447,1729950425.7151797,1729950423.47399,2000
-2505.3846842509133,-187500.02235174447,10011.70396944332,-187500.02235174447,-187500.02235174447,-187500.02235174447,-187500.02235174447,-187500.02235174447,1729950425.719339,1729950423.47399,2000
-2377.800926900021,-187500.02235174447,10167.607387019085,-187500.02235174447,-187500.02235174447,-187500.02235174447,-187500.02235174447,-187500.02235174447,1729950425.723089,1729950423.47399,2000
-2241.0082508335413,-187500.02235174447,10299.99676942787,-187500.02235174447,-187500.02235174447,-187500.02235174447,-187500.02235174447,-187500.02235174447,1729950425.7275505,1729950423.47399,2000
-2373.956426853708,-187500.02235174447,10128.223613288834,-187500.02235174447,-187500.02235174447,-187500.02235174447,-187500.02235174447,-187500.02235174447,1729950425.732213,1729950423.47399,2000
-2505.5411464621006,-187500.02235174447,10015.615524722996,-187500.02235174447,-187500.02235174447,-187500.02235174447,-187500.02235174447,-187500.02235174447,1729950425.7355473,1729950423.47399,2000
-2440.34110788597,-187500.02235174447,10118.612363173052,-187500.02235174447,-187500.02235174447,-187500.02235174447,-187500.02235174447,-187500.02235174447,1729950425.7391727,1729950423.47399,2000
-2301.7155887741555,-187500.02235174447,10282.31653956372,-187500.02235174447,-187500.02235174447,-187500.02235174447,-187500.02235174447,-187500.02235174447,1729950425.7432957,1729950423.47399,2000
-2377.2197815441828,-187500.02235174447,10155.649203735496,-187500.02235174447,-187500.02235174447,-187500.02235174447,-187500.02235174447,-187500.02235174447,1729950425.7472756,1729950423.47399,2000
-2531.782094452631,-187500.02235174447,9977.88578008244,-187500.02235174447,-187500.02235174447,-187500.02235174447,-187500.02235174447,-187500.02235174447,1729950425.7512867,1729950423.47399,2000
-2462.514038385634,-187500.02235174447,10080.077955732102,-187500.02235174447,-187500.02235174447,-187500.02235174447,-187500.02235174447,-187500.02235174447,1729950425.7562654,1729950423.47399,2000
-2285.4882222996025,-187500.02235174447,10295.615827514628,-187500.02235174447,-187500.02235174447,-187500.02235174447,-187500.02235174447,-187500.02235174447,1729950425.7599533,1729950423.47399,2000
-2313.31614414646,-187500.02235174447,10229.521719160286,-187500.02235174447,-187500.02235174447,-187500.02235174447,-187500.02235174447,-187500.02235174447,1729950425.7623343,1729950423.47399,2000
-2506.2787540291256,-187500.02235174447,10019.549431747131,-187500.02235174447,-187500.02235174447,-187500.02235174447,-187500.02235174447,-187500.02235174447,1729950425.7675228,1729950423.47399,2000
-2487.883268342408,-187500.02235174447,10045.23158612628,-187500.02235174447,-187500.02235174447,-187500.02235174447,-187500.02235174447,-187500.02235174447,1729950425.7715683,1729950423.47399,2000
-2302.207327152172,-187500.02235174447,10273.822876670703,-187500.02235174447,-187500.02235174447,-187500.02235174447,-187500.02235174447,-187500.02235174447,1729950425.7756264,1729950423.47399,2000
-2283.6553792542672,-187500.02235174447,10265.150399822043,-187500.02235174447,-187500.02235174447,-187500.02235174447,-187500.02235174447,-187500.02235174447,1729950425.7799115,1729950423.47399,2000
-2458.7365935726875,-187500.02235174447,10036.514405788708,-187500.02235174447,-187500.02235174447,-187500.02235174447,-187500.02235174447,-187500.02235174447,1729950425.7835093,1729950423.47399,2000
-2506.2564022846705,-187500.02235174447,10013.60386772202,-187500.02235174447,-187500.02235174447,-187500.02235174447,-187500.02235174447,-187500.02235174447,1729950425.7875028,1729950423.47399,2000
-2356.678528389756,-187500.02235174447,10220.3128004447,-187500.02235174447,-187500.02235174447,-187500.02235174447,-187500.02235174447,-187500.02235174447,1729950425.7903025,1729950423.47399,2000
-2306.0071237095744,-187500.02235174447,10263.250501543343,-187500.02235174447,-187500.02235174447,-187500.02235174447,-187500.02235174447,-187500.02235174447,1729950425.7955637,1729950423.47399,2000
-2453.81920979252,-187500.02235174447,10064.901121246949,-187500.02235174447,-187500.02235174447,-187500.02235174447,-187500.02235174447,-187500.02235174447,1729950425.799503,1729950423.47399,2000
-2500.8249283820305,-187500.02235174447,10016.509594501207,-187500.02235174447,-187500.02235174447,-187500.02235174447,-187500.02235174447,-187500.02235174447,1729950425.8035457,1729950423.47399,2000
-2363.89814184882,-187500.02235174447,10192.73074778685,-187500.02235174447,-187500.02235174447,-187500.02235174447,-187500.02235174447,-187500.02235174447,1729950425.8072803,1729950423.47399,2000
-2281.151983875273,-187500.02235174447,10276.259216816332,-187500.02235174447,-187500.02235174447,-187500.02235174447,-187500.02235174447,-187500.02235174447,1729950425.8126433,1729950423.47399,2000
-2418.3916948308583,-187500.02235174447,10108.308208979155,-187500.02235174447,-187500.02235174447,-187500.02235174447,-187500.02235174447,-187500.02235174447,1729950425.8152544,1729950423.47399,2000
-2486.7433293751874,-187500.02235174447,10029.3171440741,-187500.02235174447,-187500.02235174447,-187500.02235174447,-187500.02235174447,-187500.02235174447,1729950425.8189895,1729950423.47399,2000
-2384.6629124478,-187500.02235174447,10171.116610898567,-187500.02235174447,-187500.02235174447,-187500.02235174447,-187500.02235174447,-187500.02235174447,1729950425.8232388,1729950423.47399,2000
-2262.6223877218235,-187500.02235174447,10299.639141516584,-187500.02235174447,-187500.02235174447,-187500.02235174447,-187500.02235174447,-187500.02235174447,1729950425.827828,1729950423.47399,2000
-2409.987438915663,-187500.02235174447,10141.902880895484,-187500.02235174447,-187500.02235174447,-187500.02235174447,-187500.02235174447,-187500.02235174447,1729950425.831364,1729950423.47399,2000
-2544.254367858692,-187500.02235174447,9972.789582346628,-187500.02235174447,-187500.02235174447,-187500.02235174447,-187500.02235174447,-187500.02235174447,1729950425.835997,1729950423.47399,2000
-2448.566549845523,-187500.02235174447,10099.05458677466,-187500.02235174447,-187500.02235174447,-187500.02235174447,-187500.02235174447,-187500.02235174447,1729950425.839347,1729950423.47399,2000
-2336.8972345468087,-187500.02235174447,10258.802504396735,-187500.02235174447,-187500.02235174447,-187500.02235174447,-187500.02235174447,-187500.02235174447,1729950425.8434863,1729950423.47399,2000
-2394.0953486079397,-187500.02235174447,10139.4441890054,-187500.02235174447,-187500.02235174447,-187500.02235174447,-187500.02235174447,-187500.02235174447,1729950425.8468542,1729950423.47399,2000
-2484.8210793520307,-187500.02235174447,10019.974114891782,-187500.02235174447,-187500.02235174447,-187500.02235174447,-187500.02235174447,-187500.02235174447,1729950425.850543,1729950423.47399,2000
-2404.511261524113,-187500.02235174447,10129.028276089224,-187500.02235174447,-187500.02235174447,-187500.02235174447,-187500.02235174447,-187500.02235174447,1729950425.855627,1729950423.47399,2000
-2273.664149482745,-187500.02235174447,10313.676037034516,-187500.02235174447,-187500.02235174447,-187500.02235174447,-187500.02235174447,-187500.02235174447,1729950425.8600633,1729950423.47399,2000
-2304.3977981087924,-187500.02235174447,10246.799617624238,-187500.02235174447,-187500.02235174447,-187500.02235174447,-187500.02235174447,-187500.02235174447,1729950425.863701,1729950423.47399,2000
-2482.608256650956,-187500.02235174447,10017.64953346843,-187500.02235174447,-187500.02235174447,-187500.02235174447,-187500.02235174447,-187500.02235174447,1729950425.8676465,1729950423.47399,2000
-2484.888134585397,-187500.02235174447,10023.729207960274,-187500.02235174447,-187500.02235174447,-187500.02235174447,-187500.02235174447,-187500.02235174447,1729950425.87146,1729950423.47399,2000
-2316.8477197703983,-187500.02235174447,10223.978486535369,-187500.02235174447,-187500.02235174447,-187500.02235174447,-187500.02235174447,-187500.02235174447,1729950425.8744123,1729950423.47399,2000
-2338.528911892046,-187500.02235174447,10230.59460289414,-187500.02235174447,-187500.02235174447,-187500.02235174447,-187500.02235174447,-187500.02235174447,1729950425.8796618,1729950423.47399,2000
