Fp1,Fp2,C3,C4,P7,P8,O1,O2,time_board,time_marker,marker
-8054.741687147819,-187500.02235174447,6195.210658933003,-187500.02235174447,-187500.02235174447,-187500.02235174447,-187500.02235174447,-187500.02235174447,1731451353.6452065,1731451353.6432064,3000
-8065.73874541983,-187500.02235174447,6167.606254530699,-187500.02235174447,-187500.02235174447,-187500.02235174447,-187500.02235174447,-187500.02235174447,1731451353.6493163,1731451353.6432064,3000
-8107.022417428782,-187500.02235174447,6147.623794987655,-187500.02235174447,-187500.02235174447,-187500.02235174447,-187500.02235174447,-187500.02235174447,1731451353.653237,1731451353.6432064,3000
-8083.150754350514,-187500.02235174447,6167.941530697529,-187500.02235174447,-187500.02235174447,-187500.02235174447,-187500.02235174447,-187500.02235174447,1731451353.6572473,1731451353.6432064,3000
-8034.468654926855,-187500.02235174447,6189.5109640969,-187500.02235174447,-187500.02235174447,-187500.02235174447,-187500.02235174447,-187500.02235174447,1731451353.6612437,1731451353.6432064,3000
-8061.916597117973,-187500.02235174447,6174.803516245308,-187500.02235174447,-187500.02235174447,-187500.02235174447,-187500.02235174447,-187500.02235174447,1731451353.6662333,1731451353.6432064,3000
-8100.920391192483,-187500.02235174447,6159.26905384887,-187500.02235174447,-187500.02235174447,-187500.02235174447,-187500.02235174447,-187500.02235174447,1731451353.669272,1731451353.6432064,3000
-8074.880608902051,-187500.02235174447,6170.601388287711,-187500.02235174447,-187500.02235174447,-187500.02235174447,-187500.02235174447,-187500.02235174447,1731451353.673254,1731451353.6432064,3000
-8034.759227604774,-187500.02235174447,6184.235952405447,-187500.02235174447,-187500.02235174447,-187500.02235174447,-187500.02235174447,-187500.02235174447,1731451353.6774085,1731451353.6432064,3000
-8052.238291768825,-187500.02235174447,6171.674272021565,-187500.02235174447,-187500.02235174447,-187500.02235174447,-187500.02235174447,-187500.02235174447,1731451353.682297,1731451353.6432064,3000
-8095.1536411230145,-187500.02235174447,6151.244777589414,-187500.02235174447,-187500.02235174447,-187500.02235174447,-187500.02235174447,-187500.02235174447,1731451353.6873596,1731451353.6432064,3000
-8079.507420004299,-187500.02235174447,6147.869664176663,-187500.02235174447,-187500.02235174447,-187500.02235174447,-187500.02235174447,-187500.02235174447,1731451353.6903162,1731451353.6432064,3000
-8039.900128829495,-187500.02235174447,6158.5090945373895,-187500.02235174447,-187500.02235174447,-187500.02235174447,-187500.02235174447,-187500.02235174447,1731451353.6932957,1731451353.6432064,3000
-8055.233425525836,-187500.02235174447,6176.457545335001,-187500.02235174447,-187500.02235174447,-187500.02235174447,-187500.02235174447,-187500.02235174447,1731451353.6974072,1731451353.6432064,3000
-8083.642492728531,-187500.02235174447,6166.93570219704,-187500.02235174447,-187500.02235174447,-187500.02235174447,-187500.02235174447,-187500.02235174447,1731451353.701412,1731451353.6432064,3000
-8068.890341388028,-187500.02235174447,6149.702507221998,-187500.02235174447,-187500.02235174447,-187500.02235174447,-187500.02235174447,-187500.02235174447,1731451353.705449,1731451353.6432064,3000
-8021.1917187204035,-187500.02235174447,6175.518772067878,-187500.02235174447,-187500.02235174447,-187500.02235174447,-187500.02235174447,-187500.02235174447,1731451353.7094178,1731451353.6432064,3000
-8040.011887551772,-187500.02235174447,6186.202905917515,-187500.02235174447,-187500.02235174447,-187500.02235174447,-187500.02235174447,-187500.02235174447,1731451353.7125423,1731451353.6432064,3000
-8112.096263420137,-187500.02235174447,6175.272902878869,-187500.02235174447,-187500.02235174447,-187500.02235174447,-187500.02235174447,-187500.02235174447,1731451353.716376,1731451353.6432064,3000
-8117.304219878223,-187500.02235174447,6176.099917423716,-187500.02235174447,-187500.02235174447,-187500.02235174447,-187500.02235174447,-187500.02235174447,1731451353.7203677,1731451353.6432064,3000
-8065.02348959726,-187500.02235174447,6188.371025129679,-187500.02235174447,-187500.02235174447,-187500.02235174447,-187500.02235174447,-187500.02235174447,1731451353.727453,1731451353.6432064,3000
-8046.49389344381,-187500.02235174447,6186.225257661969,-187500.02235174447,-187500.02235174447,-187500.02235174447,-187500.02235174447,-187500.02235174447,1731451353.730374,1731451353.6432064,3000
-8085.609446240598,-187500.02235174447,6162.085373650239,-187500.02235174447,-187500.02235174447,-187500.02235174447,-187500.02235174447,-187500.02235174447,1731451353.7343895,1731451353.6432064,3000
-8105.591905783643,-187500.02235174447,6151.915329923074,-187500.02235174447,-187500.02235174447,-187500.02235174447,-187500.02235174447,-187500.02235174447,1731451353.7374206,1731451353.6432064,3000
-8060.620195939565,-187500.02235174447,6178.178629658059,-187500.02235174447,-187500.02235174447,-187500.02235174447,-187500.02235174447,-187500.02235174447,1731451353.7414155,1731451353.6432064,3000
-8030.557099647177,-187500.02235174447,6193.288408909847,-187500.02235174447,-187500.02235174447,-187500.02235174447,-187500.02235174447,-187500.02235174447,1731451353.7454495,1731451353.6432064,3000
-8063.816495396673,-187500.02235174447,6172.233065632948,-187500.02235174447,-187500.02235174447,-187500.02235174447,-187500.02235174447,-187500.02235174447,1731451353.7493937,1731451353.6432064,3000
-8087.822268941673,-187500.02235174447,6154.798704957808,-187500.02235174447,-187500.02235174447,-187500.02235174447,-187500.02235174447,-187500.02235174447,1731451353.7544167,1731451353.6432064,3000
-8048.63966091152,-187500.02235174447,6160.788972471831,-187500.02235174447,-187500.02235174447,-187500.02235174447,-187500.02235174447,-187500.02235174447,1731451353.7586095,1731451353.6432064,3000
-8022.935154787917,-187500.02235174447,6180.860838992696,-187500.02235174447,-187500.02235174447,-187500.02235174447,-187500.02235174447,-187500.02235174447,1731451353.7626278,1731451353.6432064,3000
-8064.107068074592,-187500.02235174447,6185.8676297506845,-187500.02235174447,-187500.02235174447,-187500.02235174447,-187500.02235174447,-187500.02235174447,1731451353.7656898,1731451353.6432064,3000
-8102.84264121564,-187500.02235174447,6173.395356344624,-187500.02235174447,-187500.02235174447,-187500.02235174447,-187500.02235174447,-187500.02235174447,1731451353.7694795,1731451353.6432064,3000
-8078.590998481632,-187500.02235174447,6184.5712285722775,-187500.02235174447,-187500.02235174447,-187500.02235174447,-187500.02235174447,-187500.02235174447,1731451353.7725852,1731451353.6432064,3000
-8041.30828873018,-187500.02235174447,6197.55759210081,-187500.02235174447,-187500.02235174447,-187500.02235174447,-187500.02235174447,-187500.02235174447,1731451353.776528,1731451353.6432064,3000
-8057.043916826716,-187500.02235174447,6182.671330293576,-187500.02235174447,-187500.02235174447,-187500.02235174447,-187500.02235174447,-187500.02235174447,1731451353.780464,1731451353.6432064,3000
-8078.278074059257,-187500.02235174447,6156.609196258688,-187500.02235174447,-187500.02235174447,-187500.02235174447,-187500.02235174447,-187500.02235174447,1731451353.7846503,1731451353.6432064,3000
-8086.279998574258,-187500.02235174447,6165.281673107347,-187500.02235174447,-187500.02235174447,-187500.02235174447,-187500.02235174447,-187500.02235174447,1731451353.7895496,1731451353.6432064,3000
-8062.363632007079,-187500.02235174447,6196.395301389134,-187500.02235174447,-187500.02235174447,-187500.02235174447,-187500.02235174447,-187500.02235174447,1731451353.7935674,1731451353.6432064,3000
-8058.899111616506,-187500.02235174447,6196.015321733395,-187500.02235174447,-187500.02235174447,-187500.02235174447,-187500.02235174447,-187500.02235174447,1731451353.796651,1731451353.6432064,3000
-8096.852373701618,-187500.02235174447,6169.930835954051,-187500.02235174447,-187500.02235174447,-187500.02235174447,-187500.02235174447,-187500.02235174447,1731451353.8006585,1731451353.6432064,3000
-8098.171126624481,-187500.02235174447,6171.853085977207,-187500.02235174447,-187500.02235174447,-187500.02235174447,-187500.02235174447,-187500.02235174447,1731451353.804782,1731451353.6432064,3000
-8054.49581795881,-187500.02235174447,6187.789879773842,-187500.02235174447,-187500.02235174447,-187500.02235174447,-187500.02235174447,-187500.02235174447,1731451353.8086135,1731451353.6432064,3000
-8042.02354455275,-187500.02235174447,6184.660635550098,-187500.02235174447,-187500.02235174447,-187500.02235174447,-187500.02235174447,-187500.02235174447,1731451353.8126516,1731451353.6432064,3000
-8088.023434641771,-187500.02235174447,6167.65095801961,-187500.02235174447,-187500.02235174447,-187500.02235174447,-187500.02235174447,-187500.02235174447,1731451353.817643,1731451353.6432064,3000
-8101.322722592679,-187500.02235174447,6174.22237088947,-187500.02235174447,-187500.02235174447,-187500.02235174447,-187500.02235174447,-187500.02235174447,1731451353.8207252,1731451353.6432064,3000
-8056.328661004146,-187500.02235174447,6193.713092054498,-187500.02235174447,-187500.02235174447,-187500.02235174447,-187500.02235174447,-187500.02235174447,1731451353.8246143,1731451353.6432064,3000
-8039.207224751381,-187500.02235174447,6194.540106599344,-187500.02235174447,-187500.02235174447,-187500.02235174447,-187500.02235174447,-187500.02235174447,1731451353.8296127,1731451353.6432064,3000
-8074.590036224132,-187500.02235174447,6172.434231333045,-187500.02235174447,-187500.02235174447,-187500.02235174447,-187500.02235174447,-187500.02235174447,1731451353.833666,1731451353.6432064,3000
-8086.771736952274,-187500.02235174447,6156.899768936607,-187500.02235174447,-187500.02235174447,-187500.02235174447,-187500.02235174447,-187500.02235174447,1731451353.837682,1731451353.6432064,3000
-8042.78350386423,-187500.02235174447,6164.812286473785,-187500.02235174447,-187500.02235174447,-187500.02235174447,-187500.02235174447,-187500.02235174447,1731451353.8426447,1731451353.6432064,3000
-8016.430797151423,-187500.02235174447,6179.98912095894,-187500.02235174447,-187500.02235174447,-187500.02235174447,-187500.02235174447,-187500.02235174447,1731451353.8536537,1731451353.6432064,3000
-8074.701794946408,-187500.02235174447,6180.436155848045,-187500.02235174447,-187500.02235174447,-187500.02235174447,-187500.02235174447,-187500.02235174447,1731451353.8578484,1731451353.6432064,3000
-8120.880498991072,-187500.02235174447,6193.646036821132,-187500.02235174447,-187500.02235174447,-187500.02235174447,-187500.02235174447,-187500.02235174447,1731451353.860724,1731451353.6432064,3000
-8069.560893721687,-187500.02235174447,6212.399150419135,-187500.02235174447,-187500.02235174447,-187500.02235174447,-187500.02235174447,-187500.02235174447,1731451353.8636105,1731451353.6432064,3000
-8021.72816058733,-187500.02235174447,6210.745121329442,-187500.02235174447,-187500.02235174447,-187500.02235174447,-187500.02235174447,-187500.02235174447,1731451353.8667293,1731451353.6432064,3000
-8060.061402328182,-187500.02235174447,6187.454603607011,-187500.02235174447,-187500.02235174447,-187500.02235174447,-187500.02235174447,-187500.02235174447,1731451353.8708413,1731451353.6432064,3000
-8105.278981361268,-187500.02235174447,6184.526525083366,-187500.02235174447,-187500.02235174447,-187500.02235174447,-187500.02235174447,-187500.02235174447,1731451353.8738272,1731451353.6432064,3000
-8084.98359739585,-187500.02235174447,6192.304932153814,-187500.02235174447,-187500.02235174447,-187500.02235174447,-187500.02235174447,-187500.02235174447,1731451353.8775885,1731451353.6432064,3000
-8040.928309074439,-187500.02235174447,6201.133871213659,-187500.02235174447,-187500.02235174447,-187500.02235174447,-187500.02235174447,-187500.02235174447,1731451353.8806536,1731451353.6432064,3000
-8045.152788776492,-187500.02235174447,6183.230123904958,-187500.02235174447,-187500.02235174447,-187500.02235174447,-187500.02235174447,-187500.02235174447,1731451353.8836577,1731451353.6432064,3000
-8086.056481129704,-187500.02235174447,6163.180609128548,-187500.02235174447,-187500.02235174447,-187500.02235174447,-187500.02235174447,-187500.02235174447,1731451353.8877394,1731451353.6432064,3000
-8096.226524856869,-187500.02235174447,6177.798650002319,-187500.02235174447,-187500.02235174447,-187500.02235174447,-187500.02235174447,-187500.02235174447,1731451353.890832,1731451353.6432064,3000
-8048.907881844984,-187500.02235174447,6202.430272392067,-187500.02235174447,-187500.02235174447,-187500.02235174447,-187500.02235174447,-187500.02235174447,1731451353.8936555,1731451353.6432064,3000
-8041.911785830473,-187500.02235174447,6194.651865321621,-187500.02235174447,-187500.02235174447,-187500.02235174447,-187500.02235174447,-187500.02235174447,1731451353.8968244,1731451353.6432064,3000
-8086.88349567455,-187500.02235174447,6169.036766175838,-187500.02235174447,-187500.02235174447,-187500.02235174447,-187500.02235174447,-187500.02235174447,1731451353.9008193,1731451353.6432064,3000
-8092.27026608828,-187500.02235174447,6177.865705235685,-187500.02235174447,-187500.02235174447,-187500.02235174447,-187500.02235174447,-187500.02235174447,1731451353.90475,1731451353.6432064,3000
-8050.293690001213,-187500.02235174447,6197.758757800908,-187500.02235174447,-187500.02235174447,-187500.02235174447,-187500.02235174447,-187500.02235174447,1731451353.9078553,1731451353.6432064,3000
-8036.882643328028,-187500.02235174447,6187.812231518296,-187500.02235174447,-187500.02235174447,-187500.02235174447,-187500.02235174447,-187500.02235174447,1731451353.9129105,1731451353.6432064,3000
-8072.712489689886,-187500.02235174447,6159.939606182529,-187500.02235174447,-187500.02235174447,-187500.02235174447,-187500.02235174447,-187500.02235174447,1731451353.9176707,1731451353.6432064,3000
-8104.451966816422,-187500.02235174447,6162.755925983897,-187500.02235174447,-187500.02235174447,-187500.02235174447,-187500.02235174447,-187500.02235174447,1731451353.9218805,1731451353.6432064,3000
-8043.096428286604,-187500.02235174447,6189.89094375264,-187500.02235174447,-187500.02235174447,-187500.02235174447,-187500.02235174447,-187500.02235174447,1731451353.9267051,1731451353.6432064,3000
-8023.739817588308,-187500.02235174447,6193.623685076676,-187500.02235174447,-187500.02235174447,-187500.02235174447,-187500.02235174447,-187500.02235174447,1731451353.930914,1731451353.6432064,3000
-8092.0467486437265,-187500.02235174447,6194.428347877068,-187500.02235174447,-187500.02235174447,-187500.02235174447,-187500.02235174447,-187500.02235174447,1731451353.9339204,1731451353.6432064,3000
-8109.771681996785,-187500.02235174447,6192.170821687081,-187500.02235174447,-187500.02235174447,-187500.02235174447,-187500.02235174447,-187500.02235174447,1731451353.936751,1731451353.6432064,3000
-8065.0458413417155,-187500.02235174447,6199.055158979316,-187500.02235174447,-187500.02235174447,-187500.02235174447,-187500.02235174447,-187500.02235174447,1731451353.9409256,1731451353.6432064,3000
-8035.474483427344,-187500.02235174447,6207.37000791669,-187500.02235174447,-187500.02235174447,-187500.02235174447,-187500.02235174447,-187500.02235174447,1731451353.9447732,1731451353.6432064,3000
-8046.337431232623,-187500.02235174447,6191.209696675503,-187500.02235174447,-187500.02235174447,-187500.02235174447,-187500.02235174447,-187500.02235174447,1731451353.948949,1731451353.6432064,3000
-8088.358710808601,-187500.02235174447,6177.083394179749,-187500.02235174447,-187500.02235174447,-187500.02235174447,-187500.02235174447,-187500.02235174447,1731451353.952757,1731451353.6432064,3000
-8088.023434641771,-187500.02235174447,6202.117347969694,-187500.02235174447,-187500.02235174447,-187500.02235174447,-187500.02235174447,-187500.02235174447,1731451353.9569604,1731451353.6432064,3000
-8038.044934039704,-187500.02235174447,6223.016229035406,-187500.02235174447,-187500.02235174447,-187500.02235174447,-187500.02235174447,-187500.02235174447,1731451353.9597695,1731451353.6432064,3000
-8049.35491673409,-187500.02235174447,6203.637266592654,-187500.02235174447,-187500.02235174447,-187500.02235174447,-187500.02235174447,-187500.02235174447,1731451353.9639409,1731451353.6432064,3000
-8086.950550907916,-187500.02235174447,6181.397280859624,-187500.02235174447,-187500.02235174447,-187500.02235174447,-187500.02235174447,-187500.02235174447,1731451353.9688487,1731451353.6432064,3000
-8082.3013880612125,-187500.02235174447,6192.79667053183,-187500.02235174447,-187500.02235174447,-187500.02235174447,-187500.02235174447,-187500.02235174447,1731451353.9729617,1731451353.6432064,3000
-8046.829169610641,-187500.02235174447,6207.481766638967,-187500.02235174447,-187500.02235174447,-187500.02235174447,-187500.02235174447,-187500.02235174447,1731451353.9768372,1731451353.6432064,3000
-8046.672707399453,-187500.02235174447,6201.0668159802935,-187500.02235174447,-187500.02235174447,-187500.02235174447,-187500.02235174447,-187500.02235174447,1731451353.9809692,1731451353.6432064,3000
-8090.638588743042,-187500.02235174447,6183.230123904958,-187500.02235174447,-187500.02235174447,-187500.02235174447,-187500.02235174447,-187500.02235174447,1731451353.9848297,1731451353.6432064,3000
-8085.721204962874,-187500.02235174447,6191.075586208772,-187500.02235174447,-187500.02235174447,-187500.02235174447,-187500.02235174447,-187500.02235174447,1731451353.9889393,1731451353.6432064,3000
-8039.587204407121,-187500.02235174447,6209.761644573408,-187500.02235174447,-187500.02235174447,-187500.02235174447,-187500.02235174447,-187500.02235174447,1731451353.9938145,1731451353.6432064,3000
-8035.429779938434,-187500.02235174447,6206.61004860521,-187500.02235174447,-187500.02235174447,-187500.02235174447,-187500.02235174447,-187500.02235174447,1731451353.99786,1731451353.6432064,3000
-8073.763021679285,-187500.02235174447,6178.7597750138975,-187500.02235174447,-187500.02235174447,-187500.02235174447,-187500.02235174447,-187500.02235174447,1731451354.0008612,1731451353.6432064,3000
-8086.011777640793,-187500.02235174447,6177.373966857668,-187500.02235174447,-187500.02235174447,-187500.02235174447,-187500.02235174447,-187500.02235174447,1731451354.005854,1731451353.6432064,3000
-8053.154713291492,-187500.02235174447,6208.889926539651,-187500.02235174447,-187500.02235174447,-187500.02235174447,-187500.02235174447,-187500.02235174447,1731451354.0098286,1731451353.6432064,3000
-8025.527957144733,-187500.02235174447,6220.021095278394,-187500.02235174447,-187500.02235174447,-187500.02235174447,-187500.02235174447,-187500.02235174447,1731451354.0140707,1731451353.6432064,3000
-8057.893283116017,-187500.02235174447,6189.913295497096,-187500.02235174447,-187500.02235174447,-187500.02235174447,-187500.02235174447,-187500.02235174447,1731451354.016906,1731451353.6432064,3000
-8108.028245929271,-187500.02235174447,6190.181516430559,-187500.02235174447,-187500.02235174447,-187500.02235174447,-187500.02235174447,-187500.02235174447,1731451354.0198452,1731451353.6432064,3000
-8069.73970767733,-187500.02235174447,6224.446740680545,-187500.02235174447,-187500.02235174447,-187500.02235174447,-187500.02235174447,-187500.02235174447,1731451354.0239303,1731451353.6432064,3000
-8026.980820534328,-187500.02235174447,6231.353429717235,-187500.02235174447,-187500.02235174447,-187500.02235174447,-187500.02235174447,-187500.02235174447,1731451354.0279384,1731451353.6432064,3000
-8059.748477905808,-187500.02235174447,6210.074568995782,-187500.02235174447,-187500.02235174447,-187500.02235174447,-187500.02235174447,-187500.02235174447,1731451354.0381005,1731451353.6432064,3000
-8108.967019196394,-187500.02235174447,6196.998798489428,-187500.02235174447,-187500.02235174447,-187500.02235174447,-187500.02235174447,-187500.02235174447,1731451354.0420763,1731451353.6432064,3000
-8078.859219415095,-187500.02235174447,6218.344714444246,-187500.02235174447,-187500.02235174447,-187500.02235174447,-187500.02235174447,-187500.02235174447,1731451354.0450969,1731451353.6432064,3000
-8040.458922440877,-187500.02235174447,6223.75383660243,-187500.02235174447,-187500.02235174447,-187500.02235174447,-187500.02235174447,-187500.02235174447,1731451354.0480032,1731451353.6432064,3000
-8063.257701785291,-187500.02235174447,6203.950191015028,-187500.02235174447,-187500.02235174447,-187500.02235174447,-187500.02235174447,-187500.02235174447,1731451354.051898,1731451353.6432064,3000
-8095.1536411230145,-187500.02235174447,6200.910353769106,-187500.02235174447,-187500.02235174447,-187500.02235174447,-187500.02235174447,-187500.02235174447,1731451354.0550723,1731451353.6432064,3000
-8057.669765671464,-187500.02235174447,6211.683894596565,-187500.02235174447,-187500.02235174447,-187500.02235174447,-187500.02235174447,-187500.02235174447,1731451354.058096,1731451353.6432064,3000
-8022.0187332652495,-187500.02235174447,6226.547804659344,-187500.02235174447,-187500.02235174447,-187500.02235174447,-187500.02235174447,-187500.02235174447,1731451354.0620377,1731451353.6432064,3000
-8047.320907988657,-187500.02235174447,6223.150339502137,-187500.02235174447,-187500.02235174447,-187500.02235174447,-187500.02235174447,-187500.02235174447,1731451354.0650132,1731451353.6432064,3000
-8085.184763095947,-187500.02235174447,6204.173708459582,-187500.02235174447,-187500.02235174447,-187500.02235174447,-187500.02235174447,-187500.02235174447,1731451354.0678997,1731451353.6432064,3000
-8077.763983936786,-187500.02235174447,6219.574060389288,-187500.02235174447,-187500.02235174447,-187500.02235174447,-187500.02235174447,-187500.02235174447,1731451354.0729325,1731451353.6432064,3000
-8029.774788591241,-187500.02235174447,6244.317441501313,-187500.02235174447,-187500.02235174447,-187500.02235174447,-187500.02235174447,-187500.02235174447,1731451354.0769508,1731451353.6432064,3000
-8036.904995072484,-187500.02235174447,6228.514758171411,-187500.02235174447,-187500.02235174447,-187500.02235174447,-187500.02235174447,-187500.02235174447,1731451354.082166,1731451353.6432064,3000
-8080.133268849047,-187500.02235174447,6204.441929393045,-187500.02235174447,-187500.02235174447,-187500.02235174447,-187500.02235174447,-187500.02235174447,1731451354.084996,1731451353.6432064,3000
-8065.35876576409,-187500.02235174447,6202.139699714148,-187500.02235174447,-187500.02235174447,-187500.02235174447,-187500.02235174447,-187500.02235174447,1731451354.0900643,1731451353.6432064,3000
-8014.6203058505425,-187500.02235174447,6226.883080826174,-187500.02235174447,-187500.02235174447,-187500.02235174447,-187500.02235174447,-187500.02235174447,1731451354.0929449,1731451353.6432064,3000
-8036.882643328028,-187500.02235174447,6236.09199954176,-187500.02235174447,-187500.02235174447,-187500.02235174447,-187500.02235174447,-187500.02235174447,1731451354.0970235,1731451353.6432064,3000
-8086.347053807623,-187500.02235174447,6217.22712722148,-187500.02235174447,-187500.02235174447,-187500.02235174447,-187500.02235174447,-187500.02235174447,1731451354.10303,1731451353.6432064,3000
-8098.685216746952,-187500.02235174447,6222.524490657389,-187500.02235174447,-187500.02235174447,-187500.02235174447,-187500.02235174447,-187500.02235174447,1731451354.1059957,1731451353.6432064,3000
-8049.958413834383,-187500.02235174447,6240.070610054804,-187500.02235174447,-187500.02235174447,-187500.02235174447,-187500.02235174447,-187500.02235174447,1731451354.1090026,1731451353.6432064,3000
-8025.259736211269,-187500.02235174447,6229.855862838729,-187500.02235174447,-187500.02235174447,-187500.02235174447,-187500.02235174447,-187500.02235174447,1731451354.1132035,1731451353.6432064,3000
-8072.064289100682,-187500.02235174447,6207.593525361243,-187500.02235174447,-187500.02235174447,-187500.02235174447,-187500.02235174447,-187500.02235174447,1731451354.1170988,1731451353.6432064,3000
-8093.901943433517,-187500.02235174447,6212.622667863688,-187500.02235174447,-187500.02235174447,-187500.02235174447,-187500.02235174447,-187500.02235174447,1731451354.1201684,1731451353.6432064,3000
-8046.248024254803,-187500.02235174447,6224.536147658366,-187500.02235174447,-187500.02235174447,-187500.02235174447,-187500.02235174447,-187500.02235174447,1731451354.1241732,1731451353.6432064,3000
-8025.170329233448,-187500.02235174447,6219.507005155922,-187500.02235174447,-187500.02235174447,-187500.02235174447,-187500.02235174447,-187500.02235174447,1731451354.1281767,1731451353.6432064,3000
-8069.4044315105,-187500.02235174447,6210.454548651523,-187500.02235174447,-187500.02235174447,-187500.02235174447,-187500.02235174447,-187500.02235174447,1731451354.132166,1731451353.6432064,3000
-8094.617199256087,-187500.02235174447,6211.862708552207,-187500.02235174447,-187500.02235174447,-187500.02235174447,-187500.02235174447,-187500.02235174447,1731451354.1360912,1731451353.6432064,3000
-8047.455018455389,-187500.02235174447,6231.174615761593,-187500.02235174447,-187500.02235174447,-187500.02235174447,-187500.02235174447,-187500.02235174447,1731451354.1402075,1731451353.6432064,3000
-8011.580468604621,-187500.02235174447,6222.9044703131285,-187500.02235174447,-187500.02235174447,-187500.02235174447,-187500.02235174447,-187500.02235174447,1731451354.145254,1731451353.6432064,3000
-8054.249948769802,-187500.02235174447,6205.626571849176,-187500.02235174447,-187500.02235174447,-187500.02235174447,-187500.02235174447,-187500.02235174447,1731451354.1493127,1731451353.6432064,3000
-8106.105995906115,-187500.02235174447,6223.932650558073,-187500.02235174447,-187500.02235174447,-187500.02235174447,-187500.02235174447,-187500.02235174447,1731451354.1520717,1731451353.6432064,3000
-8052.148884791003,-187500.02235174447,6237.656621653631,-187500.02235174447,-187500.02235174447,-187500.02235174447,-187500.02235174447,-187500.02235174447,1731451354.1571064,1731451353.6432064,3000
-7964.57475001511,-187500.02235174447,6241.456418211033,-187500.02235174447,-187500.02235174447,-187500.02235174447,-187500.02235174447,-187500.02235174447,1731451354.1610885,1731451353.6432064,3000
-8038.491968928811,-187500.02235174447,6230.571118661299,-187500.02235174447,-187500.02235174447,-187500.02235174447,-187500.02235174447,-187500.02235174447,1731451354.1661334,1731451353.6432064,3000
-8113.705589020919,-187500.02235174447,6212.399150419135,-187500.02235174447,-187500.02235174447,-187500.02235174447,-187500.02235174447,-187500.02235174447,1731451354.170257,1731451353.6432064,3000
-8077.406356025501,-187500.02235174447,6224.08911276926,-187500.02235174447,-187500.02235174447,-187500.02235174447,-187500.02235174447,-187500.02235174447,1731451354.1742177,1731451353.6432064,3000
-8005.858422024063,-187500.02235174447,6240.316479243813,-187500.02235174447,-187500.02235174447,-187500.02235174447,-187500.02235174447,-187500.02235174447,1731451354.177128,1731451353.6432064,3000
-8039.408390451478,-187500.02235174447,6224.111464513715,-187500.02235174447,-187500.02235174447,-187500.02235174447,-187500.02235174447,-187500.02235174447,1731451354.182269,1731451353.6432064,3000
-8090.213905598392,-187500.02235174447,6219.4399499225565,-187500.02235174447,-187500.02235174447,-187500.02235174447,-187500.02235174447,-187500.02235174447,1731451354.1861808,1731451353.6432064,3000
-8077.942797892428,-187500.02235174447,6237.835435609274,-187500.02235174447,-187500.02235174447,-187500.02235174447,-187500.02235174447,-187500.02235174447,1731451354.1891274,1731451353.6432064,3000
-8002.930343500418,-187500.02235174447,6272.078308114804,-187500.02235174447,-187500.02235174447,-187500.02235174447,-187500.02235174447,-187500.02235174447,1731451354.1931329,1731451353.6432064,3000
-7892.713891591298,-187500.02235174447,6214.768435331397,-187500.02235174447,-187500.02235174447,-187500.02235174447,-187500.02235174447,-187500.02235174447,1731451354.19609,1731451353.6432064,3000
-8021.951678031884,-187500.02235174447,6120.0640940742605,-187500.02235174447,-187500.02235174447,-187500.02235174447,-187500.02235174447,-187500.02235174447,1731451354.201182,1731451353.6432064,3000
-8149.580138871687,-187500.02235174447,6194.651865321621,-187500.02235174447,-187500.02235174447,-187500.02235174447,-187500.02235174447,-187500.02235174447,1731451354.2043128,1731451353.6432064,3000
-8106.620086028587,-187500.02235174447,6290.652607757164,-187500.02235174447,-187500.02235174447,-187500.02235174447,-187500.02235174447,-187500.02235174447,1731451354.2073064,1731451353.6432064,3000
-8065.112896575081,-187500.02235174447,6321.095683705293,-187500.02235174447,-187500.02235174447,-187500.02235174447,-187500.02235174447,-187500.02235174447,1731451354.2121084,1731451353.6432064,3000
-8067.638643698531,-187500.02235174447,6286.048148399371,-187500.02235174447,-187500.02235174447,-187500.02235174447,-187500.02235174447,-187500.02235174447,1731451354.2161195,1731451353.6432064,3000
-8077.451059514411,-187500.02235174447,6237.768380375908,-187500.02235174447,-187500.02235174447,-187500.02235174447,-187500.02235174447,-187500.02235174447,1731451354.2202196,1731451353.6432064,3000
-7984.043119435682,-187500.02235174447,6231.465188439512,-187500.02235174447,-187500.02235174447,-187500.02235174447,-187500.02235174447,-187500.02235174447,1731451354.2241416,1731451353.6432064,3000
-7965.62528200451,-187500.02235174447,6230.973450061495,-187500.02235174447,-187500.02235174447,-187500.02235174447,-187500.02235174447,-187500.02235174447,1731451354.2283435,1731451353.6432064,3000
-8008.048892980682,-187500.02235174447,6221.205737734525,-187500.02235174447,-187500.02235174447,-187500.02235174447,-187500.02235174447,-187500.02235174447,1731451354.2313504,1731451353.6432064,3000
-8119.472339090388,-187500.02235174447,6230.906394828128,-187500.02235174447,-187500.02235174447,-187500.02235174447,-187500.02235174447,-187500.02235174447,1731451354.2352762,1731451353.6432064,3000
-8101.233315614858,-187500.02235174447,6244.652717668142,-187500.02235174447,-187500.02235174447,-187500.02235174447,-187500.02235174447,-187500.02235174447,1731451354.2414737,1731451353.6432064,3000
-8015.536727373211,-187500.02235174447,6236.203758264036,-187500.02235174447,-187500.02235174447,-187500.02235174447,-187500.02235174447,-187500.02235174447,1731451354.2441752,1731451353.6432064,3000
-8046.985631821827,-187500.02235174447,6284.572933265321,-187500.02235174447,-187500.02235174447,-187500.02235174447,-187500.02235174447,-187500.02235174447,1731451354.249338,1731451353.6432064,3000
-8063.883550630039,-187500.02235174447,6251.04531658236,-187500.02235174447,-187500.02235174447,-187500.02235174447,-187500.02235174447,-187500.02235174447,1731451354.25442,1731451353.6432064,3000
-7901.788699840153,-187500.02235174447,6182.626626804666,-187500.02235174447,-187500.02235174447,-187500.02235174447,-187500.02235174447,-187500.02235174447,1731451354.2573931,1731451353.6432064,3000
-7997.565924831144,-187500.02235174447,6129.161254067571,-187500.02235174447,-187500.02235174447,-187500.02235174447,-187500.02235174447,-187500.02235174447,1731451354.2602856,1731451353.6432064,3000
-8068.845637899118,-187500.02235174447,6196.596467089233,-187500.02235174447,-187500.02235174447,-187500.02235174447,-187500.02235174447,-187500.02235174447,1731451354.263468,1731451353.6432064,3000
-8133.017496230304,-187500.02235174447,6289.535020534399,-187500.02235174447,-187500.02235174447,-187500.02235174447,-187500.02235174447,-187500.02235174447,1731451354.268345,1731451353.6432064,3000
-8087.576399752665,-187500.02235174447,6370.984777329538,-187500.02235174447,-187500.02235174447,-187500.02235174447,-187500.02235174447,-187500.02235174447,1731451354.2724288,1731451353.6432064,3000
-8009.658218581465,-187500.02235174447,6347.4483904181,-187500.02235174447,-187500.02235174447,-187500.02235174447,-187500.02235174447,-187500.02235174447,1731451354.2762828,1731451353.6432064,3000
-7994.816660263141,-187500.02235174447,6301.604962540265,-187500.02235174447,-187500.02235174447,-187500.02235174447,-187500.02235174447,-187500.02235174447,1731451354.2804449,1731451353.6432064,3000
-7943.608813716032,-187500.02235174447,6194.316589154791,-187500.02235174447,-187500.02235174447,-187500.02235174447,-187500.02235174447,-187500.02235174447,1731451354.283414,1731451353.6432064,3000
-8057.870931371562,-187500.02235174447,6172.635397033143,-187500.02235174447,-187500.02235174447,-187500.02235174447,-187500.02235174447,-187500.02235174447,1731451354.287458,1731451353.6432064,3000
-8103.110862149104,-187500.02235174447,6318.100549948282,-187500.02235174447,-187500.02235174447,-187500.02235174447,-187500.02235174447,-187500.02235174447,1731451354.2914293,1731451353.6432064,3000
-8024.410369921968,-187500.02235174447,6328.315297164357,-187500.02235174447,-187500.02235174447,-187500.02235174447,-187500.02235174447,-187500.02235174447,1731451354.2964396,1731451353.6432064,3000
-8042.694096886408,-187500.02235174447,6269.2172848245245,-187500.02235174447,-187500.02235174447,-187500.02235174447,-187500.02235174447,-187500.02235174447,1731451354.3183637,1731451353.6432064,3000
-8069.672652443965,-187500.02235174447,6290.585552523799,-187500.02235174447,-187500.02235174447,-187500.02235174447,-187500.02235174447,-187500.02235174447,1731451354.3215709,1731451353.6432064,3000
-7962.227816847303,-187500.02235174447,6279.990825651983,-187500.02235174447,-187500.02235174447,-187500.02235174447,-187500.02235174447,-187500.02235174447,1731451354.325611,1731451353.6432064,3000
-7870.317443647081,-187500.02235174447,6125.272050532348,-187500.02235174447,-187500.02235174447,-187500.02235174447,-187500.02235174447,-187500.02235174447,1731451354.3285532,1731451353.6432064,3000
-7940.010182858728,-187500.02235174447,6068.297453915769,-187500.02235174447,-187500.02235174447,-187500.02235174447,-187500.02235174447,-187500.02235174447,1731451354.3326054,1731451353.6432064,3000
-8180.00086307536,-187500.02235174447,6218.99291503345,-187500.02235174447,-187500.02235174447,-187500.02235174447,-187500.02235174447,-187500.02235174447,1731451354.335446,1731451353.6432064,3000
-8052.998251080305,-187500.02235174447,6371.811791874385,-187500.02235174447,-187500.02235174447,-187500.02235174447,-187500.02235174447,-187500.02235174447,1731451354.3383572,1731451353.6432064,3000
-8045.041030054216,-187500.02235174447,6369.554265684398,-187500.02235174447,-187500.02235174447,-187500.02235174447,-187500.02235174447,-187500.02235174447,1731451354.342471,1731451353.6432064,3000
-8101.300370848224,-187500.02235174447,6313.227869657025,-187500.02235174447,-187500.02235174447,-187500.02235174447,-187500.02235174447,-187500.02235174447,1731451354.345615,1731451353.6432064,3000
-8087.464641030388,-187500.02235174447,6195.322417655279,-187500.02235174447,-187500.02235174447,-187500.02235174447,-187500.02235174447,-187500.02235174447,1731451354.3495395,1731451353.6432064,3000
-7942.535929982178,-187500.02235174447,6041.520064058312,-187500.02235174447,-187500.02235174447,-187500.02235174447,-187500.02235174447,-187500.02235174447,1731451354.3526103,1731451353.6432064,3000
-7923.38048498398,-187500.02235174447,6111.481024203423,-187500.02235174447,-187500.02235174447,-187500.02235174447,-187500.02235174447,-187500.02235174447,1731451354.355636,1731451353.6432064,3000
-7842.64598401141,-187500.02235174447,6293.558334536355,-187500.02235174447,-187500.02235174447,-187500.02235174447,-187500.02235174447,-187500.02235174447,1731451354.3586447,1731451353.6432064,3000
-8059.301443016701,-187500.02235174447,6336.138407723714,-187500.02235174447,-187500.02235174447,-187500.02235174447,-187500.02235174447,-187500.02235174447,1731451354.3626568,1731451353.6432064,3000
-8206.130052343613,-187500.02235174447,6407.015789391493,-187500.02235174447,-187500.02235174447,-187500.02235174447,-187500.02235174447,-187500.02235174447,1731451354.365666,1731451353.6432064,3000
-8042.917614330961,-187500.02235174447,6422.349086087834,-187500.02235174447,-187500.02235174447,-187500.02235174447,-187500.02235174447,-187500.02235174447,1731451354.3693895,1731451353.6432064,3000
-7989.4969450827775,-187500.02235174447,6314.144291179692,-187500.02235174447,-187500.02235174447,-187500.02235174447,-187500.02235174447,-187500.02235174447,1731451354.3725755,1731451353.6432064,3000
-8035.16155900497,-187500.02235174447,6145.388620542124,-187500.02235174447,-187500.02235174447,-187500.02235174447,-187500.02235174447,-187500.02235174447,1731451354.3755534,1731451353.6432064,3000
-8100.69687374793,-187500.02235174447,6209.783996317863,-187500.02235174447,-187500.02235174447,-187500.02235174447,-187500.02235174447,-187500.02235174447,1731451354.3784616,1731451353.6432064,3000
-7977.024671676716,-187500.02235174447,6385.021672847471,-187500.02235174447,-187500.02235174447,-187500.02235174447,-187500.02235174447,-187500.02235174447,1731451354.39275,1731451353.6432064,3000
-8074.388870524034,-187500.02235174447,6386.295722281423,-187500.02235174447,-187500.02235174447,-187500.02235174447,-187500.02235174447,-187500.02235174447,1731451354.395679,1731451353.6432064,3000
-8124.635592059564,-187500.02235174447,6379.344329755822,-187500.02235174447,-187500.02235174447,-187500.02235174447,-187500.02235174447,-187500.02235174447,1731451354.3996325,1731451353.6432064,3000
-8044.191663764914,-187500.02235174447,6306.812918998351,-187500.02235174447,-187500.02235174447,-187500.02235174447,-187500.02235174447,-187500.02235174447,1731451354.4024644,1731451353.6432064,3000
-8039.006059051283,-187500.02235174447,6195.478879866467,-187500.02235174447,-187500.02235174447,-187500.02235174447,-187500.02235174447,-187500.02235174447,1731451354.4066553,1731451353.6432064,3000
-8145.065086491715,-187500.02235174447,6207.772339316886,-187500.02235174447,-187500.02235174447,-187500.02235174447,-187500.02235174447,-187500.02235174447,1731451354.409526,1731451353.6432064,3000
-8174.2788164948015,-187500.02235174447,6292.798375224874,-187500.02235174447,-187500.02235174447,-187500.02235174447,-187500.02235174447,-187500.02235174447,1731451354.412789,1731451353.6432064,3000
-8010.01584649275,-187500.02235174447,6333.836178044818,-187500.02235174447,-187500.02235174447,-187500.02235174447,-187500.02235174447,-187500.02235174447,1731451354.4166796,1731451353.6432064,3000
-7912.025798800683,-187500.02235174447,6291.412567068644,-187500.02235174447,-187500.02235174447,-187500.02235174447,-187500.02235174447,-187500.02235174447,1731451354.4196365,1731451353.6432064,3000
-7902.235734729259,-187500.02235174447,6117.001905083884,-187500.02235174447,-187500.02235174447,-187500.02235174447,-187500.02235174447,-187500.02235174447,1731451354.4226906,1731451353.6432064,3000
-7987.194715403881,-187500.02235174447,5912.103463662084,-187500.02235174447,-187500.02235174447,-187500.02235174447,-187500.02235174447,-187500.02235174447,1731451354.4256709,1731451353.6432064,3000
-8022.890451299007,-187500.02235174447,6295.681750259609,-187500.02235174447,-187500.02235174447,-187500.02235174447,-187500.02235174447,-187500.02235174447,1731451354.42973,1731451353.6432064,3000
-8056.3510127486015,-187500.02235174447,6625.146463530835,-187500.02235174447,-187500.02235174447,-187500.02235174447,-187500.02235174447,-187500.02235174447,1731451354.4325092,1731451353.6432064,3000
-8074.478277501855,-187500.02235174447,6477.647301870264,-187500.02235174447,-187500.02235174447,-187500.02235174447,-187500.02235174447,-187500.02235174447,1731451354.4356396,1731451353.6432064,3000
-8064.531751219243,-187500.02235174447,6358.780724856941,-187500.02235174447,-187500.02235174447,-187500.02235174447,-187500.02235174447,-187500.02235174447,1731451354.439694,1731451353.6432064,3000
-8076.713451947386,-187500.02235174447,6360.881788835739,-187500.02235174447,-187500.02235174447,-187500.02235174447,-187500.02235174447,-187500.02235174447,1731451354.442642,1731451353.6432064,3000
-8094.326626578168,-187500.02235174447,6333.076218733338,-187500.02235174447,-187500.02235174447,-187500.02235174447,-187500.02235174447,-187500.02235174447,1731451354.4456885,1731451353.6432064,3000
-8087.285827074746,-187500.02235174447,6356.254977733491,-187500.02235174447,-187500.02235174447,-187500.02235174447,-187500.02235174447,-187500.02235174447,1731451354.4485445,1731451353.6432064,3000
-8012.385131405012,-187500.02235174447,6368.794306372918,-187500.02235174447,-187500.02235174447,-187500.02235174447,-187500.02235174447,-187500.02235174447,1731451354.4525876,1731451353.6432064,3000
-8111.492766319843,-187500.02235174447,6296.642875271186,-187500.02235174447,-187500.02235174447,-187500.02235174447,-187500.02235174447,-187500.02235174447,1731451354.455814,1731451353.6432064,3000
-8009.837032537107,-187500.02235174447,6281.62250299722,-187500.02235174447,-187500.02235174447,-187500.02235174447,-187500.02235174447,-187500.02235174447,1731451354.4587953,1731451353.6432064,3000
-7967.972215172317,-187500.02235174447,6311.327971378323,-187500.02235174447,-187500.02235174447,-187500.02235174447,-187500.02235174447,-187500.02235174447,1731451354.4626324,1731451353.6432064,3000
-8045.622175410053,-187500.02235174447,6356.478495178044,-187500.02235174447,-187500.02235174447,-187500.02235174447,-187500.02235174447,-187500.02235174447,1731451354.4656353,1731451353.6432064,3000
-7999.287009154202,-187500.02235174447,6329.701105320586,-187500.02235174447,-187500.02235174447,-187500.02235174447,-187500.02235174447,-187500.02235174447,1731451354.4686065,1731451353.6432064,3000
-7941.127770081493,-187500.02235174447,6264.903398144651,-187500.02235174447,-187500.02235174447,-187500.02235174447,-187500.02235174447,-187500.02235174447,1731451354.4727411,1731451353.6432064,3000
-7961.579616258099,-187500.02235174447,6124.288573776314,-187500.02235174447,-187500.02235174447,-187500.02235174447,-187500.02235174447,-187500.02235174447,1731451354.475732,1731451353.6432064,3000
-8166.455705935444,-187500.02235174447,6216.310705698813,-187500.02235174447,-187500.02235174447,-187500.02235174447,-187500.02235174447,-187500.02235174447,1731451354.478699,1731451353.6432064,3000
-7734.910575736831,-187500.02235174447,6370.493038951521,-187500.02235174447,-187500.02235174447,-187500.02235174447,-187500.02235174447,-187500.02235174447,1731451354.4867036,1731451353.6432064,3000
-7856.0793824290495,-187500.02235174447,6398.83505092085,-187500.02235174447,-187500.02235174447,-187500.02235174447,-187500.02235174447,-187500.02235174447,1731451354.4897752,1731451353.6432064,3000
-8186.684034667496,-187500.02235174447,6550.91632019476,-187500.02235174447,-187500.02235174447,-187500.02235174447,-187500.02235174447,-187500.02235174447,1731451354.49287,1731451353.6432064,3000
-8213.640238480597,-187500.02235174447,6466.672595342708,-187500.02235174447,-187500.02235174447,-187500.02235174447,-187500.02235174447,-187500.02235174447,1731451354.4967816,1731451353.6432064,3000
-8177.720985140919,-187500.02235174447,6369.397803473211,-187500.02235174447,-187500.02235174447,-187500.02235174447,-187500.02235174447,-187500.02235174447,1731451354.4998064,1731451353.6432064,3000
-8056.328661004146,-187500.02235174447,6308.310485876857,-187500.02235174447,-187500.02235174447,-187500.02235174447,-187500.02235174447,-187500.02235174447,1731451354.5026531,1731451353.6432064,3000
-8002.863288267052,-187500.02235174447,6335.400800156689,-187500.02235174447,-187500.02235174447,-187500.02235174447,-187500.02235174447,-187500.02235174447,1731451354.5068989,1731451353.6432064,3000
-8119.248821645835,-187500.02235174447,6452.814513780417,-187500.02235174447,-187500.02235174447,-187500.02235174447,-187500.02235174447,-187500.02235174447,1731451354.5116906,1731451353.6432064,3000
-8099.065196402693,-187500.02235174447,6403.55126900092,-187500.02235174447,-187500.02235174447,-187500.02235174447,-187500.02235174447,-187500.02235174447,1731451354.522869,1731451353.6432064,3000
-8164.533455912287,-187500.02235174447,6334.014992000461,-187500.02235174447,-187500.02235174447,-187500.02235174447,-187500.02235174447,-187500.02235174447,1731451354.525849,1731451353.6432064,3000
-8121.640458302553,-187500.02235174447,6282.427165797611,-187500.02235174447,-187500.02235174447,-187500.02235174447,-187500.02235174447,-187500.02235174447,1731451354.5288672,1731451353.6432064,3000
-7920.251240760236,-187500.02235174447,6290.809069968352,-187500.02235174447,-187500.02235174447,-187500.02235174447,-187500.02235174447,-187500.02235174447,1731451354.532802,1731451353.6432064,3000
-7959.590311001577,-187500.02235174447,6284.505878031955,-187500.02235174447,-187500.02235174447,-187500.02235174447,-187500.02235174447,-187500.02235174447,1731451354.5356565,1731451353.6432064,3000
-8172.960063571938,-187500.02235174447,6204.464281137501,-187500.02235174447,-187500.02235174447,-187500.02235174447,-187500.02235174447,-187500.02235174447,1731451354.53884,1731451353.6432064,3000
-8049.891358601018,-187500.02235174447,6443.13620843127,-187500.02235174447,-187500.02235174447,-187500.02235174447,-187500.02235174447,-187500.02235174447,1731451354.5426846,1731451353.6432064,3000
-7787.772451373631,-187500.02235174447,6406.859327180306,-187500.02235174447,-187500.02235174447,-187500.02235174447,-187500.02235174447,-187500.02235174447,1731451354.5458553,1731451353.6432064,3000
-8026.377323434034,-187500.02235174447,6306.365884109246,-187500.02235174447,-187500.02235174447,-187500.02235174447,-187500.02235174447,-187500.02235174447,1731451354.5488443,1731451353.6432064,3000
-8141.4217521455,-187500.02235174447,6426.864138467806,-187500.02235174447,-187500.02235174447,-187500.02235174447,-187500.02235174447,-187500.02235174447,1731451354.552876,1731451353.6432064,3000
-8016.453148895878,-187500.02235174447,6348.297756707401,-187500.02235174447,-187500.02235174447,-187500.02235174447,-187500.02235174447,-187500.02235174447,1731451354.555684,1731451353.6432064,3000
-7978.3434245995795,-187500.02235174447,6361.150009769203,-187500.02235174447,-187500.02235174447,-187500.02235174447,-187500.02235174447,-187500.02235174447,1731451354.559765,1731451353.6432064,3000
-8107.871783718084,-187500.02235174447,6452.859217269328,-187500.02235174447,-187500.02235174447,-187500.02235174447,-187500.02235174447,-187500.02235174447,1731451354.563009,1731451353.6432064,3000
-8190.662645180541,-187500.02235174447,6383.345292013323,-187500.02235174447,-187500.02235174447,-187500.02235174447,-187500.02235174447,-187500.02235174447,1731451354.5679789,1731451353.6432064,3000
-8042.761152119774,-187500.02235174447,6352.186960242625,-187500.02235174447,-187500.02235174447,-187500.02235174447,-187500.02235174447,-187500.02235174447,1731451354.5718577,1731451353.6432064,3000
-7887.349472922025,-187500.02235174447,6354.9138730661725,-187500.02235174447,-187500.02235174447,-187500.02235174447,-187500.02235174447,-187500.02235174447,1731451354.575986,1731451353.6432064,3000
-8058.385021494034,-187500.02235174447,6225.586679647766,-187500.02235174447,-187500.02235174447,-187500.02235174447,-187500.02235174447,-187500.02235174447,1731451354.5789905,1731451353.6432064,3000
-8155.972737785904,-187500.02235174447,6428.093484412848,-187500.02235174447,-187500.02235174447,-187500.02235174447,-187500.02235174447,-187500.02235174447,1731451354.5830104,1731451353.6432064,3000
-8020.454111153378,-187500.02235174447,6430.954507703127,-187500.02235174447,-187500.02235174447,-187500.02235174447,-187500.02235174447,-187500.02235174447,1731451354.5867765,1731451353.6432064,3000
-7855.766458006676,-187500.02235174447,6244.09392405676,-187500.02235174447,-187500.02235174447,-187500.02235174447,-187500.02235174447,-187500.02235174447,1731451354.5910287,1731451353.6432064,3000
-8071.661957700487,-187500.02235174447,6368.21316101708,-187500.02235174447,-187500.02235174447,-187500.02235174447,-187500.02235174447,-187500.02235174447,1731451354.5950382,1731451353.6432064,3000
-8191.735528914396,-187500.02235174447,6457.284862671479,-187500.02235174447,-187500.02235174447,-187500.02235174447,-187500.02235174447,-187500.02235174447,1731451354.6009471,1731451353.6432064,3000
-8144.126313224592,-187500.02235174447,6430.84274898085,-187500.02235174447,-187500.02235174447,-187500.02235174447,-187500.02235174447,-187500.02235174447,1731451354.6039276,1731451353.6432064,3000
-8058.4520767274,-187500.02235174447,6423.801949477429,-187500.02235174447,-187500.02235174447,-187500.02235174447,-187500.02235174447,-187500.02235174447,1731451354.6079645,1731451353.6432064,3000
-7942.848854404552,-187500.02235174447,6395.683454952652,-187500.02235174447,-187500.02235174447,-187500.02235174447,-187500.02235174447,-187500.02235174447,1731451354.610866,1731451353.6432064,3000
-7914.797415113141,-187500.02235174447,6325.789550040907,-187500.02235174447,-187500.02235174447,-187500.02235174447,-187500.02235174447,-187500.02235174447,1731451354.6160336,1731451353.6432064,3000
-8143.254595190835,-187500.02235174447,6395.079957852359,-187500.02235174447,-187500.02235174447,-187500.02235174447,-187500.02235174447,-187500.02235174447,1731451354.6199293,1731451353.6432064,3000
-8124.166205426002,-187500.02235174447,6438.978783962582,-187500.02235174447,-187500.02235174447,-187500.02235174447,-187500.02235174447,-187500.02235174447,1731451354.622994,1731451353.6432064,3000
-8076.154658336003,-187500.02235174447,6377.667948921675,-187500.02235174447,-187500.02235174447,-187500.02235174447,-187500.02235174447,-187500.02235174447,1731451354.629159,1731451353.6432064,3000
-8141.399400401045,-187500.02235174447,6322.101512205782,-187500.02235174447,-187500.02235174447,-187500.02235174447,-187500.02235174447,-187500.02235174447,1731451354.6321669,1731451353.6432064,3000
-8016.006114006772,-187500.02235174447,6256.610900951731,-187500.02235174447,-187500.02235174447,-187500.02235174447,-187500.02235174447,-187500.02235174447,1731451354.635966,1731451353.6432064,3000
-7916.85377560303,-187500.02235174447,6379.83606813384,-187500.02235174447,-187500.02235174447,-187500.02235174447,-187500.02235174447,-187500.02235174447,1731451354.638962,1731451353.6432064,3000
-8128.345981639145,-187500.02235174447,6528.072837361436,-187500.02235174447,-187500.02235174447,-187500.02235174447,-187500.02235174447,-187500.02235174447,1731451354.6429107,1731451353.6432064,3000
-8105.234277872358,-187500.02235174447,6480.933008305194,-187500.02235174447,-187500.02235174447,-187500.02235174447,-187500.02235174447,-187500.02235174447,1731451354.6470394,1731451353.6432064,3000
-8072.444268756422,-187500.02235174447,6382.518277468476,-187500.02235174447,-187500.02235174447,-187500.02235174447,-187500.02235174447,-187500.02235174447,1731451354.65112,1731451353.6432064,3000
-8113.102091920626,-187500.02235174447,6404.847670179328,-187500.02235174447,-187500.02235174447,-187500.02235174447,-187500.02235174447,-187500.02235174447,1731451354.6570532,1731451353.6432064,3000
-8054.629928425543,-187500.02235174447,6411.17321386018,-187500.02235174447,-187500.02235174447,-187500.02235174447,-187500.02235174447,-187500.02235174447,1731451354.6599271,1731451353.6432064,3000
-8002.304494655668,-187500.02235174447,6338.507692635977,-187500.02235174447,-187500.02235174447,-187500.02235174447,-187500.02235174447,-187500.02235174447,1731451354.6641495,1731451353.6432064,3000
-8040.727143374342,-187500.02235174447,6373.130544797247,-187500.02235174447,-187500.02235174447,-187500.02235174447,-187500.02235174447,-187500.02235174447,1731451354.6671247,1731451353.6432064,3000
-8056.663937170975,-187500.02235174447,6414.034237150459,-187500.02235174447,-187500.02235174447,-187500.02235174447,-187500.02235174447,-187500.02235174447,1731451354.671139,1731451353.6432064,3000
-7994.593142818588,-187500.02235174447,6365.463896449077,-187500.02235174447,-187500.02235174447,-187500.02235174447,-187500.02235174447,-187500.02235174447,1731451354.6751678,1731451353.6432064,3000
-7968.642767505976,-187500.02235174447,6312.110282434259,-187500.02235174447,-187500.02235174447,-187500.02235174447,-187500.02235174447,-187500.02235174447,1731451354.6791236,1731451353.6432064,3000
-7847.518664302667,-187500.02235174447,6476.462659414132,-187500.02235174447,-187500.02235174447,-187500.02235174447,-187500.02235174447,-187500.02235174447,1731451354.6839845,1731451353.6432064,3000
-8153.871673807106,-187500.02235174447,6539.58398575592,-187500.02235174447,-187500.02235174447,-187500.02235174447,-187500.02235174447,-187500.02235174447,1731451354.6871743,1731451353.6432064,3000
-7992.201506161869,-187500.02235174447,6504.8940783612825,-187500.02235174447,-187500.02235174447,-187500.02235174447,-187500.02235174447,-187500.02235174447,1731451354.6921935,1731451353.6432064,3000
-8135.878519520584,-187500.02235174447,6499.61906666983,-187500.02235174447,-187500.02235174447,-187500.02235174447,-187500.02235174447,-187500.02235174447,1731451354.6949852,1731451353.6432064,3000
-8169.09321178117,-187500.02235174447,6453.663880069719,-187500.02235174447,-187500.02235174447,-187500.02235174447,-187500.02235174447,-187500.02235174447,1731451354.6992152,1731451353.6432064,3000
-8138.091342221659,-187500.02235174447,6445.483141599077,-187500.02235174447,-187500.02235174447,-187500.02235174447,-187500.02235174447,-187500.02235174447,1731451354.7030475,1731451353.6432064,3000
-8039.274279984746,-187500.02235174447,6423.936059944161,-187500.02235174447,-187500.02235174447,-187500.02235174447,-187500.02235174447,-187500.02235174447,1731451354.7072237,1731451353.6432064,3000
-8093.36550156659,-187500.02235174447,6356.299681222401,-187500.02235174447,-187500.02235174447,-187500.02235174447,-187500.02235174447,-187500.02235174447,1731451354.7110271,1731451353.6432064,3000
-8136.794941043251,-187500.02235174447,6377.645597177219,-187500.02235174447,-187500.02235174447,-187500.02235174447,-187500.02235174447,-187500.02235174447,1731451354.7161143,1731451353.6432064,3000
-7980.086860667094,-187500.02235174447,6523.602488470375,-187500.02235174447,-187500.02235174447,-187500.02235174447,-187500.02235174447,-187500.02235174447,1731451354.719044,1731451353.6432064,3000
-7979.43866007789,-187500.02235174447,6502.770662638029,-187500.02235174447,-187500.02235174447,-187500.02235174447,-187500.02235174447,-187500.02235174447,1731451354.7240384,1731451353.6432064,3000
-7917.211403514315,-187500.02235174447,6445.907824743727,-187500.02235174447,-187500.02235174447,-187500.02235174447,-187500.02235174447,-187500.02235174447,1731451354.7270248,1731451353.6432064,3000
-8094.728957978364,-187500.02235174447,6467.007871509537,-187500.02235174447,-187500.02235174447,-187500.02235174447,-187500.02235174447,-187500.02235174447,1731451354.7310464,1731451353.6432064,3000
-8201.302075541267,-187500.02235174447,6415.107120884314,-187500.02235174447,-187500.02235174447,-187500.02235174447,-187500.02235174447,-187500.02235174447,1731451354.735044,1731451353.6432064,3000
-7904.180336496871,-187500.02235174447,6455.541426603964,-187500.02235174447,-187500.02235174447,-187500.02235174447,-187500.02235174447,-187500.02235174447,1731451354.7391253,1731451353.6432064,3000
-7929.773083898197,-187500.02235174447,6412.514318527498,-187500.02235174447,-187500.02235174447,-187500.02235174447,-187500.02235174447,-187500.02235174447,1731451354.7430513,1731451353.6432064,3000
-8083.888361917539,-187500.02235174447,6389.424966505167,-187500.02235174447,-187500.02235174447,-187500.02235174447,-187500.02235174447,-187500.02235174447,1731451354.746166,1731451353.6432064,3000
-8069.024451854761,-187500.02235174447,6476.619121625319,-187500.02235174447,-187500.02235174447,-187500.02235174447,-187500.02235174447,-187500.02235174447,1731451354.7510684,1731451353.6432064,3000
-8102.864992960095,-187500.02235174447,6424.1819291331685,-187500.02235174447,-187500.02235174447,-187500.02235174447,-187500.02235174447,-187500.02235174447,1731451354.7551408,1731451353.6432064,3000
-7895.127879992471,-187500.02235174447,6277.912113417639,-187500.02235174447,-187500.02235174447,-187500.02235174447,-187500.02235174447,-187500.02235174447,1731451354.759076,1731451353.6432064,3000
-7677.04190934204,-187500.02235174447,6514.706494177162,-187500.02235174447,-187500.02235174447,-187500.02235174447,-187500.02235174447,-187500.02235174447,1731451354.763243,1731451353.6432064,3000
-8167.975624558405,-187500.02235174447,6651.476818499186,-187500.02235174447,-187500.02235174447,-187500.02235174447,-187500.02235174447,-187500.02235174447,1731451354.7681327,1731451353.6432064,3000
-8198.351645273167,-187500.02235174447,6577.15726818529,-187500.02235174447,-187500.02235174447,-187500.02235174447,-187500.02235174447,-187500.02235174447,1731451354.77132,1731451353.6432064,3000
-8082.994292139327,-187500.02235174447,6549.306994593978,-187500.02235174447,-187500.02235174447,-187500.02235174447,-187500.02235174447,-187500.02235174447,1731451354.7741551,1731451353.6432064,3000
-8094.304274833713,-187500.02235174447,6522.596659969886,-187500.02235174447,-187500.02235174447,-187500.02235174447,-187500.02235174447,-187500.02235174447,1731451354.778135,1731451353.6432064,3000
-8070.164390821981,-187500.02235174447,6479.837772826883,-187500.02235174447,-187500.02235174447,-187500.02235174447,-187500.02235174447,-187500.02235174447,1731451354.7831907,1731451353.6432064,3000
-8032.635811881521,-187500.02235174447,6443.404429364733,-187500.02235174447,-187500.02235174447,-187500.02235174447,-187500.02235174447,-187500.02235174447,1731451354.7873228,1731451353.6432064,3000
-7968.665119250431,-187500.02235174447,6448.232406167079,-187500.02235174447,-187500.02235174447,-187500.02235174447,-187500.02235174447,-187500.02235174447,1731451354.7912483,1731451353.6432064,3000
-8032.188776992414,-187500.02235174447,6523.535433237009,-187500.02235174447,-187500.02235174447,-187500.02235174447,-187500.02235174447,-187500.02235174447,1731451354.7942257,1731451353.6432064,3000
-8133.375124141589,-187500.02235174447,6523.848357659383,-187500.02235174447,-187500.02235174447,-187500.02235174447,-187500.02235174447,-187500.02235174447,1731451354.8002293,1731451353.6432064,3000
-8108.229411629369,-187500.02235174447,6478.13904024828,-187500.02235174447,-187500.02235174447,-187500.02235174447,-187500.02235174447,-187500.02235174447,1731451354.80327,1731451353.6432064,3000
-8020.789387320207,-187500.02235174447,6468.572493621408,-187500.02235174447,-187500.02235174447,-187500.02235174447,-187500.02235174447,-187500.02235174447,1731451354.8082883,1731451353.6432064,3000
-7962.227816847303,-187500.02235174447,6448.746496289551,-187500.02235174447,-187500.02235174447,-187500.02235174447,-187500.02235174447,-187500.02235174447,1731451354.8122225,1731451353.6432064,3000
-8088.559876508699,-187500.02235174447,6525.278869304522,-187500.02235174447,-187500.02235174447,-187500.02235174447,-187500.02235174447,-187500.02235174447,1731451354.8152118,1731451353.6432064,3000
-8117.013647200304,-187500.02235174447,6528.832796672917,-187500.02235174447,-187500.02235174447,-187500.02235174447,-187500.02235174447,-187500.02235174447,1731451354.8192215,1731451353.6432064,3000
-8016.251983195781,-187500.02235174447,6520.71911343564,-187500.02235174447,-187500.02235174447,-187500.02235174447,-187500.02235174447,-187500.02235174447,1731451354.8253627,1731451353.6432064,3000
-7962.965424414328,-187500.02235174447,6508.783281896506,-187500.02235174447,-187500.02235174447,-187500.02235174447,-187500.02235174447,-187500.02235174447,1731451354.8282647,1731451353.6432064,3000
-8075.662919957987,-187500.02235174447,6411.106158626814,-187500.02235174447,-187500.02235174447,-187500.02235174447,-187500.02235174447,-187500.02235174447,1731451354.8314152,1731451353.6432064,3000
-8112.610353542609,-187500.02235174447,6468.907769788239,-187500.02235174447,-187500.02235174447,-187500.02235174447,-187500.02235174447,-187500.02235174447,1731451354.8352287,1731451353.6432064,3000
-8072.824248412163,-187500.02235174447,6504.827023127917,-187500.02235174447,-187500.02235174447,-187500.02235174447,-187500.02235174447,-187500.02235174447,1731451354.8392668,1731451353.6432064,3000
-7848.859768969985,-187500.02235174447,6540.38864855631,-187500.02235174447,-187500.02235174447,-187500.02235174447,-187500.02235174447,-187500.02235174447,1731451354.843248,1731451353.6432064,3000
-7805.944419615796,-187500.02235174447,6520.2720785465335,-187500.02235174447,-187500.02235174447,-187500.02235174447,-187500.02235174447,-187500.02235174447,1731451354.847279,1731451353.6432064,3000
-8186.013482333838,-187500.02235174447,6536.00770664307,-187500.02235174447,-187500.02235174447,-187500.02235174447,-187500.02235174447,-187500.02235174447,1731451354.8503027,1731451353.6432064,3000
-8155.637461619075,-187500.02235174447,6598.994922518125,-187500.02235174447,-187500.02235174447,-187500.02235174447,-187500.02235174447,-187500.02235174447,1731451354.8543236,1731451353.6432064,3000
-8034.8709863270515,-187500.02235174447,6583.482811866143,-187500.02235174447,-187500.02235174447,-187500.02235174447,-187500.02235174447,-187500.02235174447,1731451354.858339,1731451353.6432064,3000
-8005.2325731793135,-187500.02235174447,6523.177805325724,-187500.02235174447,-187500.02235174447,-187500.02235174447,-187500.02235174447,-187500.02235174447,1731451354.8622956,1731451353.6432064,3000
-7986.792384003686,-187500.02235174447,6469.265397699523,-187500.02235174447,-187500.02235174447,-187500.02235174447,-187500.02235174447,-187500.02235174447,1731451354.8674183,1731451353.6432064,3000
-7985.361872358546,-187500.02235174447,6512.068988331436,-187500.02235174447,-187500.02235174447,-187500.02235174447,-187500.02235174447,-187500.02235174447,1731451354.8713243,1731451353.6432064,3000
-8069.024451854761,-187500.02235174447,6643.139617817356,-187500.02235174447,-187500.02235174447,-187500.02235174447,-187500.02235174447,-187500.02235174447,1731451354.8754532,1731451353.6432064,3000
-8054.4734662143555,-187500.02235174447,6631.650821167329,-187500.02235174447,-187500.02235174447,-187500.02235174447,-187500.02235174447,-187500.02235174447,1731451354.878463,1731451353.6432064,3000
-8089.655111987008,-187500.02235174447,6564.439125590221,-187500.02235174447,-187500.02235174447,-187500.02235174447,-187500.02235174447,-187500.02235174447,1731451354.8824508,1731451353.6432064,3000
-8111.291600619746,-187500.02235174447,6529.235128073112,-187500.02235174447,-187500.02235174447,-187500.02235174447,-187500.02235174447,-187500.02235174447,1731451354.886461,1731451353.6432064,3000
-8042.78350386423,-187500.02235174447,6529.972735640137,-187500.02235174447,-187500.02235174447,-187500.02235174447,-187500.02235174447,-187500.02235174447,1731451354.8925142,1731451353.6432064,3000
-7947.09568585106,-187500.02235174447,6590.165983458279,-187500.02235174447,-187500.02235174447,-187500.02235174447,-187500.02235174447,-187500.02235174447,1731451354.8955157,1731451353.6432064,3000
-7931.494168221256,-187500.02235174447,6528.631630972819,-187500.02235174447,-187500.02235174447,-187500.02235174447,-187500.02235174447,-187500.02235174447,1731451354.9002836,1731451353.6432064,3000
-8010.887564526506,-187500.02235174447,6516.964020367149,-187500.02235174447,-187500.02235174447,-187500.02235174447,-187500.02235174447,-187500.02235174447,1731451354.9045465,1731451353.6432064,3000
-8028.165462990459,-187500.02235174447,6575.6820530512405,-187500.02235174447,-187500.02235174447,-187500.02235174447,-187500.02235174447,-187500.02235174447,1731451354.9086113,1731451353.6432064,3000
-8131.788150285262,-187500.02235174447,6621.011390806603,-187500.02235174447,-187500.02235174447,-187500.02235174447,-187500.02235174447,-187500.02235174447,1731451354.9114072,1731451353.6432064,3000
-8086.212943340892,-187500.02235174447,6573.44687860571,-187500.02235174447,-187500.02235174447,-187500.02235174447,-187500.02235174447,-187500.02235174447,1731451354.9146476,1731451353.6432064,3000
-8071.036108855737,-187500.02235174447,6486.833868841394,-187500.02235174447,-187500.02235174447,-187500.02235174447,-187500.02235174447,-187500.02235174447,1731451354.918446,1731451353.6432064,3000
-8039.721314873853,-187500.02235174447,6523.24486055909,-187500.02235174447,-187500.02235174447,-187500.02235174447,-187500.02235174447,-187500.02235174447,1731451354.922814,1731451353.6432064,3000
-7946.71570619532,-187500.02235174447,6630.197957777734,-187500.02235174447,-187500.02235174447,-187500.02235174447,-187500.02235174447,-187500.02235174447,1731451354.9273944,1731451353.6432064,3000
-7921.0559035606275,-187500.02235174447,6671.07929838649,-187500.02235174447,-187500.02235174447,-187500.02235174447,-187500.02235174447,-187500.02235174447,1731451354.930508,1731451353.6432064,3000
-8110.553993052721,-187500.02235174447,6571.435221604732,-187500.02235174447,-187500.02235174447,-187500.02235174447,-187500.02235174447,-187500.02235174447,1731451354.934394,1731451353.6432064,3000
-8065.112896575081,-187500.02235174447,6604.9181347987815,-187500.02235174447,-187500.02235174447,-187500.02235174447,-187500.02235174447,-187500.02235174447,1731451354.9385495,1731451353.6432064,3000
-8033.552233404188,-187500.02235174447,6655.433077267776,-187500.02235174447,-187500.02235174447,-187500.02235174447,-187500.02235174447,-187500.02235174447,1731451354.9425764,1731451353.6432064,3000
-8054.987556336828,-187500.02235174447,6594.591628860429,-187500.02235174447,-187500.02235174447,-187500.02235174447,-187500.02235174447,-187500.02235174447,1731451354.9466453,1731451353.6432064,3000
-8083.977768895361,-187500.02235174447,6579.481849608642,-187500.02235174447,-187500.02235174447,-187500.02235174447,-187500.02235174447,-187500.02235174447,1731451354.950631,1731451353.6432064,3000
-8034.356896204579,-187500.02235174447,6537.0582386324695,-187500.02235174447,-187500.02235174447,-187500.02235174447,-187500.02235174447,-187500.02235174447,1731451354.9556632,1731451353.6432064,3000
-8021.34818093159,-187500.02235174447,6655.701298201239,-187500.02235174447,-187500.02235174447,-187500.02235174447,-187500.02235174447,-187500.02235174447,1731451354.9586787,1731451353.6432064,3000
-8014.933230272917,-187500.02235174447,6652.773219677594,-187500.02235174447,-187500.02235174447,-187500.02235174447,-187500.02235174447,-187500.02235174447,1731451354.963683,1731451353.6432064,3000
-8011.625172093532,-187500.02235174447,6603.331160942455,-187500.02235174447,-187500.02235174447,-187500.02235174447,-187500.02235174447,-187500.02235174447,1731451354.9666412,1731451353.6432064,3000
-7965.871151193518,-187500.02235174447,6503.441214971687,-187500.02235174447,-187500.02235174447,-187500.02235174447,-187500.02235174447,-187500.02235174447,1731451354.9716284,1731451353.6432064,3000
-8090.459774787399,-187500.02235174447,6658.070583113502,-187500.02235174447,-187500.02235174447,-187500.02235174447,-187500.02235174447,-187500.02235174447,1731451354.9756088,1731451353.6432064,3000
-8028.97012579085,-187500.02235174447,6718.062665231546,-187500.02235174447,-187500.02235174447,-187500.02235174447,-187500.02235174447,-187500.02235174447,1731451354.9806435,1731451353.6432064,3000
-8031.741742103308,-187500.02235174447,6648.79460916455,-187500.02235174447,-187500.02235174447,-187500.02235174447,-187500.02235174447,-187500.02235174447,1731451354.9836285,1731451353.6432064,3000
-8081.563780494187,-187500.02235174447,6604.538155143042,-187500.02235174447,-187500.02235174447,-187500.02235174447,-187500.02235174447,-187500.02235174447,1731451354.9877307,1731451353.6432064,3000
-8050.181931278937,-187500.02235174447,6623.850062352427,-187500.02235174447,-187500.02235174447,-187500.02235174447,-187500.02235174447,-187500.02235174447,1731451354.9905863,1731451353.6432064,3000
-7936.232738045781,-187500.02235174447,6631.024972322581,-187500.02235174447,-187500.02235174447,-187500.02235174447,-187500.02235174447,-187500.02235174447,1731451354.994566,1731451353.6432064,3000
-8054.562873192177,-187500.02235174447,6622.955992574214,-187500.02235174447,-187500.02235174447,-187500.02235174447,-187500.02235174447,-187500.02235174447,1731451354.9986444,1731451353.6432064,3000
-8136.906699765528,-187500.02235174447,6616.876318082371,-187500.02235174447,-187500.02235174447,-187500.02235174447,-187500.02235174447,-187500.02235174447,1731451355.002512,1731451353.6432064,3000
-8055.658108670486,-187500.02235174447,6617.770387860584,-187500.02235174447,-187500.02235174447,-187500.02235174447,-187500.02235174447,-187500.02235174447,1731451355.0067446,1731451353.6432064,3000
-7967.659290749943,-187500.02235174447,6658.718783702706,-187500.02235174447,-187500.02235174447,-187500.02235174447,-187500.02235174447,-187500.02235174447,1731451355.011691,1731451353.6432064,3000
-7992.737948028797,-187500.02235174447,6640.949146860737,-187500.02235174447,-187500.02235174447,-187500.02235174447,-187500.02235174447,-187500.02235174447,1731451355.0146668,1731451353.6432064,3000
-8135.587946842665,-187500.02235174447,6615.579916903963,-187500.02235174447,-187500.02235174447,-187500.02235174447,-187500.02235174447,-187500.02235174447,1731451355.0176256,1731451353.6432064,3000
-8088.448117786422,-187500.02235174447,6674.633225754885,-187500.02235174447,-187500.02235174447,-187500.02235174447,-187500.02235174447,-187500.02235174447,1731451355.0225904,1731451353.6432064,3000
-8025.103274000082,-187500.02235174447,6645.486550985164,-187500.02235174447,-187500.02235174447,-187500.02235174447,-187500.02235174447,-187500.02235174447,1731451355.026518,1731451353.6432064,3000
-8016.006114006772,-187500.02235174447,6668.285330329577,-187500.02235174447,-187500.02235174447,-187500.02235174447,-187500.02235174447,-187500.02235174447,1731451355.0306933,1731451353.6432064,3000
-8114.107920421115,-187500.02235174447,6651.901501643837,-187500.02235174447,-187500.02235174447,-187500.02235174447,-187500.02235174447,-187500.02235174447,1731451355.0344937,1731451353.6432064,3000
-8088.001082897316,-187500.02235174447,6650.381583020876,-187500.02235174447,-187500.02235174447,-187500.02235174447,-187500.02235174447,-187500.02235174447,1731451355.0397227,1731451353.6432064,3000
-8009.926439514928,-187500.02235174447,6656.148333090346,-187500.02235174447,-187500.02235174447,-187500.02235174447,-187500.02235174447,-187500.02235174447,1731451355.0435512,1731451353.6432064,3000
-7888.5117636337,-187500.02235174447,6626.152292031324,-187500.02235174447,-187500.02235174447,-187500.02235174447,-187500.02235174447,-187500.02235174447,1731451355.0476768,1731451353.6432064,3000
-8022.331657687624,-187500.02235174447,6636.031763080569,-187500.02235174447,-187500.02235174447,-187500.02235174447,-187500.02235174447,-187500.02235174447,1731451355.0515113,1731451353.6432064,3000
-8111.246897130835,-187500.02235174447,6684.758565993138,-187500.02235174447,-187500.02235174447,-187500.02235174447,-187500.02235174447,-187500.02235174447,1731451355.0546863,1731451353.6432064,3000
-8020.342352431101,-187500.02235174447,6686.770222994116,-187500.02235174447,-187500.02235174447,-187500.02235174447,-187500.02235174447,-187500.02235174447,1731451355.0588305,1731451353.6432064,3000
-8057.155675548992,-187500.02235174447,6737.419275929842,-187500.02235174447,-187500.02235174447,-187500.02235174447,-187500.02235174447,-187500.02235174447,1731451355.0648208,1731451353.6432064,3000
-8026.667896111953,-187500.02235174447,6681.495211302664,-187500.02235174447,-187500.02235174447,-187500.02235174447,-187500.02235174447,-187500.02235174447,1731451355.0677044,1731451353.6432064,3000
-8065.112896575081,-187500.02235174447,6639.675097426784,-187500.02235174447,-187500.02235174447,-187500.02235174447,-187500.02235174447,-187500.02235174447,1731451355.0717504,1731451353.6432064,3000
-8024.119797244049,-187500.02235174447,6629.88503335536,-187500.02235174447,-187500.02235174447,-187500.02235174447,-187500.02235174447,-187500.02235174447,1731451355.0747485,1731451353.6432064,3000
-7817.2767540546365,-187500.02235174447,6636.858777625415,-187500.02235174447,-187500.02235174447,-187500.02235174447,-187500.02235174447,-187500.02235174447,1731451355.0788531,1731451353.6432064,3000
-7924.296906506647,-187500.02235174447,6637.529329959075,-187500.02235174447,-187500.02235174447,-187500.02235174447,-187500.02235174447,-187500.02235174447,1731451355.0827785,1731451353.6432064,3000
-8159.414906432022,-187500.02235174447,6717.570926853529,-187500.02235174447,-187500.02235174447,-187500.02235174447,-187500.02235174447,-187500.02235174447,1731451355.086822,1731451353.6432064,3000
-8174.077650794703,-187500.02235174447,6711.513604106141,-187500.02235174447,-187500.02235174447,-187500.02235174447,-187500.02235174447,-187500.02235174447,1731451355.0907564,1731451353.6432064,3000
-8054.585224936632,-187500.02235174447,6690.368853851421,-187500.02235174447,-187500.02235174447,-187500.02235174447,-187500.02235174447,-187500.02235174447,1731451355.0936675,1731451353.6432064,3000
-7975.348290842568,-187500.02235174447,6700.740063278683,-187500.02235174447,-187500.02235174447,-187500.02235174447,-187500.02235174447,-187500.02235174447,1731451355.097859,1731451353.6432064,3000
-8026.109102500571,-187500.02235174447,6644.815998651505,-187500.02235174447,-187500.02235174447,-187500.02235174447,-187500.02235174447,-187500.02235174447,1731451355.1016972,1731451353.6432064,3000
-8172.33421472719,-187500.02235174447,6649.889844642859,-187500.02235174447,-187500.02235174447,-187500.02235174447,-187500.02235174447,-187500.02235174447,1731451355.106774,1731451353.6432064,3000
-8035.094503771604,-187500.02235174447,6670.095821630457,-187500.02235174447,-187500.02235174447,-187500.02235174447,-187500.02235174447,-187500.02235174447,1731451355.110695,1731451353.6432064,3000
-8053.02060282476,-187500.02235174447,6676.309606589032,-187500.02235174447,-187500.02235174447,-187500.02235174447,-187500.02235174447,-187500.02235174447,1731451355.1147993,1731451353.6432064,3000
-8037.8661200840625,-187500.02235174447,6710.2172029277335,-187500.02235174447,-187500.02235174447,-187500.02235174447,-187500.02235174447,-187500.02235174447,1731451355.1186304,1731451353.6432064,3000
-8052.126533046548,-187500.02235174447,6673.023900154102,-187500.02235174447,-187500.02235174447,-187500.02235174447,-187500.02235174447,-187500.02235174447,1731451355.1238415,1731451353.6432064,3000
-8062.140114562526,-187500.02235174447,6653.980213878181,-187500.02235174447,-187500.02235174447,-187500.02235174447,-187500.02235174447,-187500.02235174447,1731451355.127794,1731451353.6432064,3000
-8004.629076079021,-187500.02235174447,6675.929626933293,-187500.02235174447,-187500.02235174447,-187500.02235174447,-187500.02235174447,-187500.02235174447,1731451355.1328666,1731451353.6432064,3000
-8085.609446240598,-187500.02235174447,6671.638091997874,-187500.02235174447,-187500.02235174447,-187500.02235174447,-187500.02235174447,-187500.02235174447,1731451355.135676,1731451353.6432064,3000
-8057.960338349383,-187500.02235174447,6699.80129001156,-187500.02235174447,-187500.02235174447,-187500.02235174447,-187500.02235174447,-187500.02235174447,1731451355.1388404,1731451353.6432064,3000
-7911.645819144943,-187500.02235174447,6654.3378417894655,-187500.02235174447,-187500.02235174447,-187500.02235174447,-187500.02235174447,-187500.02235174447,1731451355.141801,1731451353.6432064,3000
-7915.356208724525,-187500.02235174447,6643.720763173194,-187500.02235174447,-187500.02235174447,-187500.02235174447,-187500.02235174447,-187500.02235174447,1731451355.1468985,1731451353.6432064,3000
-8149.647194105053,-187500.02235174447,6675.326129832999,-187500.02235174447,-187500.02235174447,-187500.02235174447,-187500.02235174447,-187500.02235174447,1731451355.1507964,1731451353.6432064,3000
-8032.635811881521,-187500.02235174447,6732.658354360861,-187500.02235174447,-187500.02235174447,-187500.02235174447,-187500.02235174447,-187500.02235174447,1731451355.154888,1731451353.6432064,3000
-8101.546240037232,-187500.02235174447,6727.830377558516,-187500.02235174447,-187500.02235174447,-187500.02235174447,-187500.02235174447,-187500.02235174447,1731451355.1588752,1731451353.6432064,3000
-8053.489989458322,-187500.02235174447,6666.474839028698,-187500.02235174447,-187500.02235174447,-187500.02235174447,-187500.02235174447,-187500.02235174447,1731451355.1619053,1731451353.6432064,3000
-7995.777785274719,-187500.02235174447,6632.231966523167,-187500.02235174447,-187500.02235174447,-187500.02235174447,-187500.02235174447,-187500.02235174447,1731451355.1660073,1731451353.6432064,3000
-8023.471596654845,-187500.02235174447,6678.9918159236695,-187500.02235174447,-187500.02235174447,-187500.02235174447,-187500.02235174447,-187500.02235174447,1731451355.1699505,1731451353.6432064,3000
-8016.274334940235,-187500.02235174447,6735.541729395596,-187500.02235174447,-187500.02235174447,-187500.02235174447,-187500.02235174447,-187500.02235174447,1731451355.173967,1731451353.6432064,3000
-8020.699980342386,-187500.02235174447,6702.192926668278,-187500.02235174447,-187500.02235174447,-187500.02235174447,-187500.02235174447,-187500.02235174447,1731451355.1777651,1731451353.6432064,3000
-8031.629983381032,-187500.02235174447,6668.039461140569,-187500.02235174447,-187500.02235174447,-187500.02235174447,-187500.02235174447,-187500.02235174447,1731451355.1829045,1731451353.6432064,3000
-8083.21780958388,-187500.02235174447,6701.678836545806,-187500.02235174447,-187500.02235174447,-187500.02235174447,-187500.02235174447,-187500.02235174447,1731451355.18689,1731451353.6432064,3000
-8034.602765393587,-187500.02235174447,6715.38045589691,-187500.02235174447,-187500.02235174447,-187500.02235174447,-187500.02235174447,-187500.02235174447,1731451355.1909149,1731451353.6432064,3000
-7912.495185434245,-187500.02235174447,6712.407673884353,-187500.02235174447,-187500.02235174447,-187500.02235174447,-187500.02235174447,-187500.02235174447,1731451355.194956,1731451353.6432064,3000
-7968.888636694985,-187500.02235174447,6675.370833321909,-187500.02235174447,-187500.02235174447,-187500.02235174447,-187500.02235174447,-187500.02235174447,1731451355.1999364,1731451353.6432064,3000
-8115.65019078853,-187500.02235174447,6679.2823886015885,-187500.02235174447,-187500.02235174447,-187500.02235174447,-187500.02235174447,-187500.02235174447,1731451355.2041223,1731451353.6432064,3000
-8105.547202294732,-187500.02235174447,6721.750703066672,-187500.02235174447,-187500.02235174447,-187500.02235174447,-187500.02235174447,-187500.02235174447,1731451355.208034,1731451353.6432064,3000
-8035.429779938434,-187500.02235174447,6675.661405999828,-187500.02235174447,-187500.02235174447,-187500.02235174447,-187500.02235174447,-187500.02235174447,1731451355.2119193,1731451353.6432064,3000
-8099.959266180906,-187500.02235174447,6628.722742643684,-187500.02235174447,-187500.02235174447,-187500.02235174447,-187500.02235174447,-187500.02235174447,1731451355.2149827,1731451353.6432064,3000
-8014.106215728071,-187500.02235174447,6718.397941398375,-187500.02235174447,-187500.02235174447,-187500.02235174447,-187500.02235174447,-187500.02235174447,1731451355.218894,1731451353.6432064,3000
-7989.34048287159,-187500.02235174447,6705.635095314396,-187500.02235174447,-187500.02235174447,-187500.02235174447,-187500.02235174447,-187500.02235174447,1731451355.2219973,1731451353.6432064,3000
-8042.157655019481,-187500.02235174447,6737.575738141029,-187500.02235174447,-187500.02235174447,-187500.02235174447,-187500.02235174447,-187500.02235174447,1731451355.2258725,1731451353.6432064,3000
-8047.231501010836,-187500.02235174447,6748.908072579869,-187500.02235174447,-187500.02235174447,-187500.02235174447,-187500.02235174447,-187500.02235174447,1731451355.2299857,1731451353.6432064,3000
-7968.262787850236,-187500.02235174447,6619.379713461365,-187500.02235174447,-187500.02235174447,-187500.02235174447,-187500.02235174447,-187500.02235174447,1731451355.2341204,1731451353.6432064,3000
-7979.840991478085,-187500.02235174447,6600.716006841184,-187500.02235174447,-187500.02235174447,-187500.02235174447,-187500.02235174447,-187500.02235174447,1731451355.239035,1731451353.6432064,3000
-8086.794088696729,-187500.02235174447,6782.033357862635,-187500.02235174447,-187500.02235174447,-187500.02235174447,-187500.02235174447,-187500.02235174447,1731451355.2424655,1731451353.6432064,3000
-8021.482291398323,-187500.02235174447,6723.024752500624,-187500.02235174447,-187500.02235174447,-187500.02235174447,-187500.02235174447,-187500.02235174447,1731451355.2462292,1731451353.6432064,3000
-8086.324702063168,-187500.02235174447,6717.28035417561,-187500.02235174447,-187500.02235174447,-187500.02235174447,-187500.02235174447,-187500.02235174447,1731451355.2502737,1731451353.6432064,3000
-8021.236422209314,-187500.02235174447,6714.911069263348,-187500.02235174447,-187500.02235174447,-187500.02235174447,-187500.02235174447,-187500.02235174447,1731451355.2546651,1731451353.6432064,3000
-8046.270375999257,-187500.02235174447,6680.578789779996,-187500.02235174447,-187500.02235174447,-187500.02235174447,-187500.02235174447,-187500.02235174447,1731451355.2586076,1731451353.6432064,3000
-8047.298556244202,-187500.02235174447,6695.4874033316855,-187500.02235174447,-187500.02235174447,-187500.02235174447,-187500.02235174447,-187500.02235174447,1731451355.2621949,1731451353.6432064,3000
-8026.757303089775,-187500.02235174447,6724.097636234479,-187500.02235174447,-187500.02235174447,-187500.02235174447,-187500.02235174447,-187500.02235174447,1731451355.2671075,1731451353.6432064,3000
-8064.017661096771,-187500.02235174447,6701.678836545806,-187500.02235174447,-187500.02235174447,-187500.02235174447,-187500.02235174447,-187500.02235174447,1731451355.2700727,1731451353.6432064,3000
-7896.8713160599855,-187500.02235174447,6706.32799939251,-187500.02235174447,-187500.02235174447,-187500.02235174447,-187500.02235174447,-187500.02235174447,1731451355.274963,1731451353.6432064,3000
-7684.730909434666,-187500.02235174447,6638.3116410150105,-187500.02235174447,-187500.02235174447,-187500.02235174447,-187500.02235174447,-187500.02235174447,1731451355.2790945,1731451353.6432064,3000
-8170.993110059871,-187500.02235174447,6676.264903100122,-187500.02235174447,-187500.02235174447,-187500.02235174447,-187500.02235174447,-187500.02235174447,1731451355.2830615,1731451353.6432064,3000
-8284.584675381742,-187500.02235174447,6665.759583206128,-187500.02235174447,-187500.02235174447,-187500.02235174447,-187500.02235174447,-187500.02235174447,1731451355.2871156,1731451353.6432064,3000
-8112.520946564788,-187500.02235174447,6704.428101113809,-187500.02235174447,-187500.02235174447,-187500.02235174447,-187500.02235174447,-187500.02235174447,1731451355.292091,1731451353.6432064,3000
-7972.017880918727,-187500.02235174447,6772.735032169227,-187500.02235174447,-187500.02235174447,-187500.02235174447,-187500.02235174447,-187500.02235174447,1731451355.2961507,1731451353.6432064,3000
-7944.815807916619,-187500.02235174447,6681.897542702859,-187500.02235174447,-187500.02235174447,-187500.02235174447,-187500.02235174447,-187500.02235174447,1731451355.2991717,1731451353.6432064,3000
-8087.799917197218,-187500.02235174447,6703.198755168767,-187500.02235174447,-187500.02235174447,-187500.02235174447,-187500.02235174447,-187500.02235174447,1731451355.3031037,1731451353.6432064,3000
-8042.939966075417,-187500.02235174447,6702.796423768571,-187500.02235174447,-187500.02235174447,-187500.02235174447,-187500.02235174447,-187500.02235174447,1731451355.3069525,1731451353.6432064,3000
-7990.458070094356,-187500.02235174447,6722.868290289437,-187500.02235174447,-187500.02235174447,-187500.02235174447,-187500.02235174447,-187500.02235174447,1731451355.309991,1731451353.6432064,3000
-8041.688268385919,-187500.02235174447,6715.045179730079,-187500.02235174447,-187500.02235174447,-187500.02235174447,-187500.02235174447,-187500.02235174447,1731451355.3141787,1731451353.6432064,3000
-7997.476517853323,-187500.02235174447,6639.473931726687,-187500.02235174447,-187500.02235174447,-187500.02235174447,-187500.02235174447,-187500.02235174447,1731451355.3180668,1731451353.6432064,3000
-8060.284919772735,-187500.02235174447,6671.79455420906,-187500.02235174447,-187500.02235174447,-187500.02235174447,-187500.02235174447,-187500.02235174447,1731451355.3211472,1731451353.6432064,3000
-8038.536672417721,-187500.02235174447,6717.637982086895,-187500.02235174447,-187500.02235174447,-187500.02235174447,-187500.02235174447,-187500.02235174447,1731451355.3252056,1731451353.6432064,3000
-8041.397695708,-187500.02235174447,6697.052025443558,-187500.02235174447,-187500.02235174447,-187500.02235174447,-187500.02235174447,-187500.02235174447,1731451355.3291438,1731451353.6432064,3000
-7984.713671769342,-187500.02235174447,6598.63729460684,-187500.02235174447,-187500.02235174447,-187500.02235174447,-187500.02235174447,-187500.02235174447,1731451355.3341372,1731451353.6432064,3000
-8014.217974450347,-187500.02235174447,6535.784189198517,-187500.02235174447,-187500.02235174447,-187500.02235174447,-187500.02235174447,-187500.02235174447,1731451355.338168,1731451353.6432064,3000
-8083.195457839425,-187500.02235174447,6805.614448262983,-187500.02235174447,-187500.02235174447,-187500.02235174447,-187500.02235174447,-187500.02235174447,1731451355.342292,1731451353.6432064,3000
-7951.677793464398,-187500.02235174447,6786.079023609045,-187500.02235174447,-187500.02235174447,-187500.02235174447,-187500.02235174447,-187500.02235174447,1731451355.3462925,1731451353.6432064,3000
-8022.39871292099,-187500.02235174447,6656.237740068167,-187500.02235174447,-187500.02235174447,-187500.02235174447,-187500.02235174447,-187500.02235174447,1731451355.3520255,1731451353.6432064,3000
-8064.487047730333,-187500.02235174447,6663.814981438516,-187500.02235174447,-187500.02235174447,-187500.02235174447,-187500.02235174447,-187500.02235174447,1731451355.3550165,1731451353.6432064,3000
-7994.347273629579,-187500.02235174447,6731.317249693543,-187500.02235174447,-187500.02235174447,-187500.02235174447,-187500.02235174447,-187500.02235174447,1731451355.359243,1731451353.6432064,3000
-8023.1363204880145,-187500.02235174447,6734.468845661741,-187500.02235174447,-187500.02235174447,-187500.02235174447,-187500.02235174447,-187500.02235174447,1731451355.363191,1731451353.6432064,3000
-8041.375343963546,-187500.02235174447,6712.407673884353,-187500.02235174447,-187500.02235174447,-187500.02235174447,-187500.02235174447,-187500.02235174447,1731451355.3672128,1731451353.6432064,3000
-8065.425820997456,-187500.02235174447,6671.101650130946,-187500.02235174447,-187500.02235174447,-187500.02235174447,-187500.02235174447,-187500.02235174447,1731451355.371061,1731451353.6432064,3000
-8056.149847048503,-187500.02235174447,6682.70220550325,-187500.02235174447,-187500.02235174447,-187500.02235174447,-187500.02235174447,-187500.02235174447,1731451355.3760366,1731451353.6432064,3000
-8024.119797244049,-187500.02235174447,6682.590446780974,-187500.02235174447,-187500.02235174447,-187500.02235174447,-187500.02235174447,-187500.02235174447,1731451355.3793209,1731451353.6432064,3000
-8056.038088326227,-187500.02235174447,6611.601306390919,-187500.02235174447,-187500.02235174447,-187500.02235174447,-187500.02235174447,-187500.02235174447,1731451355.3823624,1731451353.6432064,3000
-7935.137502567471,-187500.02235174447,6647.386449263865,-187500.02235174447,-187500.02235174447,-187500.02235174447,-187500.02235174447,-187500.02235174447,1731451355.3862348,1731451353.6432064,3000
-7988.334654371101,-187500.02235174447,6770.633968190428,-187500.02235174447,-187500.02235174447,-187500.02235174447,-187500.02235174447,-187500.02235174447,1731451355.3901958,1731451353.6432064,3000
-7986.188886903392,-187500.02235174447,6742.269604476644,-187500.02235174447,-187500.02235174447,-187500.02235174447,-187500.02235174447,-187500.02235174447,1731451355.3940845,1731451353.6432064,3000
-8049.3102132451795,-187500.02235174447,6690.838240484982,-187500.02235174447,-187500.02235174447,-187500.02235174447,-187500.02235174447,-187500.02235174447,1731451355.39824,1731451353.6432064,3000
-8061.156637806492,-187500.02235174447,6593.474041637664,-187500.02235174447,-187500.02235174447,-187500.02235174447,-187500.02235174447,-187500.02235174447,1731451355.4021287,1731451353.6432064,3000
-7926.263860018714,-187500.02235174447,6597.8102800619945,-187500.02235174447,-187500.02235174447,-187500.02235174447,-187500.02235174447,-187500.02235174447,1731451355.4053802,1731451353.6432064,3000
-8029.126588002037,-187500.02235174447,6817.863204224492,-187500.02235174447,-187500.02235174447,-187500.02235174447,-187500.02235174447,-187500.02235174447,1731451355.4091885,1731451353.6432064,3000
-8051.21011152388,-187500.02235174447,6762.9896715867135,-187500.02235174447,-187500.02235174447,-187500.02235174447,-187500.02235174447,-187500.02235174447,1731451355.4133055,1731451353.6432064,3000
-8042.045896297204,-187500.02235174447,6681.204638624745,-187500.02235174447,-187500.02235174447,-187500.02235174447,-187500.02235174447,-187500.02235174447,1731451355.417377,1731451353.6432064,3000
-8056.820399382163,-187500.02235174447,6690.927647462803,-187500.02235174447,-187500.02235174447,-187500.02235174447,-187500.02235174447,-187500.02235174447,1731451355.4222884,1731451353.6432064,3000
-7996.090709697093,-187500.02235174447,6710.239554672188,-187500.02235174447,-187500.02235174447,-187500.02235174447,-187500.02235174447,-187500.02235174447,1731451355.4261246,1731451353.6432064,3000
-7986.5018113257665,-187500.02235174447,6668.575903007496,-187500.02235174447,-187500.02235174447,-187500.02235174447,-187500.02235174447,-187500.02235174447,1731451355.4303527,1731451353.6432064,3000
-8055.322832503657,-187500.02235174447,6657.176513335289,-187500.02235174447,-187500.02235174447,-187500.02235174447,-187500.02235174447,-187500.02235174447,1731451355.4333136,1731451353.6432064,3000
-7999.599933576576,-187500.02235174447,6661.55745524853,-187500.02235174447,-187500.02235174447,-187500.02235174447,-187500.02235174447,-187500.02235174447,1731451355.4384327,1731451353.6432064,3000
-8060.4637337283775,-187500.02235174447,6690.882943973893,-187500.02235174447,-187500.02235174447,-187500.02235174447,-187500.02235174447,-187500.02235174447,1731451355.443224,1731451353.6432064,3000
-8114.711417521408,-187500.02235174447,6659.36698429191,-187500.02235174447,-187500.02235174447,-187500.02235174447,-187500.02235174447,-187500.02235174447,1731451355.4463603,1731451353.6432064,3000
-8072.2654548007795,-187500.02235174447,6616.809262849005,-187500.02235174447,-187500.02235174447,-187500.02235174447,-187500.02235174447,-187500.02235174447,1731451355.451291,1731451353.6432064,3000
-8012.183965704914,-187500.02235174447,6614.574088403474,-187500.02235174447,-187500.02235174447,-187500.02235174447,-187500.02235174447,-187500.02235174447,1731451355.455405,1731451353.6432064,3000
-7918.5301564371775,-187500.02235174447,6750.517398180652,-187500.02235174447,-187500.02235174447,-187500.02235174447,-187500.02235174447,-187500.02235174447,1731451355.4584515,1731451353.6432064,3000
-7881.538019363645,-187500.02235174447,6746.04704928959,-187500.02235174447,-187500.02235174447,-187500.02235174447,-187500.02235174447,-187500.02235174447,1731451355.4613197,1731451353.6432064,3000
-8054.138190047525,-187500.02235174447,6651.052135354536,-187500.02235174447,-187500.02235174447,-187500.02235174447,-187500.02235174447,-187500.02235174447,1731451355.4654648,1731451353.6432064,3000
-8103.759062738307,-187500.02235174447,6684.199772381756,-187500.02235174447,-187500.02235174447,-187500.02235174447,-187500.02235174447,-187500.02235174447,1731451355.4692333,1731451353.6432064,3000
-8040.391867207511,-187500.02235174447,6707.758511037649,-187500.02235174447,-187500.02235174447,-187500.02235174447,-187500.02235174447,-187500.02235174447,1731451355.473406,1731451353.6432064,3000
-7911.221136000292,-187500.02235174447,6628.476873454675,-187500.02235174447,-187500.02235174447,-187500.02235174447,-187500.02235174447,-187500.02235174447,1731451355.4784553,1731451353.6432064,3000
-7940.434866003378,-187500.02235174447,6652.303833044033,-187500.02235174447,-187500.02235174447,-187500.02235174447,-187500.02235174447,-187500.02235174447,1731451355.4823349,1731451353.6432064,3000
-8012.228669193825,-187500.02235174447,6800.384140060442,-187500.02235174447,-187500.02235174447,-187500.02235174447,-187500.02235174447,-187500.02235174447,1731451355.4853213,1731451353.6432064,3000
-8005.210221434859,-187500.02235174447,6713.704075062761,-187500.02235174447,-187500.02235174447,-187500.02235174447,-187500.02235174447,-187500.02235174447,1731451355.4895463,1731451353.6432064,3000
-8085.676501473964,-187500.02235174447,6695.241534142678,-187500.02235174447,-187500.02235174447,-187500.02235174447,-187500.02235174447,-187500.02235174447,1731451355.493342,1731451353.6432064,3000
-8086.347053807623,-187500.02235174447,6709.144319193879,-187500.02235174447,-187500.02235174447,-187500.02235174447,-187500.02235174447,-187500.02235174447,1731451355.4975207,1731451353.6432064,3000
-8086.391757296534,-187500.02235174447,6671.056946642036,-187500.02235174447,-187500.02235174447,-187500.02235174447,-187500.02235174447,-187500.02235174447,1731451355.50132,1731451353.6432064,3000
-8033.574585148644,-187500.02235174447,6658.227045324689,-187500.02235174447,-187500.02235174447,-187500.02235174447,-187500.02235174447,-187500.02235174447,1731451355.5055077,1731451353.6432064,3000
-8009.747625559286,-187500.02235174447,6637.261109025611,-187500.02235174447,-187500.02235174447,-187500.02235174447,-187500.02235174447,-187500.02235174447,1731451355.5103853,1731451353.6432064,3000
-8021.72816058733,-187500.02235174447,6725.818720557538,-187500.02235174447,-187500.02235174447,-187500.02235174447,-187500.02235174447,-187500.02235174447,1731451355.5142927,1731451353.6432064,3000
-8083.038995628238,-187500.02235174447,6707.982028482203,-187500.02235174447,-187500.02235174447,-187500.02235174447,-187500.02235174447,-187500.02235174447,1731451355.5183702,1731451353.6432064,3000
-8037.128512517037,-187500.02235174447,6704.718673791728,-187500.02235174447,-187500.02235174447,-187500.02235174447,-187500.02235174447,-187500.02235174447,1731451355.5227995,1731451353.6432064,3000
-7893.809127069609,-187500.02235174447,6672.0627751425245,-187500.02235174447,-187500.02235174447,-187500.02235174447,-187500.02235174447,-187500.02235174447,1731451355.526436,1731451353.6432064,3000
-7903.398025440935,-187500.02235174447,6638.065771826002,-187500.02235174447,-187500.02235174447,-187500.02235174447,-187500.02235174447,-187500.02235174447,1731451355.531396,1731451353.6432064,3000
-7990.301607883169,-187500.02235174447,6710.507775605653,-187500.02235174447,-187500.02235174447,-187500.02235174447,-187500.02235174447,-187500.02235174447,1731451355.5353217,1731451353.6432064,3000
-8144.506292880332,-187500.02235174447,6688.603066039452,-187500.02235174447,-187500.02235174447,-187500.02235174447,-187500.02235174447,-187500.02235174447,1731451355.5385504,1731451353.6432064,3000
-8029.394808935501,-187500.02235174447,6738.358049196965,-187500.02235174447,-187500.02235174447,-187500.02235174447,-187500.02235174447,-187500.02235174447,1731451355.5424297,1731451353.6432064,3000
-7921.100607049538,-187500.02235174447,6693.4310428417975,-187500.02235174447,-187500.02235174447,-187500.02235174447,-187500.02235174447,-187500.02235174447,1731451355.545488,1731451353.6432064,3000
-8105.591905783643,-187500.02235174447,6589.428375891254,-187500.02235174447,-187500.02235174447,-187500.02235174447,-187500.02235174447,-187500.02235174447,1731451355.5497,1731451353.6432064,3000
-7866.383536622947,-187500.02235174447,6706.976199981714,-187500.02235174447,-187500.02235174447,-187500.02235174447,-187500.02235174447,-187500.02235174447,1731451355.5534651,1731451353.6432064,3000
-8011.133433715515,-187500.02235174447,6749.064534791057,-187500.02235174447,-187500.02235174447,-187500.02235174447,-187500.02235174447,-187500.02235174447,1731451355.5575566,1731451353.6432064,3000
-8086.9952543968275,-187500.02235174447,6746.874063834437,-187500.02235174447,-187500.02235174447,-187500.02235174447,-187500.02235174447,-187500.02235174447,1731451355.5614736,1731451353.6432064,3000
-8097.388815568544,-187500.02235174447,6693.319284119521,-187500.02235174447,-187500.02235174447,-187500.02235174447,-187500.02235174447,-187500.02235174447,1731451355.5655308,1731451353.6432064,3000
-8091.577362010165,-187500.02235174447,6693.386339352887,-187500.02235174447,-187500.02235174447,-187500.02235174447,-187500.02235174447,-187500.02235174447,1731451355.56843,1731451353.6432064,3000
-8053.713506902874,-187500.02235174447,6698.661351044339,-187500.02235174447,-187500.02235174447,-187500.02235174447,-187500.02235174447,-187500.02235174447,1731451355.5735044,1731451353.6432064,3000
-8007.601858091576,-187500.02235174447,6686.077318916002,-187500.02235174447,-187500.02235174447,-187500.02235174447,-187500.02235174447,-187500.02235174447,1731451355.5774572,1731451353.6432064,3000
-8015.290858184202,-187500.02235174447,6660.015184881114,-187500.02235174447,-187500.02235174447,-187500.02235174447,-187500.02235174447,-187500.02235174447,1731451355.58156,1731451353.6432064,3000
-7986.278293881213,-187500.02235174447,6641.843216638949,-187500.02235174447,-187500.02235174447,-187500.02235174447,-187500.02235174447,-187500.02235174447,1731451355.585537,1731451353.6432064,3000
-8033.418122937456,-187500.02235174447,6656.595367979452,-187500.02235174447,-187500.02235174447,-187500.02235174447,-187500.02235174447,-187500.02235174447,1731451355.5900123,1731451353.6432064,3000
-7951.275462064203,-187500.02235174447,6645.799475407538,-187500.02235174447,-187500.02235174447,-187500.02235174447,-187500.02235174447,-187500.02235174447,1731451355.5944965,1731451353.6432064,3000
-8000.784576032708,-187500.02235174447,6701.321208634521,-187500.02235174447,-187500.02235174447,-187500.02235174447,-187500.02235174447,-187500.02235174447,1731451355.598606,1731451353.6432064,3000
-8111.872745975584,-187500.02235174447,6754.116029037957,-187500.02235174447,-187500.02235174447,-187500.02235174447,-187500.02235174447,-187500.02235174447,1731451355.602586,1731451353.6432064,3000
-8046.78446612173,-187500.02235174447,6753.601938915484,-187500.02235174447,-187500.02235174447,-187500.02235174447,-187500.02235174447,-187500.02235174447,1731451355.6066773,1731451353.6432064,3000
-7985.540686314188,-187500.02235174447,6746.4940841786965,-187500.02235174447,-187500.02235174447,-187500.02235174447,-187500.02235174447,-187500.02235174447,1731451355.610754,1731451353.6432064,3000
-7932.343534510557,-187500.02235174447,6691.061757929535,-187500.02235174447,-187500.02235174447,-187500.02235174447,-187500.02235174447,-187500.02235174447,1731451355.6146865,1731451353.6432064,3000
-8059.010870338782,-187500.02235174447,6568.238922147623,-187500.02235174447,-187500.02235174447,-187500.02235174447,-187500.02235174447,-187500.02235174447,1731451355.6196244,1731451353.6432064,3000
-8143.008726001826,-187500.02235174447,6576.576122829452,-187500.02235174447,-187500.02235174447,-187500.02235174447,-187500.02235174447,-187500.02235174447,1731451355.6226227,1731451353.6432064,3000
-7983.081994424105,-187500.02235174447,6806.39675931892,-187500.02235174447,-187500.02235174447,-187500.02235174447,-187500.02235174447,-187500.02235174447,1731451355.6256523,1731451353.6432064,3000
-8051.12070454606,-187500.02235174447,6733.150092738878,-187500.02235174447,-187500.02235174447,-187500.02235174447,-187500.02235174447,-187500.02235174447,1731451355.6297035,1731451353.6432064,3000
-8069.493838488322,-187500.02235174447,6673.962673421225,-187500.02235174447,-187500.02235174447,-187500.02235174447,-187500.02235174447,-187500.02235174447,1731451355.6337512,1731451353.6432064,3000
-8062.698908173908,-187500.02235174447,6666.206618095233,-187500.02235174447,-187500.02235174447,-187500.02235174447,-187500.02235174447,-187500.02235174447,1731451355.63768,1731451353.6432064,3000
-8071.349033278112,-187500.02235174447,6661.2668825706105,-187500.02235174447,-187500.02235174447,-187500.02235174447,-187500.02235174447,-187500.02235174447,1731451355.6416223,1731451353.6432064,3000
-7957.399840044956,-187500.02235174447,6680.310568846532,-187500.02235174447,-187500.02235174447,-187500.02235174447,-187500.02235174447,-187500.02235174447,1731451355.64574,1731451353.6432064,3000
-7999.734044043308,-187500.02235174447,6720.789578055093,-187500.02235174447,-187500.02235174447,-187500.02235174447,-187500.02235174447,-187500.02235174447,1731451355.6490035,1731451353.6432064,3000
-8112.766815753796,-187500.02235174447,6741.666107376351,-187500.02235174447,-187500.02235174447,-187500.02235174447,-187500.02235174447,-187500.02235174447,1731451355.6525311,1731451353.6432064,3000
-8008.786500547708,-187500.02235174447,6729.752627581672,-187500.02235174447,-187500.02235174447,-187500.02235174447,-187500.02235174447,-187500.02235174447,1731451355.6566567,1731451353.6432064,3000
-8012.5639453606545,-187500.02235174447,6707.1103104484455,-187500.02235174447,-187500.02235174447,-187500.02235174447,-187500.02235174447,-187500.02235174447,1731451355.6616716,1731451353.6432064,3000
-8001.656294066464,-187500.02235174447,6645.732420174172,-187500.02235174447,-187500.02235174447,-187500.02235174447,-187500.02235174447,-187500.02235174447,1731451355.6658394,1731451353.6432064,3000
-7910.930563322373,-187500.02235174447,6659.434039525276,-187500.02235174447,-187500.02235174447,-187500.02235174447,-187500.02235174447,-187500.02235174447,1731451355.6696272,1731451353.6432064,3000
-7995.643674807987,-187500.02235174447,6724.254098445666,-187500.02235174447,-187500.02235174447,-187500.02235174447,-187500.02235174447,-187500.02235174447,1731451355.6737456,1731451353.6432064,3000
-8148.619013860109,-187500.02235174447,6710.574830839018,-187500.02235174447,-187500.02235174447,-187500.02235174447,-187500.02235174447,-187500.02235174447,1731451355.6777766,1731451353.6432064,3000
-8052.238291768825,-187500.02235174447,6651.946205132748,-187500.02235174447,-187500.02235174447,-187500.02235174447,-187500.02235174447,-187500.02235174447,1731451355.6828516,1731451353.6432064,3000
-8062.87772212955,-187500.02235174447,6694.973313209214,-187500.02235174447,-187500.02235174447,-187500.02235174447,-187500.02235174447,-187500.02235174447,1731451355.6867206,1731451353.6432064,3000
-8113.146795409536,-187500.02235174447,6705.0539499585575,-187500.02235174447,-187500.02235174447,-187500.02235174447,-187500.02235174447,-187500.02235174447,1731451355.7038412,1731451353.6432064,3000
-7998.258828909258,-187500.02235174447,6699.398958611365,-187500.02235174447,-187500.02235174447,-187500.02235174447,-187500.02235174447,-187500.02235174447,1731451355.707837,1731451353.6432064,3000
-7977.203485632359,-187500.02235174447,6716.207470441756,-187500.02235174447,-187500.02235174447,-187500.02235174447,-187500.02235174447,-187500.02235174447,1731451355.71064,1731451353.6432064,3000
-8021.1917187204035,-187500.02235174447,6725.326982179521,-187500.02235174447,-187500.02235174447,-187500.02235174447,-187500.02235174447,-187500.02235174447,1731451355.7147875,1731451353.6432064,3000
-7962.227816847303,-187500.02235174447,6712.09474946198,-187500.02235174447,-187500.02235174447,-187500.02235174447,-187500.02235174447,-187500.02235174447,1731451355.717608,1731451353.6432064,3000
-8012.63100059402,-187500.02235174447,6701.790595268082,-187500.02235174447,-187500.02235174447,-187500.02235174447,-187500.02235174447,-187500.02235174447,1731451355.7206495,1731451353.6432064,3000
-8030.534747902721,-187500.02235174447,6636.747018903139,-187500.02235174447,-187500.02235174447,-187500.02235174447,-187500.02235174447,-187500.02235174447,1731451355.7247095,1731451353.6432064,3000
-7931.516519965711,-187500.02235174447,6649.711030687217,-187500.02235174447,-187500.02235174447,-187500.02235174447,-187500.02235174447,-187500.02235174447,1731451355.727752,1731451353.6432064,3000
-8160.71130761043,-187500.02235174447,6752.90903483737,-187500.02235174447,-187500.02235174447,-187500.02235174447,-187500.02235174447,-187500.02235174447,1731451355.7319236,1731451353.6432064,3000
-8085.318873562679,-187500.02235174447,6734.491197406197,-187500.02235174447,-187500.02235174447,-187500.02235174447,-187500.02235174447,-187500.02235174447,1731451355.7346408,1731451353.6432064,3000
-8047.946756833406,-187500.02235174447,6721.303668177566,-187500.02235174447,-187500.02235174447,-187500.02235174447,-187500.02235174447,-187500.02235174447,1731451355.7378614,1731451353.6432064,3000
-8067.504533231799,-187500.02235174447,6767.571779200051,-187500.02235174447,-187500.02235174447,-187500.02235174447,-187500.02235174447,-187500.02235174447,1731451355.7418702,1731451353.6432064,3000
-8037.106160772581,-187500.02235174447,6720.633115843906,-187500.02235174447,-187500.02235174447,-187500.02235174447,-187500.02235174447,-187500.02235174447,1731451355.744876,1731451353.6432064,3000
-8072.131344334048,-187500.02235174447,6715.782787297105,-187500.02235174447,-187500.02235174447,-187500.02235174447,-187500.02235174447,-187500.02235174447,1731451355.7479086,1731451353.6432064,3000
-8053.69115515842,-187500.02235174447,6737.016944529646,-187500.02235174447,-187500.02235174447,-187500.02235174447,-187500.02235174447,-187500.02235174447,1731451355.751694,1731451353.6432064,3000
-8017.973067518839,-187500.02235174447,6714.3299239075095,-187500.02235174447,-187500.02235174447,-187500.02235174447,-187500.02235174447,-187500.02235174447,1731451355.7549496,1731451353.6432064,3000
-8016.542555873699,-187500.02235174447,6709.859575016449,-187500.02235174447,-187500.02235174447,-187500.02235174447,-187500.02235174447,-187500.02235174447,1731451355.757856,1731451353.6432064,3000
-8005.67960806842,-187500.02235174447,6723.315325178543,-187500.02235174447,-187500.02235174447,-187500.02235174447,-187500.02235174447,-187500.02235174447,1731451355.7618554,1731451353.6432064,3000
-8044.281070742735,-187500.02235174447,6703.176403424312,-187500.02235174447,-187500.02235174447,-187500.02235174447,-187500.02235174447,-187500.02235174447,1731451355.764808,1731451353.6432064,3000
-8143.120484724103,-187500.02235174447,6592.1776404592565,-187500.02235174447,-187500.02235174447,-187500.02235174447,-187500.02235174447,-187500.02235174447,1731451355.7687716,1731451353.6432064,3000
-8064.956434363894,-187500.02235174447,6590.724777069661,-187500.02235174447,-187500.02235174447,-187500.02235174447,-187500.02235174447,-187500.02235174447,1731451355.7719252,1731451353.6432064,3000
-7769.175799986816,-187500.02235174447,6830.111960186,-187500.02235174447,-187500.02235174447,-187500.02235174447,-187500.02235174447,-187500.02235174447,1731451355.774901,1731451353.6432064,3000
-7841.5507485331,-187500.02235174447,6793.522154512662,-187500.02235174447,-187500.02235174447,-187500.02235174447,-187500.02235174447,-187500.02235174447,1731451355.7788813,1731451353.6432064,3000
-7999.309360898657,-187500.02235174447,6784.894381152914,-187500.02235174447,-187500.02235174447,-187500.02235174447,-187500.02235174447,-187500.02235174447,1731451355.7828832,1731451353.6432064,3000
-8146.629708603587,-187500.02235174447,6750.852674347481,-187500.02235174447,-187500.02235174447,-187500.02235174447,-187500.02235174447,-187500.02235174447,1731451355.786896,1731451353.6432064,3000
-8237.735419003418,-187500.02235174447,6684.020958426114,-187500.02235174447,-187500.02235174447,-187500.02235174447,-187500.02235174447,-187500.02235174447,1731451355.7898076,1731451353.6432064,3000
-8126.580193827176,-187500.02235174447,6634.422437479787,-187500.02235174447,-187500.02235174447,-187500.02235174447,-187500.02235174447,-187500.02235174447,1731451355.7927475,1731451353.6432064,3000
-8036.055628783182,-187500.02235174447,6639.540986960053,-187500.02235174447,-187500.02235174447,-187500.02235174447,-187500.02235174447,-187500.02235174447,1731451355.8001907,1731451353.6432064,3000
-7981.696186267875,-187500.02235174447,6771.550389713096,-187500.02235174447,-187500.02235174447,-187500.02235174447,-187500.02235174447,-187500.02235174447,1731451355.8029444,1731451353.6432064,3000
-7961.110229624538,-187500.02235174447,6846.093457471545,-187500.02235174447,-187500.02235174447,-187500.02235174447,-187500.02235174447,-187500.02235174447,1731451355.8069985,1731451353.6432064,3000
-8076.668748458475,-187500.02235174447,6815.5833262900505,-187500.02235174447,-187500.02235174447,-187500.02235174447,-187500.02235174447,-187500.02235174447,1731451355.8099003,1731451353.6432064,3000
-8065.559931464188,-187500.02235174447,6762.028546575135,-187500.02235174447,-187500.02235174447,-187500.02235174447,-187500.02235174447,-187500.02235174447,1731451355.8128047,1731451353.6432064,3000
-8081.407318283001,-187500.02235174447,6720.454301888264,-187500.02235174447,-187500.02235174447,-187500.02235174447,-187500.02235174447,-187500.02235174447,1731451355.8169112,1731451353.6432064,3000
-8058.228559282847,-187500.02235174447,6688.536010806086,-187500.02235174447,-187500.02235174447,-187500.02235174447,-187500.02235174447,-187500.02235174447,1731451355.8209672,1731451353.6432064,3000
-7937.082104335082,-187500.02235174447,6725.818720557538,-187500.02235174447,-187500.02235174447,-187500.02235174447,-187500.02235174447,-187500.02235174447,1731451355.8249085,1731451353.6432064,3000
-7978.097555410571,-187500.02235174447,6722.622421100428,-187500.02235174447,-187500.02235174447,-187500.02235174447,-187500.02235174447,-187500.02235174447,1731451355.828822,1731451353.6432064,3000
-8091.689120732442,-187500.02235174447,6715.089883218991,-187500.02235174447,-187500.02235174447,-187500.02235174447,-187500.02235174447,-187500.02235174447,1731451355.832975,1731451353.6432064,3000
-8094.706606233908,-187500.02235174447,6684.758565993138,-187500.02235174447,-187500.02235174447,-187500.02235174447,-187500.02235174447,-187500.02235174447,1731451355.838032,1731451353.6432064,3000
-8075.484106002344,-187500.02235174447,6620.184376261756,-187500.02235174447,-187500.02235174447,-187500.02235174447,-187500.02235174447,-187500.02235174447,1731451355.8420818,1731451353.6432064,3000
-7918.977191326284,-187500.02235174447,6666.385432050876,-187500.02235174447,-187500.02235174447,-187500.02235174447,-187500.02235174447,-187500.02235174447,1731451355.8460286,1731451353.6432064,3000
-7903.42037718539,-187500.02235174447,6818.243183880232,-187500.02235174447,-187500.02235174447,-187500.02235174447,-187500.02235174447,-187500.02235174447,1731451355.8499527,1731451353.6432064,3000
-8220.971610661938,-187500.02235174447,6811.1576808879,-187500.02235174447,-187500.02235174447,-187500.02235174447,-187500.02235174447,-187500.02235174447,1731451355.8542025,1731451353.6432064,3000
-8110.933972708461,-187500.02235174447,6804.899192440414,-187500.02235174447,-187500.02235174447,-187500.02235174447,-187500.02235174447,-187500.02235174447,1731451355.8591285,1731451353.6432064,3000
-8027.986649034817,-187500.02235174447,6769.382270500931,-187500.02235174447,-187500.02235174447,-187500.02235174447,-187500.02235174447,-187500.02235174447,1731451355.8630483,1731451353.6432064,3000
-8026.377323434034,-187500.02235174447,6717.392112897887,-187500.02235174447,-187500.02235174447,-187500.02235174447,-187500.02235174447,-187500.02235174447,1731451355.866047,1731451353.6432064,3000
-8086.078832874159,-187500.02235174447,6718.777921054116,-187500.02235174447,-187500.02235174447,-187500.02235174447,-187500.02235174447,-187500.02235174447,1731451355.87013,1731451353.6432064,3000
-8024.924460044439,-187500.02235174447,6695.04036844258,-187500.02235174447,-187500.02235174447,-187500.02235174447,-187500.02235174447,-187500.02235174447,1731451355.8731518,1731451353.6432064,3000
-7981.807944990152,-187500.02235174447,6723.941174023292,-187500.02235174447,-187500.02235174447,-187500.02235174447,-187500.02235174447,-187500.02235174447,1731451355.8800523,1731451353.6432064,3000
-7915.535022680167,-187500.02235174447,6709.077263960513,-187500.02235174447,-187500.02235174447,-187500.02235174447,-187500.02235174447,-187500.02235174447,1731451355.8830793,1731451353.6432064,3000
-7923.894575106451,-187500.02235174447,6795.53381151364,-187500.02235174447,-187500.02235174447,-187500.02235174447,-187500.02235174447,-187500.02235174447,1731451355.8859873,1731451353.6432064,3000
-7940.390162514468,-187500.02235174447,6780.446384006308,-187500.02235174447,-187500.02235174447,-187500.02235174447,-187500.02235174447,-187500.02235174447,1731451355.8901472,1731451353.6432064,3000
-8097.724091735375,-187500.02235174447,6825.552204317118,-187500.02235174447,-187500.02235174447,-187500.02235174447,-187500.02235174447,-187500.02235174447,1731451355.892906,1731451353.6432064,3000
-8157.626766875597,-187500.02235174447,6780.736956684227,-187500.02235174447,-187500.02235174447,-187500.02235174447,-187500.02235174447,-187500.02235174447,1731451355.8961782,1731451353.6432064,3000
-8106.821251728685,-187500.02235174447,6725.483444390708,-187500.02235174447,-187500.02235174447,-187500.02235174447,-187500.02235174447,-187500.02235174447,1731451355.9011989,1731451353.6432064,3000
-8095.108937634103,-187500.02235174447,6720.968392010736,-187500.02235174447,-187500.02235174447,-187500.02235174447,-187500.02235174447,-187500.02235174447,1731451355.905246,1731451353.6432064,3000
-8026.600840878587,-187500.02235174447,6794.975017902258,-187500.02235174447,-187500.02235174447,-187500.02235174447,-187500.02235174447,-187500.02235174447,1731451355.9092944,1731451353.6432064,3000
-8020.63292510902,-187500.02235174447,6757.558197684074,-187500.02235174447,-187500.02235174447,-187500.02235174447,-187500.02235174447,-187500.02235174447,1731451355.9136145,1731451353.6432064,3000
-8104.541373794244,-187500.02235174447,6757.155866283878,-187500.02235174447,-187500.02235174447,-187500.02235174447,-187500.02235174447,-187500.02235174447,1731451355.917282,1731451353.6432064,3000
-7997.387110875501,-187500.02235174447,6764.822514632048,-187500.02235174447,-187500.02235174447,-187500.02235174447,-187500.02235174447,-187500.02235174447,1731451355.92239,1731451353.6432064,3000
-7948.436790518379,-187500.02235174447,6775.707814181783,-187500.02235174447,-187500.02235174447,-187500.02235174447,-187500.02235174447,-187500.02235174447,1731451355.9265294,1731451353.6432064,3000
-8129.351810139634,-187500.02235174447,6714.776958796616,-187500.02235174447,-187500.02235174447,-187500.02235174447,-187500.02235174447,-187500.02235174447,1731451355.9301393,1731451353.6432064,3000
-8027.204337978881,-187500.02235174447,6671.571036764507,-187500.02235174447,-187500.02235174447,-187500.02235174447,-187500.02235174447,-187500.02235174447,1731451355.9341023,1731451353.6432064,3000
-7918.686618648365,-187500.02235174447,6789.72235795526,-187500.02235174447,-187500.02235174447,-187500.02235174447,-187500.02235174447,-187500.02235174447,1731451355.9381647,1731451353.6432064,3000
-7988.759337515752,-187500.02235174447,6788.180087587844,-187500.02235174447,-187500.02235174447,-187500.02235174447,-187500.02235174447,-187500.02235174447,1731451355.9431112,1731451353.6432064,3000
-8146.406191159033,-187500.02235174447,6804.876840695959,-187500.02235174447,-187500.02235174447,-187500.02235174447,-187500.02235174447,-187500.02235174447,1731451355.946271,1731451353.6432064,3000
-8126.89311824955,-187500.02235174447,6768.0411658336125,-187500.02235174447,-187500.02235174447,-187500.02235174447,-187500.02235174447,-187500.02235174447,1731451355.9492574,1731451353.6432064,3000
-8091.040920143238,-187500.02235174447,6746.739953367705,-187500.02235174447,-187500.02235174447,-187500.02235174447,-187500.02235174447,-187500.02235174447,1731451355.9531565,1731451353.6432064,3000
-8041.531806174733,-187500.02235174447,6762.632043675429,-187500.02235174447,-187500.02235174447,-187500.02235174447,-187500.02235174447,-187500.02235174447,1731451355.957256,1731451353.6432064,3000
-7967.882808194496,-187500.02235174447,6731.920746793837,-187500.02235174447,-187500.02235174447,-187500.02235174447,-187500.02235174447,-187500.02235174447,1731451355.9612112,1731451353.6432064,3000
-8031.87585257004,-187500.02235174447,6710.016037227636,-187500.02235174447,-187500.02235174447,-187500.02235174447,-187500.02235174447,-187500.02235174447,1731451355.9680684,1731451353.6432064,3000
-8053.937024347428,-187500.02235174447,6794.282113824143,-187500.02235174447,-187500.02235174447,-187500.02235174447,-187500.02235174447,-187500.02235174447,1731451355.9710393,1731451353.6432064,3000
-7958.360965056535,-187500.02235174447,6756.798238372593,-187500.02235174447,-187500.02235174447,-187500.02235174447,-187500.02235174447,-187500.02235174447,1731451355.974249,1731451353.6432064,3000
-7867.389365123435,-187500.02235174447,6813.549317544618,-187500.02235174447,-187500.02235174447,-187500.02235174447,-187500.02235174447,-187500.02235174447,1731451355.9782655,1731451353.6432064,3000
-8132.212833429913,-187500.02235174447,6789.252971321699,-187500.02235174447,-187500.02235174447,-187500.02235174447,-187500.02235174447,-187500.02235174447,1731451355.981244,1731451353.6432064,3000
-8155.056316263237,-187500.02235174447,6779.999349117202,-187500.02235174447,-187500.02235174447,-187500.02235174447,-187500.02235174447,-187500.02235174447,1731451355.985078,1731451353.6432064,3000
-8022.4434164099,-187500.02235174447,6790.839945178026,-187500.02235174447,-187500.02235174447,-187500.02235174447,-187500.02235174447,-187500.02235174447,1731451355.9892347,1731451353.6432064,3000
-7999.10819519856,-187500.02235174447,6802.641666250428,-187500.02235174447,-187500.02235174447,-187500.02235174447,-187500.02235174447,-187500.02235174447,1731451355.9930947,1731451353.6432064,3000
-8109.637571530053,-187500.02235174447,6831.6095270645055,-187500.02235174447,-187500.02235174447,-187500.02235174447,-187500.02235174447,-187500.02235174447,1731451355.997218,1731451353.6432064,3000
-8119.427635601478,-187500.02235174447,6762.185008786322,-187500.02235174447,-187500.02235174447,-187500.02235174447,-187500.02235174447,-187500.02235174447,1731451356.0010808,1731451353.6432064,3000
-8033.35106770409,-187500.02235174447,6770.835133890526,-187500.02235174447,-187500.02235174447,-187500.02235174447,-187500.02235174447,-187500.02235174447,1731451356.0052156,1731451353.6432064,3000
-7986.099479925571,-187500.02235174447,6815.695085012328,-187500.02235174447,-187500.02235174447,-187500.02235174447,-187500.02235174447,-187500.02235174447,1731451356.010115,1731451353.6432064,3000
-7967.703994238854,-187500.02235174447,6786.593113731517,-187500.02235174447,-187500.02235174447,-187500.02235174447,-187500.02235174447,-187500.02235174447,1731451356.013276,1731451353.6432064,3000
-8004.182041189914,-187500.02235174447,6735.09469450649,-187500.02235174447,-187500.02235174447,-187500.02235174447,-187500.02235174447,-187500.02235174447,1731451356.0181289,1731451353.6432064,3000
-7981.852648479063,-187500.02235174447,6625.638201908851,-187500.02235174447,-187500.02235174447,-187500.02235174447,-187500.02235174447,-187500.02235174447,1731451356.0222678,1731451353.6432064,3000
-8009.568811603644,-187500.02235174447,6839.946727746336,-187500.02235174447,-187500.02235174447,-187500.02235174447,-187500.02235174447,-187500.02235174447,1731451356.0262773,1731451353.6432064,3000
-8158.677298864997,-187500.02235174447,6857.939882032858,-187500.02235174447,-187500.02235174447,-187500.02235174447,-187500.02235174447,-187500.02235174447,1731451356.030337,1731451353.6432064,3000
-8069.650300699509,-187500.02235174447,6806.173241874367,-187500.02235174447,-187500.02235174447,-187500.02235174447,-187500.02235174447,-187500.02235174447,1731451356.033337,1731451353.6432064,3000
-8112.297429120234,-187500.02235174447,6785.63198871994,-187500.02235174447,-187500.02235174447,-187500.02235174447,-187500.02235174447,-187500.02235174447,1731451356.0372603,1731451353.6432064,3000
-8065.716393675375,-187500.02235174447,6796.24906733621,-187500.02235174447,-187500.02235174447,-187500.02235174447,-187500.02235174447,-187500.02235174447,1731451356.0402367,1731451353.6432064,3000
