Fp1,Fp2,C3,C4,P7,P8,O1,O2,time_board,time_marker,marker
-2597.049188262128,-187500.02235174447,4418.001105547083,-187500.02235174447,-187500.02235174447,-187500.02235174447,-187500.02235174447,-187500.02235174447,1730329894.6590145,1730329894.6570528,3000
-2526.2835653166253,-187500.02235174447,4424.170187016748,-187500.02235174447,-187500.02235174447,-187500.02235174447,-187500.02235174447,-187500.02235174447,1730329894.6641395,1730329894.6570528,3000
-2570.003577471206,-187500.02235174447,4451.998108863605,-187500.02235174447,-187500.02235174447,-187500.02235174447,-187500.02235174447,-187500.02235174447,1730329894.6680238,1730329894.6570528,3000
-2656.3036628131467,-187500.02235174447,4456.446106010211,-187500.02235174447,-187500.02235174447,-187500.02235174447,-187500.02235174447,-187500.02235174447,1730329894.6719732,1730329894.6570528,3000
-2615.6905431378536,-187500.02235174447,4424.281945739025,-187500.02235174447,-187500.02235174447,-187500.02235174447,-187500.02235174447,-187500.02235174447,1730329894.6749835,1730329894.6570528,3000
-2527.8034839395864,-187500.02235174447,4425.131312028327,-187500.02235174447,-187500.02235174447,-187500.02235174447,-187500.02235174447,-187500.02235174447,1730329894.678938,1730329894.6570528,3000
-2552.9268447073514,-187500.02235174447,4461.229379323648,-187500.02235174447,-187500.02235174447,-187500.02235174447,-187500.02235174447,-187500.02235174447,1730329894.6831183,1730329894.6570528,3000
-2642.803209162141,-187500.02235174447,4467.823143937962,-187500.02235174447,-187500.02235174447,-187500.02235174447,-187500.02235174447,-187500.02235174447,1730329894.6869547,1730329894.6570528,3000
-2634.1754358023927,-187500.02235174447,4428.148797529793,-187500.02235174447,-187500.02235174447,-187500.02235174447,-187500.02235174447,-187500.02235174447,1730329894.6920292,1730329894.6570528,3000
-2543.4273533138457,-187500.02235174447,4416.905870068774,-187500.02235174447,-187500.02235174447,-187500.02235174447,-187500.02235174447,-187500.02235174447,1730329894.696021,1730329894.6570528,3000
-2541.996841668706,-187500.02235174447,4455.574387976455,-187500.02235174447,-187500.02235174447,-187500.02235174447,-187500.02235174447,-187500.02235174447,1730329894.7001133,1730329894.6570528,3000
-2638.936357371373,-187500.02235174447,4469.276007327558,-187500.02235174447,-187500.02235174447,-187500.02235174447,-187500.02235174447,-187500.02235174447,1730329894.7030413,1730329894.6570528,3000
-2645.373659774501,-187500.02235174447,4434.384934232823,-187500.02235174447,-187500.02235174447,-187500.02235174447,-187500.02235174447,-187500.02235174447,1730329894.7072012,1730329894.6570528,3000
-2552.8374377295304,-187500.02235174447,4414.044846778494,-187500.02235174447,-187500.02235174447,-187500.02235174447,-187500.02235174447,-187500.02235174447,1730329894.7110765,1730329894.6570528,3000
-2534.9560421652845,-187500.02235174447,4440.68812616922,-187500.02235174447,-187500.02235174447,-187500.02235174447,-187500.02235174447,-187500.02235174447,1730329894.7152069,1730329894.6570528,3000
-2622.8878048524625,-187500.02235174447,4469.432469538745,-187500.02235174447,-187500.02235174447,-187500.02235174447,-187500.02235174447,-187500.02235174447,1730329894.7190735,1730329894.6570528,3000
-2656.19190409087,-187500.02235174447,4447.125428572349,-187500.02235174447,-187500.02235174447,-187500.02235174447,-187500.02235174447,-187500.02235174447,1730329894.7242384,1730329894.6570528,3000
-2577.6925775638315,-187500.02235174447,4422.136178271315,-187500.02235174447,-187500.02235174447,-187500.02235174447,-187500.02235174447,-187500.02235174447,1730329894.7281165,1730329894.6570528,3000
-2530.530396763134,-187500.02235174447,4448.064201839471,-187500.02235174447,-187500.02235174447,-187500.02235174447,-187500.02235174447,-187500.02235174447,1730329894.7312586,1730329894.6570528,3000
-2602.815938331597,-187500.02235174447,4470.617111994876,-187500.02235174447,-187500.02235174447,-187500.02235174447,-187500.02235174447,-187500.02235174447,1730329894.7352493,1730329894.6570528,3000
-2659.2093895923367,-187500.02235174447,4449.271196040058,-187500.02235174447,-187500.02235174447,-187500.02235174447,-187500.02235174447,-187500.02235174447,1730329894.7392876,1730329894.6570528,3000
-2594.3446271830358,-187500.02235174447,4423.186710260715,-187500.02235174447,-187500.02235174447,-187500.02235174447,-187500.02235174447,-187500.02235174447,1730329894.7432747,1730329894.6570528,3000
-2524.1825013378266,-187500.02235174447,4447.706573928186,-187500.02235174447,-187500.02235174447,-187500.02235174447,-187500.02235174447,-187500.02235174447,1730329894.747344,1730329894.6570528,3000
-2583.8616590334964,-187500.02235174447,4479.244885354625,-187500.02235174447,-187500.02235174447,-187500.02235174447,-187500.02235174447,-187500.02235174447,1730329894.7520769,1730329894.6570528,3000
-2663.679738483398,-187500.02235174447,4458.435411266734,-187500.02235174447,-187500.02235174447,-187500.02235174447,-187500.02235174447,-187500.02235174447,1730329894.7562976,1730329894.6570528,3000
-2609.61086864601,-187500.02235174447,4429.3110882414685,-187500.02235174447,-187500.02235174447,-187500.02235174447,-187500.02235174447,-187500.02235174447,1730329894.759294,1730329894.6570528,3000
-2529.1892920958157,-187500.02235174447,4443.280928526036,-187500.02235174447,-187500.02235174447,-187500.02235174447,-187500.02235174447,-187500.02235174447,1730329894.7631955,1730329894.6570528,3000
-2565.0861936910387,-187500.02235174447,4502.378940865868,-187500.02235174447,-187500.02235174447,-187500.02235174447,-187500.02235174447,-187500.02235174447,1730329894.7672997,1730329894.6570528,3000
-2664.685566983887,-187500.02235174447,4546.411877442823,-187500.02235174447,-187500.02235174447,-187500.02235174447,-187500.02235174447,-187500.02235174447,1730329894.7712028,1730329894.6570528,3000
-2640.657441694432,-187500.02235174447,4545.808380342529,-187500.02235174447,-187500.02235174447,-187500.02235174447,-187500.02235174447,-187500.02235174447,1730329894.7752187,1730329894.6570528,3000
-2519.622745468944,-187500.02235174447,4523.590746353954,-187500.02235174447,-187500.02235174447,-187500.02235174447,-187500.02235174447,-187500.02235174447,1730329894.7803688,1730329894.6570528,3000
-2530.753914207686,-187500.02235174447,4536.130074993382,-187500.02235174447,-187500.02235174447,-187500.02235174447,-187500.02235174447,-187500.02235174447,1730329894.7833655,1730329894.6570528,3000
-2633.549586957644,-187500.02235174447,4518.56160385151,-187500.02235174447,-187500.02235174447,-187500.02235174447,-187500.02235174447,-187500.02235174447,1730329894.7871468,1730329894.6570528,3000
-2633.840159635563,-187500.02235174447,4524.171891709792,-187500.02235174447,-187500.02235174447,-187500.02235174447,-187500.02235174447,-187500.02235174447,1730329894.7912652,1730329894.6570528,3000
-2548.45649581629,-187500.02235174447,4447.863036139373,-187500.02235174447,-187500.02235174447,-187500.02235174447,-187500.02235174447,-187500.02235174447,1730329894.795356,1730329894.6570528,3000
-2545.5060655481893,-187500.02235174447,4429.758123130575,-187500.02235174447,-187500.02235174447,-187500.02235174447,-187500.02235174447,-187500.02235174447,1730329894.7991705,1730329894.6570528,3000
-2628.207520032826,-187500.02235174447,4523.523691120588,-187500.02235174447,-187500.02235174447,-187500.02235174447,-187500.02235174447,-187500.02235174447,1730329894.8033504,1730329894.6570528,3000
-2626.777008387686,-187500.02235174447,4558.258302004136,-187500.02235174447,-187500.02235174447,-187500.02235174447,-187500.02235174447,-187500.02235174447,1730329894.808172,1730329894.6570528,3000
-2534.97839390974,-187500.02235174447,4498.668551286287,-187500.02235174447,-187500.02235174447,-187500.02235174447,-187500.02235174447,-187500.02235174447,1730329894.8111582,1730329894.6570528,3000
-2521.3214780475478,-187500.02235174447,4503.228307155169,-187500.02235174447,-187500.02235174447,-187500.02235174447,-187500.02235174447,-187500.02235174447,1730329894.8153405,1730329894.6570528,3000
-2590.6565893479096,-187500.02235174447,4505.351722878423,-187500.02235174447,-187500.02235174447,-187500.02235174447,-187500.02235174447,-187500.02235174447,1730329894.819197,1730329894.6570528,3000
-2626.777008387686,-187500.02235174447,4453.562730975477,-187500.02235174447,-187500.02235174447,-187500.02235174447,-187500.02235174447,-187500.02235174447,1730329894.8233917,1730329894.6570528,3000
-2570.8305920160524,-187500.02235174447,4441.604547691888,-187500.02235174447,-187500.02235174447,-187500.02235174447,-187500.02235174447,-187500.02235174447,1730329894.8272414,1730329894.6570528,3000
-2551.3175191065693,-187500.02235174447,4548.311775721523,-187500.02235174447,-187500.02235174447,-187500.02235174447,-187500.02235174447,-187500.02235174447,1730329894.8314142,1730329894.6570528,3000
-2611.3096012246137,-187500.02235174447,4581.392357515378,-187500.02235174447,-187500.02235174447,-187500.02235174447,-187500.02235174447,-187500.02235174447,1730329894.8362837,1730329894.6570528,3000
-2645.753639430241,-187500.02235174447,4475.713309730686,-187500.02235174447,-187500.02235174447,-187500.02235174447,-187500.02235174447,-187500.02235174447,1730329894.839471,1730329894.6570528,3000
-2578.6313508309545,-187500.02235174447,4401.930201283718,-187500.02235174447,-187500.02235174447,-187500.02235174447,-187500.02235174447,-187500.02235174447,1730329894.842476,1730329894.6570528,3000
-2506.234050540215,-187500.02235174447,4437.000088334095,-187500.02235174447,-187500.02235174447,-187500.02235174447,-187500.02235174447,-187500.02235174447,1730329894.847489,1730329894.6570528,3000
-2567.36607162548,-187500.02235174447,4492.812394238996,-187500.02235174447,-187500.02235174447,-187500.02235174447,-187500.02235174447,-187500.02235174447,1730329894.8515189,1730329894.6570528,3000
-2651.118058099516,-187500.02235174447,4503.250658899625,-187500.02235174447,-187500.02235174447,-187500.02235174447,-187500.02235174447,-187500.02235174447,1730329894.8555152,1730329894.6570528,3000
-2612.315429725102,-187500.02235174447,4465.006824136594,-187500.02235174447,-187500.02235174447,-187500.02235174447,-187500.02235174447,-187500.02235174447,1730329894.8594697,1730329894.6570528,3000
-2528.116408361961,-187500.02235174447,4448.622995450854,-187500.02235174447,-187500.02235174447,-187500.02235174447,-187500.02235174447,-187500.02235174447,1730329894.8644888,1730329894.6570528,3000
-2563.722737279265,-187500.02235174447,4506.983400223661,-187500.02235174447,-187500.02235174447,-187500.02235174447,-187500.02235174447,-187500.02235174447,1730329894.8674908,1730329894.6570528,3000
-2665.4008228064567,-187500.02235174447,4568.76362189813,-187500.02235174447,-187500.02235174447,-187500.02235174447,-187500.02235174447,-187500.02235174447,1730329894.8715253,1730329894.6570528,3000
-2630.3979909894456,-187500.02235174447,4572.585770199987,-187500.02235174447,-187500.02235174447,-187500.02235174447,-187500.02235174447,-187500.02235174447,1730329894.875508,1730329894.6570528,3000
-2510.458530242268,-187500.02235174447,4518.382789895867,-187500.02235174447,-187500.02235174447,-187500.02235174447,-187500.02235174447,-187500.02235174447,1730329894.8795395,1730329894.6570528,3000
-2541.818027713064,-187500.02235174447,4578.508982480644,-187500.02235174447,-187500.02235174447,-187500.02235174447,-187500.02235174447,-187500.02235174447,1730329894.8834949,1730329894.6570528,3000
-2654.7613924457305,-187500.02235174447,4673.995634793715,-187500.02235174447,-187500.02235174447,-187500.02235174447,-187500.02235174447,-187500.02235174447,1730329894.8873816,1730329894.6570528,3000
-2631.739095656764,-187500.02235174447,4582.040558104582,-187500.02235174447,-187500.02235174447,-187500.02235174447,-187500.02235174447,-187500.02235174447,1730329894.890313,1730329894.6570528,3000
-2534.9560421652845,-187500.02235174447,4432.909719098773,-187500.02235174447,-187500.02235174447,-187500.02235174447,-187500.02235174447,-187500.02235174447,1730329894.8943408,1730329894.6570528,3000
-2501.6072394379667,-187500.02235174447,4411.764968844052,-187500.02235174447,-187500.02235174447,-187500.02235174447,-187500.02235174447,-187500.02235174447,1730329894.8984706,1730329894.6570528,3000
-2601.877165064474,-187500.02235174447,4465.230341581148,-187500.02235174447,-187500.02235174447,-187500.02235174447,-187500.02235174447,-187500.02235174447,1730329894.9035263,1730329894.6570528,3000
-2633.415476490912,-187500.02235174447,4471.488830028633,-187500.02235174447,-187500.02235174447,-187500.02235174447,-187500.02235174447,-187500.02235174447,1730329894.9073627,1730329894.6570528,3000
-2551.518684806667,-187500.02235174447,4453.272158297558,-187500.02235174447,-187500.02235174447,-187500.02235174447,-187500.02235174447,-187500.02235174447,1730329894.911471,1730329894.6570528,3000
-2505.6976086732875,-187500.02235174447,4482.575295278465,-187500.02235174447,-187500.02235174447,-187500.02235174447,-187500.02235174447,-187500.02235174447,1730329894.915545,1730329894.6570528,3000
-2587.549696868622,-187500.02235174447,4506.312847890002,-187500.02235174447,-187500.02235174447,-187500.02235174447,-187500.02235174447,-187500.02235174447,1730329894.9185855,1730329894.6570528,3000
-2647.765296431219,-187500.02235174447,4465.140934603326,-187500.02235174447,-187500.02235174447,-187500.02235174447,-187500.02235174447,-187500.02235174447,1730329894.9225056,1730329894.6570528,3000
-2565.9579117247954,-187500.02235174447,4447.684222183731,-187500.02235174447,-187500.02235174447,-187500.02235174447,-187500.02235174447,-187500.02235174447,1730329894.9265952,1730329894.6570528,3000
-2494.9017161013744,-187500.02235174447,4461.117620601371,-187500.02235174447,-187500.02235174447,-187500.02235174447,-187500.02235174447,-187500.02235174447,1730329894.9318402,1730329894.6570528,3000
-2571.545847838622,-187500.02235174447,4493.0582634280045,-187500.02235174447,-187500.02235174447,-187500.02235174447,-187500.02235174447,-187500.02235174447,1730329894.9354231,1730329894.6570528,3000
-2658.248264580758,-187500.02235174447,4491.113661660393,-187500.02235174447,-187500.02235174447,-187500.02235174447,-187500.02235174447,-187500.02235174447,1730329894.939638,1730329894.6570528,3000
-2609.2755924791804,-187500.02235174447,4462.145800846315,-187500.02235174447,-187500.02235174447,-187500.02235174447,-187500.02235174447,-187500.02235174447,1730329894.9435327,1730329894.6570528,3000
-2531.200949096793,-187500.02235174447,4434.988431333117,-187500.02235174447,-187500.02235174447,-187500.02235174447,-187500.02235174447,-187500.02235174447,1730329894.94666,1730329894.6570528,3000
-2600.111377252505,-187500.02235174447,4494.868754728885,-187500.02235174447,-187500.02235174447,-187500.02235174447,-187500.02235174447,-187500.02235174447,1730329894.950669,1730329894.6570528,3000
-2680.8458782250736,-187500.02235174447,4521.221461441692,-187500.02235174447,-187500.02235174447,-187500.02235174447,-187500.02235174447,-187500.02235174447,1730329894.9545312,1730329894.6570528,3000
-2616.428150704879,-187500.02235174447,4507.095158945937,-187500.02235174447,-187500.02235174447,-187500.02235174447,-187500.02235174447,-187500.02235174447,1730329894.958652,1730329894.6570528,3000
-2519.555690235578,-187500.02235174447,4471.488830028633,-187500.02235174447,-187500.02235174447,-187500.02235174447,-187500.02235174447,-187500.02235174447,1730329894.9636998,1730329894.6570528,3000
-2557.576007554055,-187500.02235174447,4492.991208194639,-187500.02235174447,-187500.02235174447,-187500.02235174447,-187500.02235174447,-187500.02235174447,1730329894.967823,1730329894.6570528,3000
-2655.029613379194,-187500.02235174447,4499.65202804232,-187500.02235174447,-187500.02235174447,-187500.02235174447,-187500.02235174447,-187500.02235174447,1730329894.9715793,1730329894.6570528,3000
-2629.034534577672,-187500.02235174447,4488.811431981496,-187500.02235174447,-187500.02235174447,-187500.02235174447,-187500.02235174447,-187500.02235174447,1730329894.9745634,1730329894.6570528,3000
-2537.9511759222955,-187500.02235174447,4516.996981739639,-187500.02235174447,-187500.02235174447,-187500.02235174447,-187500.02235174447,-187500.02235174447,1730329894.9785223,1730329894.6570528,3000
-2553.507990063189,-187500.02235174447,4587.3826250294005,-187500.02235174447,-187500.02235174447,-187500.02235174447,-187500.02235174447,-187500.02235174447,1730329894.982726,1730329894.6570528,3000
-2628.6322031774766,-187500.02235174447,4614.696456753785,-187500.02235174447,-187500.02235174447,-187500.02235174447,-187500.02235174447,-187500.02235174447,1730329894.986494,1730329894.6570528,3000
-2643.227892306792,-187500.02235174447,4562.415726472822,-187500.02235174447,-187500.02235174447,-187500.02235174447,-187500.02235174447,-187500.02235174447,1730329894.991687,1730329894.6570528,3000
-2564.3485861240133,-187500.02235174447,4431.59096617591,-187500.02235174447,-187500.02235174447,-187500.02235174447,-187500.02235174447,-187500.02235174447,1730329894.9956477,1730329894.6570528,3000
-2540.298109090103,-187500.02235174447,4374.43755560369,-187500.02235174447,-187500.02235174447,-187500.02235174447,-187500.02235174447,-187500.02235174447,1730329894.9997027,1730329894.6570528,3000
-2607.0180662891944,-187500.02235174447,4403.316009439946,-187500.02235174447,-187500.02235174447,-187500.02235174447,-187500.02235174447,-187500.02235174447,1730329895.0025327,1730329894.6570528,3000
-2634.197787546848,-187500.02235174447,4452.825123408452,-187500.02235174447,-187500.02235174447,-187500.02235174447,-187500.02235174447,-187500.02235174447,1730329895.0066535,1730329894.6570528,3000
-2534.844283443008,-187500.02235174447,4514.627696827376,-187500.02235174447,-187500.02235174447,-187500.02235174447,-187500.02235174447,-187500.02235174447,1730329895.0105348,1730329894.6570528,3000
-2515.085341344517,-187500.02235174447,4543.215577985714,-187500.02235174447,-187500.02235174447,-187500.02235174447,-187500.02235174447,-187500.02235174447,1730329895.014725,1730329894.6570528,3000
-2606.8839558224627,-187500.02235174447,4545.1825314977805,-187500.02235174447,-187500.02235174447,-187500.02235174447,-187500.02235174447,-187500.02235174447,1730329895.018525,1730329894.6570528,3000
-2679.5047735577555,-187500.02235174447,4601.95596241426,-187500.02235174447,-187500.02235174447,-187500.02235174447,-187500.02235174447,-187500.02235174447,1730329895.02378,1730329894.6570528,3000
-2629.5039212112333,-187500.02235174447,4584.298084294568,-187500.02235174447,-187500.02235174447,-187500.02235174447,-187500.02235174447,-187500.02235174447,1730329895.0267591,1730329894.6570528,3000
-2503.104806316472,-187500.02235174447,4438.810579634975,-187500.02235174447,-187500.02235174447,-187500.02235174447,-187500.02235174447,-187500.02235174447,1730329895.0306733,1730329894.6570528,3000
-2549.819952228064,-187500.02235174447,4389.05559647746,-187500.02235174447,-187500.02235174447,-187500.02235174447,-187500.02235174447,-187500.02235174447,1730329895.034638,1730329894.6570528,3000
-2683.349273604068,-187500.02235174447,4539.125208750393,-187500.02235174447,-187500.02235174447,-187500.02235174447,-187500.02235174447,-187500.02235174447,1730329895.0387793,1730329894.6570528,3000
-2612.4495401918343,-187500.02235174447,4520.506205619122,-187500.02235174447,-187500.02235174447,-187500.02235174447,-187500.02235174447,-187500.02235174447,1730329895.0427735,1730329894.6570528,3000
-2511.1514343203826,-187500.02235174447,4442.945652359206,-187500.02235174447,-187500.02235174447,-187500.02235174447,-187500.02235174447,-187500.02235174447,1730329895.0477831,1730329894.6570528,3000
-2552.703327262798,-187500.02235174447,4403.20425071767,-187500.02235174447,-187500.02235174447,-187500.02235174447,-187500.02235174447,-187500.02235174447,1730329895.051851,1730329894.6570528,3000
-2588.779042813664,-187500.02235174447,4359.171314140715,-187500.02235174447,-187500.02235174447,-187500.02235174447,-187500.02235174447,-187500.02235174447,1730329895.0546868,1730329894.6570528,3000
-2565.9355599803403,-187500.02235174447,4332.349220794346,-187500.02235174447,-187500.02235174447,-187500.02235174447,-187500.02235174447,-187500.02235174447,1730329895.058777,1730329894.6570528,3000
-2499.7967481370865,-187500.02235174447,4304.409540225213,-187500.02235174447,-187500.02235174447,-187500.02235174447,-187500.02235174447,-187500.02235174447,1730329895.0626793,1730329894.6570528,3000
-2556.234902886737,-187500.02235174447,4422.0914747824045,-187500.02235174447,-187500.02235174447,-187500.02235174447,-187500.02235174447,-187500.02235174447,1730329895.06682,1730329894.6570528,3000
-2701.253020912769,-187500.02235174447,4591.025959375616,-187500.02235174447,-187500.02235174447,-187500.02235174447,-187500.02235174447,-187500.02235174447,1730329895.0706687,1730329894.6570528,3000
-2682.1199276590264,-187500.02235174447,4545.249586731146,-187500.02235174447,-187500.02235174447,-187500.02235174447,-187500.02235174447,-187500.02235174447,1730329895.074958,1730329894.6570528,3000
-2502.009570838162,-187500.02235174447,4576.206752801747,-187500.02235174447,-187500.02235174447,-187500.02235174447,-187500.02235174447,-187500.02235174447,1730329895.0798218,1730329894.6570528,3000
-2431.914500226319,-187500.02235174447,4607.678008994819,-187500.02235174447,-187500.02235174447,-187500.02235174447,-187500.02235174447,-187500.02235174447,1730329895.0828304,1730329894.6570528,3000
-2528.9881263957177,-187500.02235174447,4370.503648579556,-187500.02235174447,-187500.02235174447,-187500.02235174447,-187500.02235174447,-187500.02235174447,1730329895.086674,1730329894.6570528,3000
-2664.059718139138,-187500.02235174447,4177.585742185801,-187500.02235174447,-187500.02235174447,-187500.02235174447,-187500.02235174447,-187500.02235174447,1730329895.0908525,1730329894.6570528,3000
-2597.317409195591,-187500.02235174447,4338.786523197475,-187500.02235174447,-187500.02235174447,-187500.02235174447,-187500.02235174447,-187500.02235174447,1730329895.0946827,1730329894.6570528,3000
-2577.357301397002,-187500.02235174447,4606.918049683339,-187500.02235174447,-187500.02235174447,-187500.02235174447,-187500.02235174447,-187500.02235174447,1730329895.0989091,1730329894.6570528,3000
-2663.612683250032,-187500.02235174447,4630.722657528241,-187500.02235174447,-187500.02235174447,-187500.02235174447,-187500.02235174447,-187500.02235174447,1730329895.102695,1730329894.6570528,3000
-2651.2521685662477,-187500.02235174447,4399.717378582643,-187500.02235174447,-187500.02235174447,-187500.02235174447,-187500.02235174447,-187500.02235174447,1730329895.1078043,1730329894.6570528,3000
-2475.880381569908,-187500.02235174447,4166.342814724781,-187500.02235174447,-187500.02235174447,-187500.02235174447,-187500.02235174447,-187500.02235174447,1730329895.1106944,1730329894.6570528,3000
-2445.593767832967,-187500.02235174447,4424.550166672489,-187500.02235174447,-187500.02235174447,-187500.02235174447,-187500.02235174447,-187500.02235174447,1730329895.1149645,1730329894.6570528,3000
-2576.262065918692,-187500.02235174447,4636.310593642067,-187500.02235174447,-187500.02235174447,-187500.02235174447,-187500.02235174447,-187500.02235174447,1730329895.1186829,1730329894.6570528,3000
-2669.021805408217,-187500.02235174447,4363.105221164849,-187500.02235174447,-187500.02235174447,-187500.02235174447,-187500.02235174447,-187500.02235174447,1730329895.1228902,1730329894.6570528,3000
-2574.071594962072,-187500.02235174447,4167.01336705844,-187500.02235174447,-187500.02235174447,-187500.02235174447,-187500.02235174447,-187500.02235174447,1730329895.1267536,1730329894.6570528,3000
-2498.1650707918493,-187500.02235174447,4336.104313862838,-187500.02235174447,-187500.02235174447,-187500.02235174447,-187500.02235174447,-187500.02235174447,1730329895.130788,1730329894.6570528,3000
-2552.1221819069606,-187500.02235174447,4397.39279715929,-187500.02235174447,-187500.02235174447,-187500.02235174447,-187500.02235174447,-187500.02235174447,1730329895.135756,1730329894.6570528,3000
-2642.914967884418,-187500.02235174447,4342.161636610226,-187500.02235174447,-187500.02235174447,-187500.02235174447,-187500.02235174447,-187500.02235174447,1730329895.1389632,1730329894.6570528,3000
-2619.110360039516,-187500.02235174447,4258.767278047476,-187500.02235174447,-187500.02235174447,-187500.02235174447,-187500.02235174447,-187500.02235174447,1730329895.141874,1730329894.6570528,3000
-2545.17078938136,-187500.02235174447,4244.3504028738025,-187500.02235174447,-187500.02235174447,-187500.02235174447,-187500.02235174447,-187500.02235174447,1730329895.1469588,1730329894.6570528,3000
-2544.0979056475053,-187500.02235174447,4304.096615802839,-187500.02235174447,-187500.02235174447,-187500.02235174447,-187500.02235174447,-187500.02235174447,1730329895.1509385,1730329894.6570528,3000
-2573.17752518386,-187500.02235174447,4285.008226038007,-187500.02235174447,-187500.02235174447,-187500.02235174447,-187500.02235174447,-187500.02235174447,1730329895.1568856,1730329894.6570528,3000
-2586.968551512784,-187500.02235174447,4265.718670573076,-187500.02235174447,-187500.02235174447,-187500.02235174447,-187500.02235174447,-187500.02235174447,1730329895.16018,1730329894.6570528,3000
-2510.0561988420727,-187500.02235174447,4405.707646096665,-187500.02235174447,-187500.02235174447,-187500.02235174447,-187500.02235174447,-187500.02235174447,1730329895.1630044,1730329894.6570528,3000
-2578.094908964027,-187500.02235174447,4607.275677594624,-187500.02235174447,-187500.02235174447,-187500.02235174447,-187500.02235174447,-187500.02235174447,1730329895.1670244,1730329894.6570528,3000
-2695.553326076666,-187500.02235174447,4673.123916759958,-187500.02235174447,-187500.02235174447,-187500.02235174447,-187500.02235174447,-187500.02235174447,1730329895.1699088,1730329894.6570528,3000
-2672.8216019656184,-187500.02235174447,4689.910076845894,-187500.02235174447,-187500.02235174447,-187500.02235174447,-187500.02235174447,-187500.02235174447,1730329895.174843,1730329894.6570528,3000
-2537.9511759222955,-187500.02235174447,4474.372205063368,-187500.02235174447,-187500.02235174447,-187500.02235174447,-187500.02235174447,-187500.02235174447,1730329895.1789508,1730329894.6570528,3000
-2542.8238562135525,-187500.02235174447,4150.070744761318,-187500.02235174447,-187500.02235174447,-187500.02235174447,-187500.02235174447,-187500.02235174447,1730329895.1829908,1730329894.6570528,3000
-2607.778025600675,-187500.02235174447,4257.448525124612,-187500.02235174447,-187500.02235174447,-187500.02235174447,-187500.02235174447,-187500.02235174447,1730329895.187038,1730329894.6570528,3000
-2603.106511009516,-187500.02235174447,4240.818827249865,-187500.02235174447,-187500.02235174447,-187500.02235174447,-187500.02235174447,-187500.02235174447,1730329895.1909544,1730329894.6570528,3000
-2492.532431189112,-187500.02235174447,4053.9805953479527,-187500.02235174447,-187500.02235174447,-187500.02235174447,-187500.02235174447,-187500.02235174447,1730329895.1938732,1730329894.6570528,3000
-2508.0892453300057,-187500.02235174447,4122.756913036932,-187500.02235174447,-187500.02235174447,-187500.02235174447,-187500.02235174447,-187500.02235174447,1730329895.1979988,1730329894.6570528,3000
-2606.191051744348,-187500.02235174447,4263.103516471805,-187500.02235174447,-187500.02235174447,-187500.02235174447,-187500.02235174447,-187500.02235174447,1730329895.2028725,1730329894.6570528,3000
-2655.4095930349345,-187500.02235174447,4264.690490328132,-187500.02235174447,-187500.02235174447,-187500.02235174447,-187500.02235174447,-187500.02235174447,1730329895.2071457,1730329894.6570528,3000
-2568.1260309369604,-187500.02235174447,4238.717763271065,-187500.02235174447,-187500.02235174447,-187500.02235174447,-187500.02235174447,-187500.02235174447,1730329895.210873,1730329894.6570528,3000
-2498.321533003036,-187500.02235174447,4329.443494015157,-187500.02235174447,-187500.02235174447,-187500.02235174447,-187500.02235174447,-187500.02235174447,1730329895.21505,1730329894.6570528,3000
-2583.325217166569,-187500.02235174447,4420.705666626175,-187500.02235174447,-187500.02235174447,-187500.02235174447,-187500.02235174447,-187500.02235174447,1730329895.2188845,1730329894.6570528,3000
-2673.6262647660096,-187500.02235174447,4372.850581747363,-187500.02235174447,-187500.02235174447,-187500.02235174447,-187500.02235174447,-187500.02235174447,1730329895.2218816,1730329894.6570528,3000
-2564.46034484629,-187500.02235174447,4273.385318921247,-187500.02235174447,-187500.02235174447,-187500.02235174447,-187500.02235174447,-187500.02235174447,1730329895.22599,1730329894.6570528,3000
-2441.9951369756627,-187500.02235174447,4253.313452400381,-187500.02235174447,-187500.02235174447,-187500.02235174447,-187500.02235174447,-187500.02235174447,1730329895.2312183,1730329894.6570528,3000
-2542.555635280089,-187500.02235174447,4300.497984945534,-187500.02235174447,-187500.02235174447,-187500.02235174447,-187500.02235174447,-187500.02235174447,1730329895.2351751,1730329894.6570528,3000
-2669.893523441973,-187500.02235174447,4340.485255776079,-187500.02235174447,-187500.02235174447,-187500.02235174447,-187500.02235174447,-187500.02235174447,1730329895.2391136,1730329894.6570528,3000
-2606.749845355731,-187500.02235174447,4276.17928697816,-187500.02235174447,-187500.02235174447,-187500.02235174447,-187500.02235174447,-187500.02235174447,1730329895.2431617,1730329894.6570528,3000
-2514.8618238999634,-187500.02235174447,4256.934435002141,-187500.02235174447,-187500.02235174447,-187500.02235174447,-187500.02235174447,-187500.02235174447,1730329895.246137,1730329894.6570528,3000
-2522.2602513146703,-187500.02235174447,4218.601193261289,-187500.02235174447,-187500.02235174447,-187500.02235174447,-187500.02235174447,-187500.02235174447,1730329895.2500894,1730329894.6570528,3000
-2606.615734888999,-187500.02235174447,4207.917059411652,-187500.02235174447,-187500.02235174447,-187500.02235174447,-187500.02235174447,-187500.02235174447,1730329895.254093,1730329894.6570528,3000
-2645.0607353521277,-187500.02235174447,4261.114211215283,-187500.02235174447,-187500.02235174447,-187500.02235174447,-187500.02235174447,-187500.02235174447,1730329895.258098,1730329894.6570528,3000
-2593.629371360465,-187500.02235174447,4394.420015146735,-187500.02235174447,-187500.02235174447,-187500.02235174447,-187500.02235174447,-187500.02235174447,1730329895.2630086,1730329894.6570528,3000
-2597.2503539622253,-187500.02235174447,4516.684057317264,-187500.02235174447,-187500.02235174447,-187500.02235174447,-187500.02235174447,-187500.02235174447,1730329895.2669327,1730329894.6570528,3000
-2612.203671002826,-187500.02235174447,4453.920358886762,-187500.02235174447,-187500.02235174447,-187500.02235174447,-187500.02235174447,-187500.02235174447,1730329895.269986,1730329894.6570528,3000
-2511.2184895537484,-187500.02235174447,4230.827597478342,-187500.02235174447,-187500.02235174447,-187500.02235174447,-187500.02235174447,-187500.02235174447,1730329895.2741675,1730329894.6570528,3000
-2475.7686228476314,-187500.02235174447,4052.8853598696414,-187500.02235174447,-187500.02235174447,-187500.02235174447,-187500.02235174447,-187500.02235174447,1730329895.2781427,1730329894.6570528,3000
-2560.593493055522,-187500.02235174447,4183.106623066262,-187500.02235174447,-187500.02235174447,-187500.02235174447,-187500.02235174447,-187500.02235174447,1730329895.2821038,1730329894.6570528,3000
-2585.1804119563594,-187500.02235174447,4248.239606409026,-187500.02235174447,-187500.02235174447,-187500.02235174447,-187500.02235174447,-187500.02235174447,1730329895.285918,1730329894.6570528,3000
-2627.7381333992644,-187500.02235174447,4249.357193631791,-187500.02235174447,-187500.02235174447,-187500.02235174447,-187500.02235174447,-187500.02235174447,1730329895.2911563,1730329894.6570528,3000
-2578.430185130857,-187500.02235174447,4254.565150089878,-187500.02235174447,-187500.02235174447,-187500.02235174447,-187500.02235174447,-187500.02235174447,1730329895.295136,1730329894.6570528,3000
-2522.9978588816957,-187500.02235174447,4361.4511920751565,-187500.02235174447,-187500.02235174447,-187500.02235174447,-187500.02235174447,-187500.02235174447,1730329895.2981763,1730329894.6570528,3000
-2596.289228950647,-187500.02235174447,4430.428675464234,-187500.02235174447,-187500.02235174447,-187500.02235174447,-187500.02235174447,-187500.02235174447,1730329895.3019977,1730329894.6570528,3000
-2599.3514179410245,-187500.02235174447,4174.210628773049,-187500.02235174447,-187500.02235174447,-187500.02235174447,-187500.02235174447,-187500.02235174447,1730329895.3062124,1730329894.6570528,3000
-2535.0901526320163,-187500.02235174447,4115.582003066779,-187500.02235174447,-187500.02235174447,-187500.02235174447,-187500.02235174447,-187500.02235174447,1730329895.3100293,1730329894.6570528,3000
-2473.6675588688327,-187500.02235174447,4173.696538650577,-187500.02235174447,-187500.02235174447,-187500.02235174447,-187500.02235174447,-187500.02235174447,1730329895.3141055,1730329894.6570528,3000
-2577.3796531414573,-187500.02235174447,4182.681939921611,-187500.02235174447,-187500.02235174447,-187500.02235174447,-187500.02235174447,-187500.02235174447,1730329895.319,1730329894.6570528,3000
-2662.0257093937053,-187500.02235174447,4238.136617915227,-187500.02235174447,-187500.02235174447,-187500.02235174447,-187500.02235174447,-187500.02235174447,1730329895.3232465,1730329894.6570528,3000
-2655.700165712853,-187500.02235174447,4351.459962303635,-187500.02235174447,-187500.02235174447,-187500.02235174447,-187500.02235174447,-187500.02235174447,1730329895.326221,1730329894.6570528,3000
-2535.0901526320163,-187500.02235174447,4461.9446351462175,-187500.02235174447,-187500.02235174447,-187500.02235174447,-187500.02235174447,-187500.02235174447,1730329895.3301368,1730329894.6570528,3000
-2595.059883005605,-187500.02235174447,4420.593907903899,-187500.02235174447,-187500.02235174447,-187500.02235174447,-187500.02235174447,-187500.02235174447,1730329895.334246,1730329894.6570528,3000
-2665.7584507177417,-187500.02235174447,4194.483660994013,-187500.02235174447,-187500.02235174447,-187500.02235174447,-187500.02235174447,-187500.02235174447,1730329895.3382585,1730329894.6570528,3000
-2518.2816408016256,-187500.02235174447,4192.069672592839,-187500.02235174447,-187500.02235174447,-187500.02235174447,-187500.02235174447,-187500.02235174447,1730329895.3422475,1730329894.6570528,3000
-2472.147640245872,-187500.02235174447,4199.35634128527,-187500.02235174447,-187500.02235174447,-187500.02235174447,-187500.02235174447,-187500.02235174447,1730329895.347337,1730329894.6570528,3000
-2565.5555803246,-187500.02235174447,4184.112451566751,-187500.02235174447,-187500.02235174447,-187500.02235174447,-187500.02235174447,-187500.02235174447,1730329895.351328,1730329894.6570528,3000
-2652.4591627668337,-187500.02235174447,4237.98015570404,-187500.02235174447,-187500.02235174447,-187500.02235174447,-187500.02235174447,-187500.02235174447,1730329895.3543062,1730329894.6570528,3000
-2620.5185199402,-187500.02235174447,4203.267896564948,-187500.02235174447,-187500.02235174447,-187500.02235174447,-187500.02235174447,-187500.02235174447,1730329895.3582811,1730329894.6570528,3000
-2526.618841483455,-187500.02235174447,4160.643119888678,-187500.02235174447,-187500.02235174447,-187500.02235174447,-187500.02235174447,-187500.02235174447,1730329895.3622794,1730329894.6570528,3000
-2513.9901058662067,-187500.02235174447,4189.096890580284,-187500.02235174447,-187500.02235174447,-187500.02235174447,-187500.02235174447,-187500.02235174447,1730329895.3663013,1730329894.6570528,3000
-2618.506862939222,-187500.02235174447,4261.762411804487,-187500.02235174447,-187500.02235174447,-187500.02235174447,-187500.02235174447,-187500.02235174447,1730329895.3702512,1730329894.6570528,3000
-2619.043304806149,-187500.02235174447,4254.073411711862,-187500.02235174447,-187500.02235174447,-187500.02235174447,-187500.02235174447,-187500.02235174447,1730329895.3741872,1730329894.6570528,3000
-2552.479809818245,-187500.02235174447,4205.54777449939,-187500.02235174447,-187500.02235174447,-187500.02235174447,-187500.02235174447,-187500.02235174447,1730329895.3791752,1730329894.6570528,3000
-2539.292280589614,-187500.02235174447,4235.946146958608,-187500.02235174447,-187500.02235174447,-187500.02235174447,-187500.02235174447,-187500.02235174447,1730329895.3822749,1730329894.6570528,3000
-2582.0511677326167,-187500.02235174447,4191.555582470368,-187500.02235174447,-187500.02235174447,-187500.02235174447,-187500.02235174447,-187500.02235174447,1730329895.386136,1730329894.6570528,3000
-2626.844063621052,-187500.02235174447,4168.332119981304,-187500.02235174447,-187500.02235174447,-187500.02235174447,-187500.02235174447,-187500.02235174447,1730329895.390296,1730329894.6570528,3000
-2548.098867905005,-187500.02235174447,4142.113523735228,-187500.02235174447,-187500.02235174447,-187500.02235174447,-187500.02235174447,-187500.02235174447,1730329895.3941453,1730329894.6570528,3000
-2522.97550713724,-187500.02235174447,4286.595199894333,-187500.02235174447,-187500.02235174447,-187500.02235174447,-187500.02235174447,-187500.02235174447,1730329895.3983226,1730329894.6570528,3000
-2637.394087003957,-187500.02235174447,4492.074786671971,-187500.02235174447,-187500.02235174447,-187500.02235174447,-187500.02235174447,-187500.02235174447,1730329895.40212,1730329894.6570528,3000
-2731.6513933719866,-187500.02235174447,4282.236609725548,-187500.02235174447,-187500.02235174447,-187500.02235174447,-187500.02235174447,-187500.02235174447,1730329895.406243,1730329894.6570528,3000
-2597.809147573608,-187500.02235174447,4110.016418697407,-187500.02235174447,-187500.02235174447,-187500.02235174447,-187500.02235174447,-187500.02235174447,1730329895.4093237,1730329894.6570528,3000
-2464.2574744531485,-187500.02235174447,4149.646061616667,-187500.02235174447,-187500.02235174447,-187500.02235174447,-187500.02235174447,-187500.02235174447,1730329895.414214,1730329894.6570528,3000
-2539.0911148895166,-187500.02235174447,4190.147422569683,-187500.02235174447,-187500.02235174447,-187500.02235174447,-187500.02235174447,-187500.02235174447,1730329895.4183767,1730329894.6570528,3000
-2629.3921624889567,-187500.02235174447,4180.580875942812,-187500.02235174447,-187500.02235174447,-187500.02235174447,-187500.02235174447,-187500.02235174447,1730329895.4223466,1730329894.6570528,3000
-2601.6983511088315,-187500.02235174447,4186.951123112574,-187500.02235174447,-187500.02235174447,-187500.02235174447,-187500.02235174447,-187500.02235174447,1730329895.4263875,1730329894.6570528,3000
-2537.750010222198,-187500.02235174447,4203.938448898608,-187500.02235174447,-187500.02235174447,-187500.02235174447,-187500.02235174447,-187500.02235174447,1730329895.4303784,1730329894.6570528,3000
-2573.021062972673,-187500.02235174447,4283.5106591595,-187500.02235174447,-187500.02235174447,-187500.02235174447,-187500.02235174447,-187500.02235174447,1730329895.43436,1730329894.6570528,3000
-2614.617659403999,-187500.02235174447,4328.929403892685,-187500.02235174447,-187500.02235174447,-187500.02235174447,-187500.02235174447,-187500.02235174447,1730329895.4373782,1730329894.6570528,3000
-2583.1240514664714,-187500.02235174447,4338.674764475199,-187500.02235174447,-187500.02235174447,-187500.02235174447,-187500.02235174447,-187500.02235174447,1730329895.4424052,1730329894.6570528,3000
-2507.463396485257,-187500.02235174447,4291.736101119054,-187500.02235174447,-187500.02235174447,-187500.02235174447,-187500.02235174447,-187500.02235174447,1730329895.446309,1730329894.6570528,3000
-2540.7674957236645,-187500.02235174447,4152.909416307141,-187500.02235174447,-187500.02235174447,-187500.02235174447,-187500.02235174447,-187500.02235174447,1730329895.4504263,1730329894.6570528,3000
-2634.2201392913034,-187500.02235174447,4138.8725207892085,-187500.02235174447,-187500.02235174447,-187500.02235174447,-187500.02235174447,-187500.02235174447,1730329895.4542928,1730329894.6570528,3000
-2628.1851682883703,-187500.02235174447,4159.078497776806,-187500.02235174447,-187500.02235174447,-187500.02235174447,-187500.02235174447,-187500.02235174447,1730329895.4583857,1730329894.6570528,3000
-2502.076626071528,-187500.02235174447,4148.126142993706,-187500.02235174447,-187500.02235174447,-187500.02235174447,-187500.02235174447,-187500.02235174447,1730329895.4624188,1730329894.6570528,3000
-2530.2845275741256,-187500.02235174447,4185.341797511792,-187500.02235174447,-187500.02235174447,-187500.02235174447,-187500.02235174447,-187500.02235174447,1730329895.4653804,1730329894.6570528,3000
-2657.9800436472947,-187500.02235174447,4204.676056465632,-187500.02235174447,-187500.02235174447,-187500.02235174447,-187500.02235174447,-187500.02235174447,1730329895.4704652,1730329894.6570528,3000
-2671.234628109292,-187500.02235174447,4233.509806812979,-187500.02235174447,-187500.02235174447,-187500.02235174447,-187500.02235174447,-187500.02235174447,1730329895.474355,1730329894.6570528,3000
-2556.1231441644604,-187500.02235174447,4214.980210659529,-187500.02235174447,-187500.02235174447,-187500.02235174447,-187500.02235174447,-187500.02235174447,1730329895.4784527,1730329894.6570528,3000
-2545.394306825913,-187500.02235174447,4317.485310731568,-187500.02235174447,-187500.02235174447,-187500.02235174447,-187500.02235174447,-187500.02235174447,1730329895.4826672,1730329894.6570528,3000
-2631.068543323105,-187500.02235174447,4495.673417529276,-187500.02235174447,-187500.02235174447,-187500.02235174447,-187500.02235174447,-187500.02235174447,1730329895.4863143,1730329894.6570528,3000
-2589.9189817808847,-187500.02235174447,4218.444731050102,-187500.02235174447,-187500.02235174447,-187500.02235174447,-187500.02235174447,-187500.02235174447,1730329895.4904978,1730329894.6570528,3000
-2491.794823622087,-187500.02235174447,3992.937981240509,-187500.02235174447,-187500.02235174447,-187500.02235174447,-187500.02235174447,-187500.02235174447,1730329895.493344,1730329894.6570528,3000
-2493.2923905005923,-187500.02235174447,4265.22693219506,-187500.02235174447,-187500.02235174447,-187500.02235174447,-187500.02235174447,-187500.02235174447,1730329895.4974852,1730329894.6570528,3000
-2562.6051500564995,-187500.02235174447,4395.0905674803935,-187500.02235174447,-187500.02235174447,-187500.02235174447,-187500.02235174447,-187500.02235174447,1730329895.502374,1730329894.6570528,3000
-2628.654554921932,-187500.02235174447,4076.578208992268,-187500.02235174447,-187500.02235174447,-187500.02235174447,-187500.02235174447,-187500.02235174447,1730329895.5064988,1730329894.6570528,3000
-2618.819787361597,-187500.02235174447,4014.820339062255,-187500.02235174447,-187500.02235174447,-187500.02235174447,-187500.02235174447,-187500.02235174447,1730329895.5103328,1730329894.6570528,3000
-2523.780169937631,-187500.02235174447,4155.949253553064,-187500.02235174447,-187500.02235174447,-187500.02235174447,-187500.02235174447,-187500.02235174447,1730329895.513482,1730329894.6570528,3000
-2569.243618159725,-187500.02235174447,4225.686696253621,-187500.02235174447,-187500.02235174447,-187500.02235174447,-187500.02235174447,-187500.02235174447,1730329895.517532,1730329894.6570528,3000
-2622.485473452267,-187500.02235174447,4268.870266541275,-187500.02235174447,-187500.02235174447,-187500.02235174447,-187500.02235174447,-187500.02235174447,1730329895.5215287,1730329894.6570528,3000
-2626.0170490762057,-187500.02235174447,4249.379545376247,-187500.02235174447,-187500.02235174447,-187500.02235174447,-187500.02235174447,-187500.02235174447,1730329895.5254383,1730329894.6570528,3000
-2573.512801350689,-187500.02235174447,4148.662584860634,-187500.02235174447,-187500.02235174447,-187500.02235174447,-187500.02235174447,-187500.02235174447,1730329895.5305245,1730329894.6570528,3000
-2567.03079545865,-187500.02235174447,4147.992032526974,-187500.02235174447,-187500.02235174447,-187500.02235174447,-187500.02235174447,-187500.02235174447,1730329895.53448,1730329894.6570528,3000
-2649.553435987644,-187500.02235174447,4207.537079755912,-187500.02235174447,-187500.02235174447,-187500.02235174447,-187500.02235174447,-187500.02235174447,1730329895.5385015,1730329894.6570528,3000
-2624.742999642253,-187500.02235174447,4124.410942126625,-187500.02235174447,-187500.02235174447,-187500.02235174447,-187500.02235174447,-187500.02235174447,1730329895.5415924,1730329894.6570528,3000
-2535.447780543301,-187500.02235174447,4123.740389792966,-187500.02235174447,-187500.02235174447,-187500.02235174447,-187500.02235174447,-187500.02235174447,1730329895.5455616,1730329894.6570528,3000
-2519.9803733802287,-187500.02235174447,4216.298963582392,-187500.02235174447,-187500.02235174447,-187500.02235174447,-187500.02235174447,-187500.02235174447,1730329895.5496216,1730329894.6570528,3000
-2618.3727524724904,-187500.02235174447,4273.854705554808,-187500.02235174447,-187500.02235174447,-187500.02235174447,-187500.02235174447,-187500.02235174447,1730329895.5535755,1730329894.6570528,3000
-2595.976304528273,-187500.02235174447,4187.308751023859,-187500.02235174447,-187500.02235174447,-187500.02235174447,-187500.02235174447,-187500.02235174447,1730329895.5585244,1730329894.6570528,3000
-2509.676219186332,-187500.02235174447,4117.951287979042,-187500.02235174447,-187500.02235174447,-187500.02235174447,-187500.02235174447,-187500.02235174447,1730329895.5626445,1730329894.6570528,3000
-2535.2913183321143,-187500.02235174447,4279.017958523984,-187500.02235174447,-187500.02235174447,-187500.02235174447,-187500.02235174447,-187500.02235174447,1730329895.5666244,1730329894.6570528,3000
-2667.1666106184257,-187500.02235174447,4324.459055001624,-187500.02235174447,-187500.02235174447,-187500.02235174447,-187500.02235174447,-187500.02235174447,1730329895.5695035,1730329894.6570528,3000
-2669.938226930884,-187500.02235174447,4325.66604920221,-187500.02235174447,-187500.02235174447,-187500.02235174447,-187500.02235174447,-187500.02235174447,1730329895.5736053,1730329894.6570528,3000
-2521.299126303092,-187500.02235174447,4115.224375155494,-187500.02235174447,-187500.02235174447,-187500.02235174447,-187500.02235174447,-187500.02235174447,1730329895.5774636,1730329894.6570528,3000
-2516.292335545103,-187500.02235174447,4116.230203655983,-187500.02235174447,-187500.02235174447,-187500.02235174447,-187500.02235174447,-187500.02235174447,1730329895.5820532,1730329894.6570528,3000
-2579.771289798175,-187500.02235174447,4193.209611560061,-187500.02235174447,-187500.02235174447,-187500.02235174447,-187500.02235174447,-187500.02235174447,1730329895.5854504,1730329894.6570528,3000
-2621.2561275072253,-187500.02235174447,4168.846210103776,-187500.02235174447,-187500.02235174447,-187500.02235174447,-187500.02235174447,-187500.02235174447,1730329895.5909083,1730329894.6570528,3000
-2586.9238480238737,-187500.02235174447,4201.099777352783,-187500.02235174447,-187500.02235174447,-187500.02235174447,-187500.02235174447,-187500.02235174447,1730329895.5945048,1730329894.6570528,3000
-2512.40313200988,-187500.02235174447,4203.469062265046,-187500.02235174447,-187500.02235174447,-187500.02235174447,-187500.02235174447,-187500.02235174447,1730329895.5979583,1730329894.6570528,3000
-2624.2736130086914,-187500.02235174447,4170.924922338119,-187500.02235174447,-187500.02235174447,-187500.02235174447,-187500.02235174447,-187500.02235174447,1730329895.6017385,1730329894.6570528,3000
-2728.6786113594308,-187500.02235174447,4260.0189757369735,-187500.02235174447,-187500.02235174447,-187500.02235174447,-187500.02235174447,-187500.02235174447,1730329895.6061676,1730329894.6570528,3000
-2644.6360522074765,-187500.02235174447,4354.768020483019,-187500.02235174447,-187500.02235174447,-187500.02235174447,-187500.02235174447,-187500.02235174447,1730329895.609986,1730329894.6570528,3000
-2412.624944761389,-187500.02235174447,4303.537822191456,-187500.02235174447,-187500.02235174447,-187500.02235174447,-187500.02235174447,-187500.02235174447,1730329895.6148117,1730329894.6570528,3000
-2446.599596333456,-187500.02235174447,4076.064118869796,-187500.02235174447,-187500.02235174447,-187500.02235174447,-187500.02235174447,-187500.02235174447,1730329895.6186547,1730329894.6570528,3000
-2629.258052022225,-187500.02235174447,4033.327583471249,-187500.02235174447,-187500.02235174447,-187500.02235174447,-187500.02235174447,-187500.02235174447,1730329895.6226676,1730329894.6570528,3000
-2602.9947522872394,-187500.02235174447,4074.4994967579246,-187500.02235174447,-187500.02235174447,-187500.02235174447,-187500.02235174447,-187500.02235174447,1730329895.6258483,1730329894.6570528,3000
-2511.1290825759274,-187500.02235174447,4133.262232930927,-187500.02235174447,-187500.02235174447,-187500.02235174447,-187500.02235174447,-187500.02235174447,1730329895.6303215,1730329894.6570528,3000
-2515.197100066793,-187500.02235174447,4223.384466574725,-187500.02235174447,-187500.02235174447,-187500.02235174447,-187500.02235174447,-187500.02235174447,1730329895.6337206,1730329894.6570528,3000
-2645.507770241233,-187500.02235174447,4237.019030692462,-187500.02235174447,-187500.02235174447,-187500.02235174447,-187500.02235174447,-187500.02235174447,1730329895.6378489,1730329894.6570528,3000
-2665.7584507177417,-187500.02235174447,4147.3214801933145,-187500.02235174447,-187500.02235174447,-187500.02235174447,-187500.02235174447,-187500.02235174447,1730329895.6422048,1730329894.6570528,3000
-2523.4448937708016,-187500.02235174447,4102.081549415773,-187500.02235174447,-187500.02235174447,-187500.02235174447,-187500.02235174447,-187500.02235174447,1730329895.6471455,1730329894.6570528,3000
-2490.051387554573,-187500.02235174447,4157.737393109488,-187500.02235174447,-187500.02235174447,-187500.02235174447,-187500.02235174447,-187500.02235174447,1730329895.6502907,1730329894.6570528,3000
-2628.4310374773786,-187500.02235174447,4230.715838756066,-187500.02235174447,-187500.02235174447,-187500.02235174447,-187500.02235174447,-187500.02235174447,1730329895.653596,1730329894.6570528,3000
-2666.9877966627832,-187500.02235174447,4217.304792082881,-187500.02235174447,-187500.02235174447,-187500.02235174447,-187500.02235174447,-187500.02235174447,1730329895.6581812,1730329894.6570528,3000
-2563.1862954123376,-187500.02235174447,4234.068600424362,-187500.02235174447,-187500.02235174447,-187500.02235174447,-187500.02235174447,-187500.02235174447,1730329895.6616251,1730329894.6570528,3000
-2493.3817974784133,-187500.02235174447,4213.370885058747,-187500.02235174447,-187500.02235174447,-187500.02235174447,-187500.02235174447,-187500.02235174447,1730329895.6659904,1730329894.6570528,3000
-2604.84994707703,-187500.02235174447,4191.466175492546,-187500.02235174447,-187500.02235174447,-187500.02235174447,-187500.02235174447,-187500.02235174447,1730329895.6696343,1730329894.6570528,3000
-2668.865343197029,-187500.02235174447,4169.136782781695,-187500.02235174447,-187500.02235174447,-187500.02235174447,-187500.02235174447,-187500.02235174447,1730329895.6748233,1730329894.6570528,3000
-2575.74797579622,-187500.02235174447,4221.372809573747,-187500.02235174447,-187500.02235174447,-187500.02235174447,-187500.02235174447,-187500.02235174447,1730329895.6777291,1730329894.6570528,3000
-2520.919146647352,-187500.02235174447,4266.121001973272,-187500.02235174447,-187500.02235174447,-187500.02235174447,-187500.02235174447,-187500.02235174447,1730329895.6809125,1730329894.6570528,3000
-2595.663380105899,-187500.02235174447,4320.882775888775,-187500.02235174447,-187500.02235174447,-187500.02235174447,-187500.02235174447,-187500.02235174447,1730329895.6857164,1730329894.6570528,3000
-2629.325107255591,-187500.02235174447,4084.7589474629103,-187500.02235174447,-187500.02235174447,-187500.02235174447,-187500.02235174447,-187500.02235174447,1730329895.6902857,1730329894.6570528,3000
-2611.443711691345,-187500.02235174447,4034.333411971738,-187500.02235174447,-187500.02235174447,-187500.02235174447,-187500.02235174447,-187500.02235174447,1730329895.6936612,1730329894.6570528,3000
-2536.386553810424,-187500.02235174447,4223.898556697197,-187500.02235174447,-187500.02235174447,-187500.02235174447,-187500.02235174447,-187500.02235174447,1730329895.6980402,1730329894.6570528,3000
-2592.735301582253,-187500.02235174447,4275.531086388956,-187500.02235174447,-187500.02235174447,-187500.02235174447,-187500.02235174447,-187500.02235174447,1730329895.7027826,1730329894.6570528,3000
-2622.619583918999,-187500.02235174447,4135.318593420815,-187500.02235174447,-187500.02235174447,-187500.02235174447,-187500.02235174447,-187500.02235174447,1730329895.7063987,1730329894.6570528,3000
-2602.905345309418,-187500.02235174447,4119.717075791011,-187500.02235174447,-187500.02235174447,-187500.02235174447,-187500.02235174447,-187500.02235174447,1730329895.7088912,1730329894.6570528,3000
-2526.104751360983,-187500.02235174447,4181.854925376764,-187500.02235174447,-187500.02235174447,-187500.02235174447,-187500.02235174447,-187500.02235174447,1730329895.7139022,1730329894.6570528,3000
-2552.7703824961645,-187500.02235174447,4208.475853023035,-187500.02235174447,-187500.02235174447,-187500.02235174447,-187500.02235174447,-187500.02235174447,1730329895.7179005,1730329894.6570528,3000
-2588.3543596690133,-187500.02235174447,4239.678888282644,-187500.02235174447,-187500.02235174447,-187500.02235174447,-187500.02235174447,-187500.02235174447,1730329895.7222517,1730329894.6570528,3000
-2555.8549232309965,-187500.02235174447,4121.013476969419,-187500.02235174447,-187500.02235174447,-187500.02235174447,-187500.02235174447,-187500.02235174447,1730329895.7265007,1730329894.6570528,3000
-2540.879254445941,-187500.02235174447,4024.1186647556624,-187500.02235174447,-187500.02235174447,-187500.02235174447,-187500.02235174447,-187500.02235174447,1730329895.7299445,1730329894.6570528,3000
-2563.9462547238177,-187500.02235174447,4145.220416214516,-187500.02235174447,-187500.02235174447,-187500.02235174447,-187500.02235174447,-187500.02235174447,1730329895.7339387,1730329894.6570528,3000
-2636.3435550145573,-187500.02235174447,4182.033739332407,-187500.02235174447,-187500.02235174447,-187500.02235174447,-187500.02235174447,-187500.02235174447,1730329895.7369049,1730329894.6570528,3000
-2643.630223706988,-187500.02235174447,4197.836422662309,-187500.02235174447,-187500.02235174447,-187500.02235174447,-187500.02235174447,-187500.02235174447,1730329895.7419734,1730329894.6570528,3000
-2552.032774929139,-187500.02235174447,4230.0899899113165,-187500.02235174447,-187500.02235174447,-187500.02235174447,-187500.02235174447,-187500.02235174447,1730329895.7458277,1730329894.6570528,3000
-2507.6645621853545,-187500.02235174447,4276.156935233705,-187500.02235174447,-187500.02235174447,-187500.02235174447,-187500.02235174447,-187500.02235174447,1730329895.749993,1730329894.6570528,3000
-2621.2561275072253,-187500.02235174447,4202.329123297825,-187500.02235174447,-187500.02235174447,-187500.02235174447,-187500.02235174447,-187500.02235174447,1730329895.7538352,1730329894.6570528,3000
-2662.6515582384536,-187500.02235174447,4140.012459756429,-187500.02235174447,-187500.02235174447,-187500.02235174447,-187500.02235174447,-187500.02235174447,1730329895.756945,1730329894.6570528,3000
-2577.759632797198,-187500.02235174447,4230.335859100325,-187500.02235174447,-187500.02235174447,-187500.02235174447,-187500.02235174447,-187500.02235174447,1730329895.7607188,1730329894.6570528,3000
-2530.619803740955,-187500.02235174447,4254.520446600967,-187500.02235174447,-187500.02235174447,-187500.02235174447,-187500.02235174447,-187500.02235174447,1730329895.7648876,1730329894.6570528,3000
-2616.651668149432,-187500.02235174447,4291.289066229948,-187500.02235174447,-187500.02235174447,-187500.02235174447,-187500.02235174447,-187500.02235174447,1730329895.768881,1730329894.6570528,3000
-2636.5894242035656,-187500.02235174447,4235.610870791777,-187500.02235174447,-187500.02235174447,-187500.02235174447,-187500.02235174447,-187500.02235174447,1730329895.774029,1730329894.6570528,3000
-2528.228167084237,-187500.02235174447,4313.014961840506,-187500.02235174447,-187500.02235174447,-187500.02235174447,-187500.02235174447,-187500.02235174447,1730329895.7779484,1730329894.6570528,3000
-2501.920163860341,-187500.02235174447,4138.336078922282,-187500.02235174447,-187500.02235174447,-187500.02235174447,-187500.02235174447,-187500.02235174447,1730329895.7820733,1730329894.6570528,3000
-2547.137742893427,-187500.02235174447,3988.333521882716,-187500.02235174447,-187500.02235174447,-187500.02235174447,-187500.02235174447,-187500.02235174447,1730329895.7850037,1730329894.6570528,3000
-2656.57188374661,-187500.02235174447,4062.5636652187904,-187500.02235174447,-187500.02235174447,-187500.02235174447,-187500.02235174447,-187500.02235174447,1730329895.7891064,1730329894.6570528,3000
-2590.209554458804,-187500.02235174447,4094.6831220010663,-187500.02235174447,-187500.02235174447,-187500.02235174447,-187500.02235174447,-187500.02235174447,1730329895.7931209,1730329894.6570528,3000
-2524.8307019270305,-187500.02235174447,4190.929733625619,-187500.02235174447,-187500.02235174447,-187500.02235174447,-187500.02235174447,-187500.02235174447,1730329895.7970028,1730329894.6570528,3000
-2602.838290076052,-187500.02235174447,4235.387353347225,-187500.02235174447,-187500.02235174447,-187500.02235174447,-187500.02235174447,-187500.02235174447,1730329895.8018467,1730329894.6570528,3000
-2654.6943372123646,-187500.02235174447,4220.925774684641,-187500.02235174447,-187500.02235174447,-187500.02235174447,-187500.02235174447,-187500.02235174447,1730329895.8060625,1730329894.6570528,3000
-2593.875240549474,-187500.02235174447,4030.0418770363194,-187500.02235174447,-187500.02235174447,-187500.02235174447,-187500.02235174447,-187500.02235174447,1730329895.812034,1730329894.6570528,3000
-2505.7423121621982,-187500.02235174447,4032.165292759573,-187500.02235174447,-187500.02235174447,-187500.02235174447,-187500.02235174447,-187500.02235174447,1730329895.8149767,1730329894.6570528,3000
-2551.2504638732034,-187500.02235174447,4172.176620027616,-187500.02235174447,-187500.02235174447,-187500.02235174447,-187500.02235174447,-187500.02235174447,1730329895.8180816,1730329894.6570528,3000
-2642.736153928776,-187500.02235174447,4187.73343416851,-187500.02235174447,-187500.02235174447,-187500.02235174447,-187500.02235174447,-187500.02235174447,1730329895.8210604,1730329894.6570528,3000
-2603.1512144984263,-187500.02235174447,4111.6704477871,-187500.02235174447,-187500.02235174447,-187500.02235174447,-187500.02235174447,-187500.02235174447,1730329895.8250823,1730329894.6570528,3000
-2531.3127078190696,-187500.02235174447,4134.402171898148,-187500.02235174447,-187500.02235174447,-187500.02235174447,-187500.02235174447,-187500.02235174447,1730329895.830098,1730329894.6570528,3000
-2539.784018967631,-187500.02235174447,4181.87727712122,-187500.02235174447,-187500.02235174447,-187500.02235174447,-187500.02235174447,-187500.02235174447,1730329895.8339148,1730329894.6570528,3000
-2648.2793865536914,-187500.02235174447,4159.749050110466,-187500.02235174447,-187500.02235174447,-187500.02235174447,-187500.02235174447,-187500.02235174447,1730329895.838353,1730329894.6570528,3000
-2650.4922092547667,-187500.02235174447,4179.73150965351,-187500.02235174447,-187500.02235174447,-187500.02235174447,-187500.02235174447,-187500.02235174447,1730329895.841124,1730329894.6570528,3000
-2567.522533836667,-187500.02235174447,4213.326181569837,-187500.02235174447,-187500.02235174447,-187500.02235174447,-187500.02235174447,-187500.02235174447,1730329895.8450751,1730329894.6570528,3000
-2561.532266322645,-187500.02235174447,4199.35634128527,-187500.02235174447,-187500.02235174447,-187500.02235174447,-187500.02235174447,-187500.02235174447,1730329895.8493452,1730329894.6570528,3000
-2649.396973776457,-187500.02235174447,4213.549699014389,-187500.02235174447,-187500.02235174447,-187500.02235174447,-187500.02235174447,-187500.02235174447,1730329895.8530128,1730329894.6570528,3000
-2662.0257093937053,-187500.02235174447,4077.1817060925614,-187500.02235174447,-187500.02235174447,-187500.02235174447,-187500.02235174447,-187500.02235174447,1730329895.8572829,1730329894.6570528,3000
-2549.9540626947955,-187500.02235174447,4055.567569204279,-187500.02235174447,-187500.02235174447,-187500.02235174447,-187500.02235174447,-187500.02235174447,1730329895.8620908,1730329894.6570528,3000
-2500.623762681933,-187500.02235174447,4190.885030136708,-187500.02235174447,-187500.02235174447,-187500.02235174447,-187500.02235174447,-187500.02235174447,1730329895.8666055,1730329894.6570528,3000
-2610.728455868776,-187500.02235174447,4189.499221980479,-187500.02235174447,-187500.02235174447,-187500.02235174447,-187500.02235174447,-187500.02235174447,1730329895.8690283,1730329894.6570528,3000
-2642.847912651052,-187500.02235174447,4121.192290925061,-187500.02235174447,-187500.02235174447,-187500.02235174447,-187500.02235174447,-187500.02235174447,1730329895.87314,1730329894.6570528,3000
-2575.546810096122,-187500.02235174447,4126.824930527799,-187500.02235174447,-187500.02235174447,-187500.02235174447,-187500.02235174447,-187500.02235174447,1730329895.8769908,1730329894.6570528,3000
-2523.310783304069,-187500.02235174447,4201.815033175353,-187500.02235174447,-187500.02235174447,-187500.02235174447,-187500.02235174447,-187500.02235174447,1730329895.881287,1730329894.6570528,3000
-2573.1551734394043,-187500.02235174447,4246.049135452407,-187500.02235174447,-187500.02235174447,-187500.02235174447,-187500.02235174447,-187500.02235174447,1730329895.886072,1730329894.6570528,3000
-2655.700165712853,-187500.02235174447,4053.265339525383,-187500.02235174447,-187500.02235174447,-187500.02235174447,-187500.02235174447,-187500.02235174447,1730329895.89051,1730329894.6570528,3000
-2610.750807613231,-187500.02235174447,4081.003854394419,-187500.02235174447,-187500.02235174447,-187500.02235174447,-187500.02235174447,-187500.02235174447,1730329895.8940637,1730329894.6570528,3000
-2540.611033512477,-187500.02235174447,4149.936634294586,-187500.02235174447,-187500.02235174447,-187500.02235174447,-187500.02235174447,-187500.02235174447,1730329895.8974109,1730329894.6570528,3000
-2534.3748968094465,-187500.02235174447,4113.503290832436,-187500.02235174447,-187500.02235174447,-187500.02235174447,-187500.02235174447,-187500.02235174447,1730329895.901399,1730329894.6570528,3000
-2635.09185732506,-187500.02235174447,4128.657773573133,-187500.02235174447,-187500.02235174447,-187500.02235174447,-187500.02235174447,-187500.02235174447,1730329895.9052284,1730329894.6570528,3000
-2630.733267156276,-187500.02235174447,4119.515910090913,-187500.02235174447,-187500.02235174447,-187500.02235174447,-187500.02235174447,-187500.02235174447,1730329895.9094265,1730329894.6570528,3000
-2514.4371407553126,-187500.02235174447,4160.129029766206,-187500.02235174447,-187500.02235174447,-187500.02235174447,-187500.02235174447,-187500.02235174447,1730329895.9135716,1730329894.6570528,3000
-2553.17271389636,-187500.02235174447,4188.918076624641,-187500.02235174447,-187500.02235174447,-187500.02235174447,-187500.02235174447,-187500.02235174447,1730329895.9184182,1730329894.6570528,3000
-2654.2473023232583,-187500.02235174447,4186.280570778915,-187500.02235174447,-187500.02235174447,-187500.02235174447,-187500.02235174447,-187500.02235174447,1730329895.9211428,1730329894.6570528,3000
-2637.416438748412,-187500.02235174447,4275.508734644501,-187500.02235174447,-187500.02235174447,-187500.02235174447,-187500.02235174447,-187500.02235174447,1730329895.9252293,1730329894.6570528,3000
-2560.4370308443345,-187500.02235174447,4136.257366687938,-187500.02235174447,-187500.02235174447,-187500.02235174447,-187500.02235174447,-187500.02235174447,1730329895.929178,1730329894.6570528,3000
-2537.2359200997257,-187500.02235174447,4034.5569294162906,-187500.02235174447,-187500.02235174447,-187500.02235174447,-187500.02235174447,-187500.02235174447,1730329895.9332829,1730329894.6570528,3000
-2624.944165342351,-187500.02235174447,4072.800764179321,-187500.02235174447,-187500.02235174447,-187500.02235174447,-187500.02235174447,-187500.02235174447,1730329895.9371948,1730329894.6570528,3000
-2670.1170408865264,-187500.02235174447,4116.274907144893,-187500.02235174447,-187500.02235174447,-187500.02235174447,-187500.02235174447,-187500.02235174447,1730329895.9412203,1730329894.6570528,3000
-2568.215437914781,-187500.02235174447,4123.874500259698,-187500.02235174447,-187500.02235174447,-187500.02235174447,-187500.02235174447,-187500.02235174447,1730329895.9462557,1730329894.6570528,3000
-2529.323402562547,-187500.02235174447,4189.901553380675,-187500.02235174447,-187500.02235174447,-187500.02235174447,-187500.02235174447,-187500.02235174447,1730329895.949342,1730329894.6570528,3000
-2593.8528888050187,-187500.02235174447,4169.784983370899,-187500.02235174447,-187500.02235174447,-187500.02235174447,-187500.02235174447,-187500.02235174447,1730329895.9532218,1730329894.6570528,3000
-2656.3707180465126,-187500.02235174447,4017.077865252241,-187500.02235174447,-187500.02235174447,-187500.02235174447,-187500.02235174447,-187500.02235174447,1730329895.9572911,1730329894.6570528,3000
-2574.0492432176165,-187500.02235174447,4085.340092818749,-187500.02235174447,-187500.02235174447,-187500.02235174447,-187500.02235174447,-187500.02235174447,1730329895.96112,1730329894.6570528,3000
-2518.3710477794466,-187500.02235174447,4144.661622603134,-187500.02235174447,-187500.02235174447,-187500.02235174447,-187500.02235174447,-187500.02235174447,1730329895.9652643,1730329894.6570528,3000
-2604.939354054851,-187500.02235174447,4225.887861953719,-187500.02235174447,-187500.02235174447,-187500.02235174447,-187500.02235174447,-187500.02235174447,1730329895.9690714,1730329894.6570528,3000
-2654.940206401373,-187500.02235174447,4107.513023318413,-187500.02235174447,-187500.02235174447,-187500.02235174447,-187500.02235174447,-187500.02235174447,1730329895.9741688,1730329894.6570528,3000
-2624.13950254196,-187500.02235174447,4021.212937976472,-187500.02235174447,-187500.02235174447,-187500.02235174447,-187500.02235174447,-187500.02235174447,1730329895.9771593,1730329894.6570528,3000
-2536.878292188441,-187500.02235174447,4120.901718247142,-187500.02235174447,-187500.02235174447,-187500.02235174447,-187500.02235174447,-187500.02235174447,1730329895.9803298,1730329894.6570528,3000
-2587.1473654684264,-187500.02235174447,4183.151326555172,-187500.02235174447,-187500.02235174447,-187500.02235174447,-187500.02235174447,-187500.02235174447,1730329895.9852123,1730329894.6570528,3000
-2669.2453228527693,-187500.02235174447,4122.309878147827,-187500.02235174447,-187500.02235174447,-187500.02235174447,-187500.02235174447,-187500.02235174447,1730329895.9893465,1730329894.6570528,3000
-2630.219177033803,-187500.02235174447,4153.937596552086,-187500.02235174447,-187500.02235174447,-187500.02235174447,-187500.02235174447,-187500.02235174447,1730329895.9932952,1730329894.6570528,3000
-2538.3088038335804,-187500.02235174447,4236.259071380981,-187500.02235174447,-187500.02235174447,-187500.02235174447,-187500.02235174447,-187500.02235174447,1730329895.9983816,1730329894.6570528,3000
-2581.715891565787,-187500.02235174447,4114.084436188274,-187500.02235174447,-187500.02235174447,-187500.02235174447,-187500.02235174447,-187500.02235174447,1730329896.001442,1730329894.6570528,3000
-2652.347404044557,-187500.02235174447,4052.460676724992,-187500.02235174447,-187500.02235174447,-187500.02235174447,-187500.02235174447,-187500.02235174447,1730329896.0042434,1730329894.6570528,3000
-2593.9646475272957,-187500.02235174447,4128.38955263967,-187500.02235174447,-187500.02235174447,-187500.02235174447,-187500.02235174447,-187500.02235174447,1730329896.0093553,1730329894.6570528,3000
-2545.5507690371,-187500.02235174447,4064.977653619964,-187500.02235174447,-187500.02235174447,-187500.02235174447,-187500.02235174447,-187500.02235174447,1730329896.0133986,1730329894.6570528,3000
-2569.4000803709127,-187500.02235174447,4140.39243941217,-187500.02235174447,-187500.02235174447,-187500.02235174447,-187500.02235174447,-187500.02235174447,1730329896.0173595,1730329894.6570528,3000
-2676.5766950341103,-187500.02235174447,4200.406873274669,-187500.02235174447,-187500.02235174447,-187500.02235174447,-187500.02235174447,-187500.02235174447,1730329896.0213933,1730329894.6570528,3000
-2644.18901731837,-187500.02235174447,4196.003579616974,-187500.02235174447,-187500.02235174447,-187500.02235174447,-187500.02235174447,-187500.02235174447,1730329896.025421,1730329894.6570528,3000
-2511.978448865229,-187500.02235174447,4094.90663944562,-187500.02235174447,-187500.02235174447,-187500.02235174447,-187500.02235174447,-187500.02235174447,1730329896.0297866,1730329894.6570528,3000
-2535.8277601990417,-187500.02235174447,4047.699755156011,-187500.02235174447,-187500.02235174447,-187500.02235174447,-187500.02235174447,-187500.02235174447,1730329896.0323524,1730329894.6570528,3000
-2628.229871777281,-187500.02235174447,4050.046688323818,-187500.02235174447,-187500.02235174447,-187500.02235174447,-187500.02235174447,-187500.02235174447,1730329896.0362356,1730329894.6570528,3000
-2657.0859738690824,-187500.02235174447,4090.615104510201,-187500.02235174447,-187500.02235174447,-187500.02235174447,-187500.02235174447,-187500.02235174447,1730329896.0418148,1730329894.6570528,3000
-2574.7421472957312,-187500.02235174447,4096.7841859798655,-187500.02235174447,-187500.02235174447,-187500.02235174447,-187500.02235174447,-187500.02235174447,1730329896.0455947,1730329894.6570528,3000
-2553.619748785466,-187500.02235174447,4139.766590567421,-187500.02235174447,-187500.02235174447,-187500.02235174447,-187500.02235174447,-187500.02235174447,1730329896.0498245,1730329894.6570528,3000
-2632.2084822903257,-187500.02235174447,4156.686861120089,-187500.02235174447,-187500.02235174447,-187500.02235174447,-187500.02235174447,-187500.02235174447,1730329896.0534613,1730329894.6570528,3000
-2665.713747228831,-187500.02235174447,4123.24865141495,-187500.02235174447,-187500.02235174447,-187500.02235174447,-187500.02235174447,-187500.02235174447,1730329896.057665,1730329894.6570528,3000
-2569.713004793287,-187500.02235174447,4162.721832123021,-187500.02235174447,-187500.02235174447,-187500.02235174447,-187500.02235174447,-187500.02235174447,1730329896.0602305,1730329894.6570528,3000
-2499.617934181444,-187500.02235174447,4157.53622740939,-187500.02235174447,-187500.02235174447,-187500.02235174447,-187500.02235174447,-187500.02235174447,1730329896.0644598,1730329894.6570528,3000
-2590.5001271367228,-187500.02235174447,4099.332284847771,-187500.02235174447,-187500.02235174447,-187500.02235174447,-187500.02235174447,-187500.02235174447,1730329896.0693133,1730329894.6570528,3000
-2676.263770611736,-187500.02235174447,4018.418969919559,-187500.02235174447,-187500.02235174447,-187500.02235174447,-187500.02235174447,-187500.02235174447,1730329896.0734985,1730329894.6570528,3000
-2620.5855751735658,-187500.02235174447,4044.123476043162,-187500.02235174447,-187500.02235174447,-187500.02235174447,-187500.02235174447,-187500.02235174447,1730329896.0773287,1730329894.6570528,3000
-2542.086248646528,-187500.02235174447,4109.547032063846,-187500.02235174447,-187500.02235174447,-187500.02235174447,-187500.02235174447,-187500.02235174447,1730329896.0819266,1730329894.6570528,3000
-2597.742092340242,-187500.02235174447,4104.696703517045,-187500.02235174447,-187500.02235174447,-187500.02235174447,-187500.02235174447,-187500.02235174447,1730329896.0844584,1730329894.6570528,3000
-2668.5971222635653,-187500.02235174447,4103.71322676101,-187500.02235174447,-187500.02235174447,-187500.02235174447,-187500.02235174447,-187500.02235174447,1730329896.088884,1730329894.6570528,3000
-2602.5030139092223,-187500.02235174447,4131.161168952128,-187500.02235174447,-187500.02235174447,-187500.02235174447,-187500.02235174447,-187500.02235174447,1730329896.0930288,1730329894.6570528,3000
-2523.8919286599075,-187500.02235174447,4147.992032526974,-187500.02235174447,-187500.02235174447,-187500.02235174447,-187500.02235174447,-187500.02235174447,1730329896.0976267,1730329894.6570528,3000
-2596.2221737172813,-187500.02235174447,4193.54488772689,-187500.02235174447,-187500.02235174447,-187500.02235174447,-187500.02235174447,-187500.02235174447,1730329896.1016016,1730329894.6570528,3000
-2699.4648813563444,-187500.02235174447,4163.861771090242,-187500.02235174447,-187500.02235174447,-187500.02235174447,-187500.02235174447,-187500.02235174447,1730329896.1056764,1730329894.6570528,3000
-2651.632148221988,-187500.02235174447,4054.114705814685,-187500.02235174447,-187500.02235174447,-187500.02235174447,-187500.02235174447,-187500.02235174447,1730329896.1098056,1730329894.6570528,3000
-2552.9268447073514,-187500.02235174447,3995.039045219308,-187500.02235174447,-187500.02235174447,-187500.02235174447,-187500.02235174447,-187500.02235174447,1730329896.1136255,1730329894.6570528,3000
-2561.2416936447257,-187500.02235174447,4065.134115831151,-187500.02235174447,-187500.02235174447,-187500.02235174447,-187500.02235174447,-187500.02235174447,1730329896.116627,1730329894.6570528,3000
-2653.979081389795,-187500.02235174447,4086.636493997156,-187500.02235174447,-187500.02235174447,-187500.02235174447,-187500.02235174447,-187500.02235174447,1730329896.1204913,1730329894.6570528,3000
-2638.601081204544,-187500.02235174447,4152.104753506751,-187500.02235174447,-187500.02235174447,-187500.02235174447,-187500.02235174447,-187500.02235174447,1730329896.1245005,1730329894.6570528,3000
-2544.209664369782,-187500.02235174447,4204.45253902108,-187500.02235174447,-187500.02235174447,-187500.02235174447,-187500.02235174447,-187500.02235174447,1730329896.1284866,1730329894.6570528,3000
-2567.4107751143906,-187500.02235174447,4116.610183311723,-187500.02235174447,-187500.02235174447,-187500.02235174447,-187500.02235174447,-187500.02235174447,1730329896.1329367,1730329894.6570528,3000
-2637.5952527040545,-187500.02235174447,4083.3284358177702,-187500.02235174447,-187500.02235174447,-187500.02235174447,-187500.02235174447,-187500.02235174447,1730329896.1363463,1730329894.6570528,3000
-2652.615624978021,-187500.02235174447,4051.007813335397,-187500.02235174447,-187500.02235174447,-187500.02235174447,-187500.02235174447,-187500.02235174447,1730329896.1419673,1730329894.6570528,3000
-2578.430185130857,-187500.02235174447,4075.348863047226,-187500.02235174447,-187500.02235174447,-187500.02235174447,-187500.02235174447,-187500.02235174447,1730329896.1456928,1730329894.6570528,3000
-2542.086248646528,-187500.02235174447,4139.610128356234,-187500.02235174447,-187500.02235174447,-187500.02235174447,-187500.02235174447,-187500.02235174447,1730329896.1499608,1730329894.6570528,3000
-2600.8266330750744,-187500.02235174447,4112.05042744284,-187500.02235174447,-187500.02235174447,-187500.02235174447,-187500.02235174447,-187500.02235174447,1730329896.1524684,1730329894.6570528,3000
-2661.6904332268755,-187500.02235174447,4020.2518129648943,-187500.02235174447,-187500.02235174447,-187500.02235174447,-187500.02235174447,-187500.02235174447,1730329896.1570811,1730329894.6570528,3000
-2606.548679655633,-187500.02235174447,4081.182668350061,-187500.02235174447,-187500.02235174447,-187500.02235174447,-187500.02235174447,-187500.02235174447,1730329896.1604817,1730329894.6570528,3000
-2547.584777782533,-187500.02235174447,4200.518631996945,-187500.02235174447,-187500.02235174447,-187500.02235174447,-187500.02235174447,-187500.02235174447,1730329896.1646144,1730329894.6570528,3000
-2613.723589625786,-187500.02235174447,4271.977159020563,-187500.02235174447,-187500.02235174447,-187500.02235174447,-187500.02235174447,-187500.02235174447,1730329896.169422,1730329894.6570528,3000
-2682.075224170116,-187500.02235174447,4135.6762213321,-187500.02235174447,-187500.02235174447,-187500.02235174447,-187500.02235174447,-187500.02235174447,1730329896.173659,1730329894.6570528,3000
-2585.5603916121,-187500.02235174447,4012.182833216528,-187500.02235174447,-187500.02235174447,-187500.02235174447,-187500.02235174447,-187500.02235174447,1730329896.1766567,1730329894.6570528,3000
-2528.965774651262,-187500.02235174447,3975.2353996319057,-187500.02235174447,-187500.02235174447,-187500.02235174447,-187500.02235174447,-187500.02235174447,1730329896.1807604,1730329894.6570528,3000
-2585.918019523385,-187500.02235174447,4072.957226390509,-187500.02235174447,-187500.02235174447,-187500.02235174447,-187500.02235174447,-187500.02235174447,1730329896.184624,1730329894.6570528,3000
-2696.670913299431,-187500.02235174447,4105.09903491724,-187500.02235174447,-187500.02235174447,-187500.02235174447,-187500.02235174447,-187500.02235174447,1730329896.188953,1730329894.6570528,3000
-2637.5952527040545,-187500.02235174447,4180.178544542617,-187500.02235174447,-187500.02235174447,-187500.02235174447,-187500.02235174447,-187500.02235174447,1730329896.192704,1730329894.6570528,3000
-2548.3223853495583,-187500.02235174447,4197.5905534733,-187500.02235174447,-187500.02235174447,-187500.02235174447,-187500.02235174447,-187500.02235174447,1730329896.1969864,1730329894.6570528,3000
-2578.6313508309545,-187500.02235174447,4152.127105251206,-187500.02235174447,-187500.02235174447,-187500.02235174447,-187500.02235174447,-187500.02235174447,1730329896.201616,1730329894.6570528,3000
-2654.359061045535,-187500.02235174447,4156.284529719893,-187500.02235174447,-187500.02235174447,-187500.02235174447,-187500.02235174447,-187500.02235174447,1730329896.2046983,1730329894.6570528,3000
-2655.4095930349345,-187500.02235174447,4049.979633090453,-187500.02235174447,-187500.02235174447,-187500.02235174447,-187500.02235174447,-187500.02235174447,1730329896.2089715,1730329894.6570528,3000
-2572.685786805843,-187500.02235174447,4076.2205810809833,-187500.02235174447,-187500.02235174447,-187500.02235174447,-187500.02235174447,-187500.02235174447,1730329896.212824,1730329894.6570528,3000
-2583.235810188748,-187500.02235174447,4083.686063729056,-187500.02235174447,-187500.02235174447,-187500.02235174447,-187500.02235174447,-187500.02235174447,1730329896.2168562,1730329894.6570528,3000
-2644.881921396485,-187500.02235174447,4061.110801829196,-187500.02235174447,-187500.02235174447,-187500.02235174447,-187500.02235174447,-187500.02235174447,1730329896.220744,1730329894.6570528,3000
-2677.67193051242,-187500.02235174447,4069.448002511025,-187500.02235174447,-187500.02235174447,-187500.02235174447,-187500.02235174447,-187500.02235174447,1730329896.2247024,1730329894.6570528,3000
-2579.8606967759965,-187500.02235174447,4063.27892104136,-187500.02235174447,-187500.02235174447,-187500.02235174447,-187500.02235174447,-187500.02235174447,1730329896.23011,1730329894.6570528,3000
-2573.870429261974,-187500.02235174447,4163.794715856876,-187500.02235174447,-187500.02235174447,-187500.02235174447,-187500.02235174447,-187500.02235174447,1730329896.2330906,1730329894.6570528,3000
-2648.458200509334,-187500.02235174447,4211.02395189094,-187500.02235174447,-187500.02235174447,-187500.02235174447,-187500.02235174447,-187500.02235174447,1730329896.236518,1730329894.6570528,3000
-2639.204578304837,-187500.02235174447,4036.702696884,-187500.02235174447,-187500.02235174447,-187500.02235174447,-187500.02235174447,-187500.02235174447,1730329896.2408144,1730329894.6570528,3000
-2551.809257484586,-187500.02235174447,4019.849481564698,-187500.02235174447,-187500.02235174447,-187500.02235174447,-187500.02235174447,-187500.02235174447,1730329896.244495,1730329894.6570528,3000
-2520.539166991612,-187500.02235174447,4195.2212685610375,-187500.02235174447,-187500.02235174447,-187500.02235174447,-187500.02235174447,-187500.02235174447,1730329896.24912,1730329894.6570528,3000
-2619.870319350996,-187500.02235174447,4280.649635869221,-187500.02235174447,-187500.02235174447,-187500.02235174447,-187500.02235174447,-187500.02235174447,1730329896.2525804,1730329894.6570528,3000
-2695.083939443105,-187500.02235174447,4189.7003876805775,-187500.02235174447,-187500.02235174447,-187500.02235174447,-187500.02235174447,-187500.02235174447,1730329896.258114,1730329894.6570528,3000
-2603.262973220703,-187500.02235174447,4051.387792991137,-187500.02235174447,-187500.02235174447,-187500.02235174447,-187500.02235174447,-187500.02235174447,1730329896.2605755,1730329894.6570528,3000
-2542.041545157617,-187500.02235174447,3911.711741889923,-187500.02235174447,-187500.02235174447,-187500.02235174447,-187500.02235174447,-187500.02235174447,1730329896.2648184,1730329894.6570528,3000
-2597.2056504733146,-187500.02235174447,4045.889263855132,-187500.02235174447,-187500.02235174447,-187500.02235174447,-187500.02235174447,-187500.02235174447,1730329896.268577,1730329894.6570528,3000
-2702.012980224249,-187500.02235174447,4145.958023781541,-187500.02235174447,-187500.02235174447,-187500.02235174447,-187500.02235174447,-187500.02235174447,1730329896.2731676,1730329894.6570528,3000
-2639.3386887715687,-187500.02235174447,4205.793643688398,-187500.02235174447,-187500.02235174447,-187500.02235174447,-187500.02235174447,-187500.02235174447,1730329896.27668,1730329894.6570528,3000
-2536.051277643595,-187500.02235174447,4040.32367948576,-187500.02235174447,-187500.02235174447,-187500.02235174447,-187500.02235174447,-187500.02235174447,1730329896.2808764,1730329894.6570528,3000
-2583.012292744195,-187500.02235174447,4008.852423292688,-187500.02235174447,-187500.02235174447,-187500.02235174447,-187500.02235174447,-187500.02235174447,1730329896.285598,1730329894.6570528,3000
-2667.5018867852555,-187500.02235174447,4091.6656364996,-187500.02235174447,-187500.02235174447,-187500.02235174447,-187500.02235174447,-187500.02235174447,1730329896.2888453,1730329894.6570528,3000
-2635.650650936443,-187500.02235174447,4044.6599179100895,-187500.02235174447,-187500.02235174447,-187500.02235174447,-187500.02235174447,-187500.02235174447,1730329896.293103,1730329894.6570528,3000
-2567.008443714195,-187500.02235174447,4113.972677465997,-187500.02235174447,-187500.02235174447,-187500.02235174447,-187500.02235174447,-187500.02235174447,1730329896.296992,1730329894.6570528,3000
-2567.455478603301,-187500.02235174447,4181.989035843496,-187500.02235174447,-187500.02235174447,-187500.02235174447,-187500.02235174447,-187500.02235174447,1730329896.3011312,1730329894.6570528,3000
-2658.404726791945,-187500.02235174447,4162.587721656289,-187500.02235174447,-187500.02235174447,-187500.02235174447,-187500.02235174447,-187500.02235174447,1730329896.3046856,1730329894.6570528,3000
-2664.8196774506187,-187500.02235174447,4018.508376897381,-187500.02235174447,-187500.02235174447,-187500.02235174447,-187500.02235174447,-187500.02235174447,1730329896.3098156,1730329894.6570528,3000
-2588.399063157924,-187500.02235174447,3996.357798142171,-187500.02235174447,-187500.02235174447,-187500.02235174447,-187500.02235174447,-187500.02235174447,1730329896.3128407,1730329894.6570528,3000
-2602.882993564963,-187500.02235174447,4167.058070547351,-187500.02235174447,-187500.02235174447,-187500.02235174447,-187500.02235174447,-187500.02235174447,1730329896.315833,1730329894.6570528,3000
-2697.587334822099,-187500.02235174447,4287.489269672546,-187500.02235174447,-187500.02235174447,-187500.02235174447,-187500.02235174447,-187500.02235174447,1730329896.3208587,1730329894.6570528,3000
-2659.0305756366943,-187500.02235174447,4052.8853598696414,-187500.02235174447,-187500.02235174447,-187500.02235174447,-187500.02235174447,-187500.02235174447,1730329896.32476,1730329894.6570528,3000
-2560.3029203776027,-187500.02235174447,3897.898363816543,-187500.02235174447,-187500.02235174447,-187500.02235174447,-187500.02235174447,-187500.02235174447,1730329896.329048,1730329894.6570528,3000
-2566.472001847268,-187500.02235174447,3991.8650975066544,-187500.02235174447,-187500.02235174447,-187500.02235174447,-187500.02235174447,-187500.02235174447,1730329896.3331635,1730329894.6570528,3000
-2646.401840019445,-187500.02235174447,4125.9532124940415,-187500.02235174447,-187500.02235174447,-187500.02235174447,-187500.02235174447,-187500.02235174447,1730329896.3367903,1730329894.6570528,3000
-2680.5329538026995,-187500.02235174447,4162.207742000549,-187500.02235174447,-187500.02235174447,-187500.02235174447,-187500.02235174447,-187500.02235174447,1730329896.3412316,1730329894.6570528,3000
-2568.8189350150747,-187500.02235174447,4000.2470016773946,-187500.02235174447,-187500.02235174447,-187500.02235174447,-187500.02235174447,-187500.02235174447,1730329896.3438528,1730329894.6570528,3000
-2537.079457888539,-187500.02235174447,3957.9575011679535,-187500.02235174447,-187500.02235174447,-187500.02235174447,-187500.02235174447,-187500.02235174447,1730329896.347715,1730329894.6570528,3000
-2639.3386887715687,-187500.02235174447,4055.276996526361,-187500.02235174447,-187500.02235174447,-187500.02235174447,-187500.02235174447,-187500.02235174447,1730329896.3527298,1730329894.6570528,3000
-2666.4737065403115,-187500.02235174447,4085.2953893298377,-187500.02235174447,-187500.02235174447,-187500.02235174447,-187500.02235174447,-187500.02235174447,1730329896.3569798,1730329894.6570528,3000
-2606.816900589097,-187500.02235174447,4055.880493626654,-187500.02235174447,-187500.02235174447,-187500.02235174447,-187500.02235174447,-187500.02235174447,1730329896.360673,1730329894.6570528,3000
-2555.1620191528823,-187500.02235174447,4015.5355948848246,-187500.02235174447,-187500.02235174447,-187500.02235174447,-187500.02235174447,-187500.02235174447,1730329896.3648891,1730329894.6570528,3000
-2600.0443220191387,-187500.02235174447,4065.312929786793,-187500.02235174447,-187500.02235174447,-187500.02235174447,-187500.02235174447,-187500.02235174447,1730329896.3687572,1730329894.6570528,3000
-2698.861384256051,-187500.02235174447,4086.2341625969607,-187500.02235174447,-187500.02235174447,-187500.02235174447,-187500.02235174447,-187500.02235174447,1730329896.3722515,1730329894.6570528,3000
-2647.43002026439,-187500.02235174447,4142.515855135423,-187500.02235174447,-187500.02235174447,-187500.02235174447,-187500.02235174447,-187500.02235174447,1730329896.3765016,1730329894.6570528,3000
-2546.534245793134,-187500.02235174447,4224.434998564124,-187500.02235174447,-187500.02235174447,-187500.02235174447,-187500.02235174447,-187500.02235174447,1730329896.3810592,1730329894.6570528,3000
-2588.2873044356475,-187500.02235174447,4052.795952891821,-187500.02235174447,-187500.02235174447,-187500.02235174447,-187500.02235174447,-187500.02235174447,1730329896.384833,1730329894.6570528,3000
-2662.584503005088,-187500.02235174447,4003.733873812422,-187500.02235174447,-187500.02235174447,-187500.02235174447,-187500.02235174447,-187500.02235174447,1730329896.3890364,1730329894.6570528,3000
-2639.115171327016,-187500.02235174447,3994.949638241487,-187500.02235174447,-187500.02235174447,-187500.02235174447,-187500.02235174447,-187500.02235174447,1730329896.3930163,1730329894.6570528,3000
-2547.4059638268905,-187500.02235174447,4040.3013277413047,-187500.02235174447,-187500.02235174447,-187500.02235174447,-187500.02235174447,-187500.02235174447,1730329896.3973303,1730329894.6570528,3000
-2592.981170771261,-187500.02235174447,4139.163093467128,-187500.02235174447,-187500.02235174447,-187500.02235174447,-187500.02235174447,-187500.02235174447,1730329896.4002552,1730329894.6570528,3000
-2680.4882503137887,-187500.02235174447,4164.82289610182,-187500.02235174447,-187500.02235174447,-187500.02235174447,-187500.02235174447,-187500.02235174447,1730329896.4039557,1730329894.6570528,3000
-2671.972235676317,-187500.02235174447,4036.076848039252,-187500.02235174447,-187500.02235174447,-187500.02235174447,-187500.02235174447,-187500.02235174447,1730329896.4088986,1730329894.6570528,3000
-2545.394306825913,-187500.02235174447,3954.604739499657,-187500.02235174447,-187500.02235174447,-187500.02235174447,-187500.02235174447,-187500.02235174447,1730329896.41351,1730329894.6570528,3000
-2535.9618706657734,-187500.02235174447,4018.866004808666,-187500.02235174447,-187500.02235174447,-187500.02235174447,-187500.02235174447,-187500.02235174447,1730329896.4171057,1730329894.6570528,3000
-2681.449375325367,-187500.02235174447,4052.460676724992,-187500.02235174447,-187500.02235174447,-187500.02235174447,-187500.02235174447,-187500.02235174447,1730329896.4215207,1730329894.6570528,3000
-2699.3978261229786,-187500.02235174447,4025.862100823176,-187500.02235174447,-187500.02235174447,-187500.02235174447,-187500.02235174447,-187500.02235174447,1730329896.4241383,1730329894.6570528,3000
-2600.938391797351,-187500.02235174447,4065.379985020159,-187500.02235174447,-187500.02235174447,-187500.02235174447,-187500.02235174447,-187500.02235174447,1730329896.4278958,1730329894.6570528,3000
-2562.068708189572,-187500.02235174447,4208.2523355784815,-187500.02235174447,-187500.02235174447,-187500.02235174447,-187500.02235174447,-187500.02235174447,1730329896.4324815,1730329894.6570528,3000
-2635.516540469711,-187500.02235174447,4253.179341933649,-187500.02235174447,-187500.02235174447,-187500.02235174447,-187500.02235174447,-187500.02235174447,1730329896.4359255,1730329894.6570528,3000
-2667.390128062979,-187500.02235174447,4041.6647841530794,-187500.02235174447,-187500.02235174447,-187500.02235174447,-187500.02235174447,-187500.02235174447,1730329896.4411051,1730329894.6570528,3000
-2631.80615089013,-187500.02235174447,3945.105248106152,-187500.02235174447,-187500.02235174447,-187500.02235174447,-187500.02235174447,-187500.02235174447,1730329896.4448583,1730329894.6570528,3000
-2583.615789844488,-187500.02235174447,4022.8446153217096,-187500.02235174447,-187500.02235174447,-187500.02235174447,-187500.02235174447,-187500.02235174447,1730329896.4484742,1730329894.6570528,3000
-2636.075334081094,-187500.02235174447,4075.930008403064,-187500.02235174447,-187500.02235174447,-187500.02235174447,-187500.02235174447,-187500.02235174447,1730329896.4518716,1730329894.6570528,3000
-2666.697223984864,-187500.02235174447,4038.244967251416,-187500.02235174447,-187500.02235174447,-187500.02235174447,-187500.02235174447,-187500.02235174447,1730329896.4561064,1730329894.6570528,3000
-2615.3999704599346,-187500.02235174447,4024.565699644768,-187500.02235174447,-187500.02235174447,-187500.02235174447,-187500.02235174447,-187500.02235174447,1730329896.4598365,1730329894.6570528,3000
-2556.5701790535663,-187500.02235174447,4093.207906867016,-187500.02235174447,-187500.02235174447,-187500.02235174447,-187500.02235174447,-187500.02235174447,1730329896.464383,1730329894.6570528,3000
-2577.044376974628,-187500.02235174447,4198.618733718245,-187500.02235174447,-187500.02235174447,-187500.02235174447,-187500.02235174447,-187500.02235174447,1730329896.468887,1730329894.6570528,3000
-2653.3755842895016,-187500.02235174447,4151.389497684181,-187500.02235174447,-187500.02235174447,-187500.02235174447,-187500.02235174447,-187500.02235174447,1730329896.4734752,1730329894.6570528,3000
-2641.640918450465,-187500.02235174447,4004.9185162685535,-187500.02235174447,-187500.02235174447,-187500.02235174447,-187500.02235174447,-187500.02235174447,1730329896.4761214,1730329894.6570528,3000
-2601.7654063421974,-187500.02235174447,3982.410309602059,-187500.02235174447,-187500.02235174447,-187500.02235174447,-187500.02235174447,-187500.02235174447,1730329896.4804575,1730329894.6570528,3000
-2628.542796199655,-187500.02235174447,4117.839529256765,-187500.02235174447,-187500.02235174447,-187500.02235174447,-187500.02235174447,-187500.02235174447,1730329896.4840665,1730329894.6570528,3000
-2698.5037563447663,-187500.02235174447,4106.931877962575,-187500.02235174447,-187500.02235174447,-187500.02235174447,-187500.02235174447,-187500.02235174447,1730329896.4878566,1730329894.6570528,3000
-2656.080145368593,-187500.02235174447,4029.997173547408,-187500.02235174447,-187500.02235174447,-187500.02235174447,-187500.02235174447,-187500.02235174447,1730329896.4921412,1730329894.6570528,3000
-2553.2844726186363,-187500.02235174447,4067.190476321039,-187500.02235174447,-187500.02235174447,-187500.02235174447,-187500.02235174447,-187500.02235174447,1730329896.4974985,1730329894.6570528,3000
-2544.4331818143346,-187500.02235174447,4153.19998898506,-187500.02235174447,-187500.02235174447,-187500.02235174447,-187500.02235174447,-187500.02235174447,1730329896.5011191,1730329894.6570528,3000
-2642.803209162141,-187500.02235174447,4115.626706555689,-187500.02235174447,-187500.02235174447,-187500.02235174447,-187500.02235174447,-187500.02235174447,1730329896.504074,1730329894.6570528,3000
-2691.9323434749062,-187500.02235174447,4073.963054890997,-187500.02235174447,-187500.02235174447,-187500.02235174447,-187500.02235174447,-187500.02235174447,1730329896.508468,1730329894.6570528,3000
-2581.335911910047,-187500.02235174447,4094.7501772344326,-187500.02235174447,-187500.02235174447,-187500.02235174447,-187500.02235174447,-187500.02235174447,1730329896.5120742,1730329894.6570528,3000
-2569.981225726751,-187500.02235174447,3972.6873007640006,-187500.02235174447,-187500.02235174447,-187500.02235174447,-187500.02235174447,-187500.02235174447,1730329896.5164316,1730329894.6570528,3000
-2654.1578953454373,-187500.02235174447,3991.105138195174,-187500.02235174447,-187500.02235174447,-187500.02235174447,-187500.02235174447,-187500.02235174447,1730329896.5200715,1730329894.6570528,3000
-2675.3697008335234,-187500.02235174447,4029.41602819157,-187500.02235174447,-187500.02235174447,-187500.02235174447,-187500.02235174447,-187500.02235174447,1730329896.5250094,1730329894.6570528,3000
-2597.4962231512336,-187500.02235174447,4083.663711984601,-187500.02235174447,-187500.02235174447,-187500.02235174447,-187500.02235174447,-187500.02235174447,1730329896.5292554,1730329894.6570528,3000
-2558.4030220989016,-187500.02235174447,4168.10860253675,-187500.02235174447,-187500.02235174447,-187500.02235174447,-187500.02235174447,-187500.02235174447,1730329896.5324736,1730329894.6570528,3000
-2636.656479436932,-187500.02235174447,4231.498149812001,-187500.02235174447,-187500.02235174447,-187500.02235174447,-187500.02235174447,-187500.02235174447,1730329896.5359466,1730329894.6570528,3000
-2689.7195207738305,-187500.02235174447,3999.799966788288,-187500.02235174447,-187500.02235174447,-187500.02235174447,-187500.02235174447,-187500.02235174447,1730329896.5404797,1730329894.6570528,3000
-2616.7634268717084,-187500.02235174447,3892.57864863618,-187500.02235174447,-187500.02235174447,-187500.02235174447,-187500.02235174447,-187500.02235174447,1730329896.5440023,1730329894.6570528,3000
-2561.107583177994,-187500.02235174447,4038.803760862799,-187500.02235174447,-187500.02235174447,-187500.02235174447,-187500.02235174447,-187500.02235174447,1730329896.5484996,1730329894.6570528,3000
-2642.4455812508563,-187500.02235174447,4085.228334096472,-187500.02235174447,-187500.02235174447,-187500.02235174447,-187500.02235174447,-187500.02235174447,1730329896.5530033,1730329894.6570528,3000
-2717.0557042426717,-187500.02235174447,4079.5956944937343,-187500.02235174447,-187500.02235174447,-187500.02235174447,-187500.02235174447,-187500.02235174447,1730329896.5566175,1730329894.6570528,3000
-2644.5019417407443,-187500.02235174447,4109.547032063846,-187500.02235174447,-187500.02235174447,-187500.02235174447,-187500.02235174447,-187500.02235174447,1730329896.5595646,1730329894.6570528,3000
-2565.443821602324,-187500.02235174447,4136.369125410214,-187500.02235174447,-187500.02235174447,-187500.02235174447,-187500.02235174447,-187500.02235174447,1730329896.5645127,1730329894.6570528,3000
-2619.736208884264,-187500.02235174447,4103.042674427352,-187500.02235174447,-187500.02235174447,-187500.02235174447,-187500.02235174447,-187500.02235174447,1730329896.5683951,1730329894.6570528,3000
-2687.3278841171127,-187500.02235174447,4101.299238359838,-187500.02235174447,-187500.02235174447,-187500.02235174447,-187500.02235174447,-187500.02235174447,1730329896.5724957,1730329894.6570528,3000
-2631.068543323105,-187500.02235174447,3969.245132117884,-187500.02235174447,-187500.02235174447,-187500.02235174447,-187500.02235174447,-187500.02235174447,1730329896.5761716,1730329894.6570528,3000
-2567.455478603301,-187500.02235174447,4031.22651949245,-187500.02235174447,-187500.02235174447,-187500.02235174447,-187500.02235174447,-187500.02235174447,1730329896.58164,1730329894.6570528,3000
-2571.255275160703,-187500.02235174447,4116.207851911528,-187500.02235174447,-187500.02235174447,-187500.02235174447,-187500.02235174447,-187500.02235174447,1730329896.5844543,1730329894.6570528,3000
-2690.8594597410515,-187500.02235174447,4019.156577486584,-187500.02235174447,-187500.02235174447,-187500.02235174447,-187500.02235174447,-187500.02235174447,1730329896.5872593,1730329894.6570528,3000
-2672.4416223098783,-187500.02235174447,4011.0875977382175,-187500.02235174447,-187500.02235174447,-187500.02235174447,-187500.02235174447,-187500.02235174447,1730329896.5924675,1730329894.6570528,3000
-2537.5935480110106,-187500.02235174447,4071.370252534181,-187500.02235174447,-187500.02235174447,-187500.02235174447,-187500.02235174447,-187500.02235174447,1730329896.5965347,1730329894.6570528,3000
-2543.8296847140414,-187500.02235174447,4134.91626202062,-187500.02235174447,-187500.02235174447,-187500.02235174447,-187500.02235174447,-187500.02235174447,1730329896.6005435,1730329894.6570528,3000
-2675.6602735114425,-187500.02235174447,4239.03068769344,-187500.02235174447,-187500.02235174447,-187500.02235174447,-187500.02235174447,-187500.02235174447,1730329896.604117,1730329894.6570528,3000
-2661.489267526778,-187500.02235174447,4071.213790322994,-187500.02235174447,-187500.02235174447,-187500.02235174447,-187500.02235174447,-187500.02235174447,1730329896.609608,1730329894.6570528,3000
-2587.0132550016947,-187500.02235174447,3919.803073382744,-187500.02235174447,-187500.02235174447,-187500.02235174447,-187500.02235174447,-187500.02235174447,1730329896.6123664,1730329894.6570528,3000
-2594.5010893942226,-187500.02235174447,4022.8446153217096,-187500.02235174447,-187500.02235174447,-187500.02235174447,-187500.02235174447,-187500.02235174447,1730329896.6153295,1730329894.6570528,3000
-2658.807058192141,-187500.02235174447,4075.058290369307,-187500.02235174447,-187500.02235174447,-187500.02235174447,-187500.02235174447,-187500.02235174447,1730329896.620155,1730329894.6570528,3000
-2684.802136993663,-187500.02235174447,4054.539388959335,-187500.02235174447,-187500.02235174447,-187500.02235174447,-187500.02235174447,-187500.02235174447,1730329896.6241431,1730329894.6570528,3000
-2604.1793947433707,-187500.02235174447,4065.134115831151,-187500.02235174447,-187500.02235174447,-187500.02235174447,-187500.02235174447,-187500.02235174447,1730329896.6282475,1730329894.6570528,3000
-2569.1542111819044,-187500.02235174447,4122.242822914461,-187500.02235174447,-187500.02235174447,-187500.02235174447,-187500.02235174447,-187500.02235174447,1730329896.6323965,1730329894.6570528,3000
-2641.0597730946274,-187500.02235174447,4099.1311191476725,-187500.02235174447,-187500.02235174447,-187500.02235174447,-187500.02235174447,-187500.02235174447,1730329896.6360924,1730329894.6570528,3000
-2675.704977000353,-187500.02235174447,4195.35537902777,-187500.02235174447,-187500.02235174447,-187500.02235174447,-187500.02235174447,-187500.02235174447,1730329896.640457,1730329894.6570528,3000
-2579.883048520452,-187500.02235174447,4096.1359853906615,-187500.02235174447,-187500.02235174447,-187500.02235174447,-187500.02235174447,-187500.02235174447,1730329896.6431615,1730329894.6570528,3000
-2548.0318126716397,-187500.02235174447,3907.8225383547,-187500.02235174447,-187500.02235174447,-187500.02235174447,-187500.02235174447,-187500.02235174447,1730329896.6474378,1730329894.6570528,3000
-2611.957801813817,-187500.02235174447,4013.322772183749,-187500.02235174447,-187500.02235174447,-187500.02235174447,-187500.02235174447,-187500.02235174447,1730329896.652182,1730329894.6570528,3000
-2713.0100384962607,-187500.02235174447,4090.324531832282,-187500.02235174447,-187500.02235174447,-187500.02235174447,-187500.02235174447,-187500.02235174447,1730329896.6564443,1730329894.6570528,3000
-2654.7613924457305,-187500.02235174447,4077.7181479594888,-187500.02235174447,-187500.02235174447,-187500.02235174447,-187500.02235174447,-187500.02235174447,1730329896.660124,1730329894.6570528,3000
-2579.2571996757038,-187500.02235174447,4089.050482398329,-187500.02235174447,-187500.02235174447,-187500.02235174447,-187500.02235174447,-187500.02235174447,1730329896.6642497,1730329894.6570528,3000
-2641.2162353058143,-187500.02235174447,4137.15143646615,-187500.02235174447,-187500.02235174447,-187500.02235174447,-187500.02235174447,-187500.02235174447,1730329896.667428,1730329894.6570528,3000
-2725.5046636467773,-187500.02235174447,4086.122403874684,-187500.02235174447,-187500.02235174447,-187500.02235174447,-187500.02235174447,-187500.02235174447,1730329896.6718926,1730329894.6570528,3000
-2640.3445172720576,-187500.02235174447,4099.1311191476725,-187500.02235174447,-187500.02235174447,-187500.02235174447,-187500.02235174447,-187500.02235174447,1730329896.6764257,1730329894.6570528,3000
-2543.270891102659,-187500.02235174447,4145.309823192337,-187500.02235174447,-187500.02235174447,-187500.02235174447,-187500.02235174447,-187500.02235174447,1730329896.680426,1730329894.6570528,3000
-2585.694502078832,-187500.02235174447,4084.513078273902,-187500.02235174447,-187500.02235174447,-187500.02235174447,-187500.02235174447,-187500.02235174447,1730329896.6845608,1730329894.6570528,3000
-2684.19863989337,-187500.02235174447,3982.3432543686936,-187500.02235174447,-187500.02235174447,-187500.02235174447,-187500.02235174447,-187500.02235174447,1730329896.688811,1730329894.6570528,3000
-2653.420287778412,-187500.02235174447,4017.211975718973,-187500.02235174447,-187500.02235174447,-187500.02235174447,-187500.02235174447,-187500.02235174447,1730329896.6916168,1730329894.6570528,3000
-2558.425373843357,-187500.02235174447,4038.6249469071568,-187500.02235174447,-187500.02235174447,-187500.02235174447,-187500.02235174447,-187500.02235174447,1730329896.695221,1730329894.6570528,3000
-2567.7907547701307,-187500.02235174447,4145.801561570354,-187500.02235174447,-187500.02235174447,-187500.02235174447,-187500.02235174447,-187500.02235174447,1730329896.6994743,1730329894.6570528,3000
-2642.557339973133,-187500.02235174447,4173.942407839586,-187500.02235174447,-187500.02235174447,-187500.02235174447,-187500.02235174447,-187500.02235174447,1730329896.7031498,1730329894.6570528,3000
-2655.320186057113,-187500.02235174447,4118.934764735075,-187500.02235174447,-187500.02235174447,-187500.02235174447,-187500.02235174447,-187500.02235174447,1730329896.708788,1730329894.6570528,3000
-2593.629371360465,-187500.02235174447,4049.2420255234274,-187500.02235174447,-187500.02235174447,-187500.02235174447,-187500.02235174447,-187500.02235174447,1730329896.7124643,1730329894.6570528,3000
-2564.169772168371,-187500.02235174447,4089.743386476444,-187500.02235174447,-187500.02235174447,-187500.02235174447,-187500.02235174447,-187500.02235174447,1730329896.7166102,1730329894.6570528,3000
-2670.854648453552,-187500.02235174447,4104.875517472687,-187500.02235174447,-187500.02235174447,-187500.02235174447,-187500.02235174447,-187500.02235174447,1730329896.719214,1730329894.6570528,3000
-2688.713692273342,-187500.02235174447,4069.492705999936,-187500.02235174447,-187500.02235174447,-187500.02235174447,-187500.02235174447,-187500.02235174447,1730329896.7235043,1730329894.6570528,3000
-2615.131749526471,-187500.02235174447,3986.5006788373807,-187500.02235174447,-187500.02235174447,-187500.02235174447,-187500.02235174447,-187500.02235174447,1730329896.727285,1730329894.6570528,3000
-2563.2533506457034,-187500.02235174447,4086.412976552603,-187500.02235174447,-187500.02235174447,-187500.02235174447,-187500.02235174447,-187500.02235174447,1730329896.7319307,1730329894.6570528,3000
-2639.271633538203,-187500.02235174447,4167.639215903189,-187500.02235174447,-187500.02235174447,-187500.02235174447,-187500.02235174447,-187500.02235174447,1730329896.7364173,1730329894.6570528,3000
-2666.876037940506,-187500.02235174447,4087.150584119628,-187500.02235174447,-187500.02235174447,-187500.02235174447,-187500.02235174447,-187500.02235174447,1730329896.740482,1730329894.6570528,3000
-2608.582688401066,-187500.02235174447,4051.27603426886,-187500.02235174447,-187500.02235174447,-187500.02235174447,-187500.02235174447,-187500.02235174447,1730329896.7442763,1730329894.6570528,3000
-2581.671188076876,-187500.02235174447,4148.886102305187,-187500.02235174447,-187500.02235174447,-187500.02235174447,-187500.02235174447,-187500.02235174447,1730329896.7475286,1730329894.6570528,3000
-2621.5914036740546,-187500.02235174447,4151.009518028441,-187500.02235174447,-187500.02235174447,-187500.02235174447,-187500.02235174447,-187500.02235174447,1730329896.751546,1730329894.6570528,3000
-2701.7894627796964,-187500.02235174447,4161.917169322631,-187500.02235174447,-187500.02235174447,-187500.02235174447,-187500.02235174447,-187500.02235174447,1730329896.75557,1730329894.6570528,3000
-2651.185113332881,-187500.02235174447,4116.543128078357,-187500.02235174447,-187500.02235174447,-187500.02235174447,-187500.02235174447,-187500.02235174447,1730329896.7594855,1730329894.6570528,3000
-2572.283455405648,-187500.02235174447,4169.852038604265,-187500.02235174447,-187500.02235174447,-187500.02235174447,-187500.02235174447,-187500.02235174447,1730329896.764437,1730329894.6570528,3000
-2602.815938331597,-187500.02235174447,4106.931877962575,-187500.02235174447,-187500.02235174447,-187500.02235174447,-187500.02235174447,-187500.02235174447,1730329896.768256,1730329894.6570528,3000
-2681.3376166030907,-187500.02235174447,4026.9796880459417,-187500.02235174447,-187500.02235174447,-187500.02235174447,-187500.02235174447,-187500.02235174447,1730329896.7725792,1730329894.6570528,3000
-2633.9742701022947,-187500.02235174447,4038.244967251416,-187500.02235174447,-187500.02235174447,-187500.02235174447,-187500.02235174447,-187500.02235174447,1730329896.7756157,1730329894.6570528,3000
-2586.007426501206,-187500.02235174447,3970.250960618372,-187500.02235174447,-187500.02235174447,-187500.02235174447,-187500.02235174447,-187500.02235174447,1730329896.780008,1730329894.6570528,3000
-2614.0588657926164,-187500.02235174447,4070.610293222701,-187500.02235174447,-187500.02235174447,-187500.02235174447,-187500.02235174447,-187500.02235174447,1730329896.7835448,1730329894.6570528,3000
-2694.480442342811,-187500.02235174447,4159.056146032351,-187500.02235174447,-187500.02235174447,-187500.02235174447,-187500.02235174447,-187500.02235174447,1730329896.7879915,1730329894.6570528,3000
-2672.7321949877974,-187500.02235174447,4165.404041457658,-187500.02235174447,-187500.02235174447,-187500.02235174447,-187500.02235174447,-187500.02235174447,1730329896.7917027,1730329894.6570528,3000
-2542.7568009801867,-187500.02235174447,4091.196249866039,-187500.02235174447,-187500.02235174447,-187500.02235174447,-187500.02235174447,-187500.02235174447,1730329896.7968705,1730329894.6570528,3000
-2560.3252721220583,-187500.02235174447,4023.425760677548,-187500.02235174447,-187500.02235174447,-187500.02235174447,-187500.02235174447,-187500.02235174447,1730329896.799828,1730329894.6570528,3000
-2658.2706163252137,-187500.02235174447,4108.720017518999,-187500.02235174447,-187500.02235174447,-187500.02235174447,-187500.02235174447,-187500.02235174447,1730329896.8034787,1730329894.6570528,3000
-2673.7156717438306,-187500.02235174447,4141.733544079488,-187500.02235174447,-187500.02235174447,-187500.02235174447,-187500.02235174447,-187500.02235174447,1730329896.8076048,1730329894.6570528,3000
-2601.1172057529934,-187500.02235174447,4055.299348270816,-187500.02235174447,-187500.02235174447,-187500.02235174447,-187500.02235174447,-187500.02235174447,1730329896.8113563,1730329894.6570528,3000
-2563.5439233236225,-187500.02235174447,4063.7259559304666,-187500.02235174447,-187500.02235174447,-187500.02235174447,-187500.02235174447,-187500.02235174447,1730329896.8157887,1730329894.6570528,3000
-2644.5242934852,-187500.02235174447,4140.504198134447,-187500.02235174447,-187500.02235174447,-187500.02235174447,-187500.02235174447,-187500.02235174447,1730329896.8204486,1730329894.6570528,3000
-2700.224840667825,-187500.02235174447,4084.848354440732,-187500.02235174447,-187500.02235174447,-187500.02235174447,-187500.02235174447,-187500.02235174447,1730329896.824556,1730329894.6570528,3000
-2602.458310420312,-187500.02235174447,4018.240155963917,-187500.02235174447,-187500.02235174447,-187500.02235174447,-187500.02235174447,-187500.02235174447,1730329896.827428,1730329894.6570528,3000
-2568.550714081611,-187500.02235174447,4106.417787840103,-187500.02235174447,-187500.02235174447,-187500.02235174447,-187500.02235174447,-187500.02235174447,1730329896.8319228,1730329894.6570528,3000
-2651.5203894997107,-187500.02235174447,4169.382651970703,-187500.02235174447,-187500.02235174447,-187500.02235174447,-187500.02235174447,-187500.02235174447,1730329896.8353672,1730329894.6570528,3000
-2681.1364509029927,-187500.02235174447,4116.073741444796,-187500.02235174447,-187500.02235174447,-187500.02235174447,-187500.02235174447,-187500.02235174447,1730329896.839688,1730329894.6570528,3000
-2643.049078351149,-187500.02235174447,4029.505435169391,-187500.02235174447,-187500.02235174447,-187500.02235174447,-187500.02235174447,-187500.02235174447,1730329896.8433657,1730329894.6570528,3000
-2580.218324687281,-187500.02235174447,4098.952305192031,-187500.02235174447,-187500.02235174447,-187500.02235174447,-187500.02235174447,-187500.02235174447,1730329896.8476028,1730329894.6570528,3000
-2623.111322297016,-187500.02235174447,4106.417787840103,-187500.02235174447,-187500.02235174447,-187500.02235174447,-187500.02235174447,-187500.02235174447,1730329896.8523955,1730329894.6570528,3000
-2702.3706081355344,-187500.02235174447,4075.035938624852,-187500.02235174447,-187500.02235174447,-187500.02235174447,-187500.02235174447,-187500.02235174447,1730329896.8555696,1730329894.6570528,3000
-2647.9441103868617,-187500.02235174447,4039.6531271521008,-187500.02235174447,-187500.02235174447,-187500.02235174447,-187500.02235174447,-187500.02235174447,1730329896.8596318,1730329894.6570528,3000
-2587.1473654684264,-187500.02235174447,4033.5287491713466,-187500.02235174447,-187500.02235174447,-187500.02235174447,-187500.02235174447,-187500.02235174447,1730329896.8635664,1730329894.6570528,3000
-2602.927697053873,-187500.02235174447,4085.764775963399,-187500.02235174447,-187500.02235174447,-187500.02235174447,-187500.02235174447,-187500.02235174447,1730329896.867599,1730329894.6570528,3000
-2667.591293763077,-187500.02235174447,4193.231963304515,-187500.02235174447,-187500.02235174447,-187500.02235174447,-187500.02235174447,-187500.02235174447,1730329896.871381,1730329894.6570528,3000
-2672.9557124323505,-187500.02235174447,4190.25918129196,-187500.02235174447,-187500.02235174447,-187500.02235174447,-187500.02235174447,-187500.02235174447,1730329896.8755956,1730329894.6570528,3000
-2589.784871314153,-187500.02235174447,4100.204002881527,-187500.02235174447,-187500.02235174447,-187500.02235174447,-187500.02235174447,-187500.02235174447,1730329896.8805938,1730329894.6570528,3000
-2591.841231804041,-187500.02235174447,3975.838896732199,-187500.02235174447,-187500.02235174447,-187500.02235174447,-187500.02235174447,-187500.02235174447,1730329896.883588,1730329894.6570528,3000
-2673.425099065912,-187500.02235174447,4038.4461329515134,-187500.02235174447,-187500.02235174447,-187500.02235174447,-187500.02235174447,-187500.02235174447,1730329896.8873923,1730329894.6570528,3000
-2672.0839943985934,-187500.02235174447,4108.720017518999,-187500.02235174447,-187500.02235174447,-187500.02235174447,-187500.02235174447,-187500.02235174447,1730329896.8915267,1730329894.6570528,3000
-2582.1629264548933,-187500.02235174447,4075.639435725145,-187500.02235174447,-187500.02235174447,-187500.02235174447,-187500.02235174447,-187500.02235174447,1730329896.89561,1730329894.6570528,3000
-2564.9520832243065,-187500.02235174447,4073.1807438350615,-187500.02235174447,-187500.02235174447,-187500.02235174447,-187500.02235174447,-187500.02235174447,1730329896.8996322,1730329894.6570528,3000
-2650.425154021401,-187500.02235174447,4066.1846478205503,-187500.02235174447,-187500.02235174447,-187500.02235174447,-187500.02235174447,-187500.02235174447,1730329896.9035523,1730329894.6570528,3000
-2692.871116742029,-187500.02235174447,4039.541368429824,-187500.02235174447,-187500.02235174447,-187500.02235174447,-187500.02235174447,-187500.02235174447,1730329896.9077168,1730329894.6570528,3000
-2619.132711783971,-187500.02235174447,4075.125345602673,-187500.02235174447,-187500.02235174447,-187500.02235174447,-187500.02235174447,-187500.02235174447,1730329896.9104712,1730329894.6570528,3000
-2579.8606967759965,-187500.02235174447,4170.924922338119,-187500.02235174447,-187500.02235174447,-187500.02235174447,-187500.02235174447,-187500.02235174447,1730329896.915841,1730329894.6570528,3000
-2629.5039212112333,-187500.02235174447,4295.290028487448,-187500.02235174447,-187500.02235174447,-187500.02235174447,-187500.02235174447,-187500.02235174447,1730329896.9195704,1730329894.6570528,3000
-2691.8652882415404,-187500.02235174447,4088.201116109028,-187500.02235174447,-187500.02235174447,-187500.02235174447,-187500.02235174447,-187500.02235174447,1730329896.9239368,1730329894.6570528,3000
-2639.226930049292,-187500.02235174447,3976.330635110216,-187500.02235174447,-187500.02235174447,-187500.02235174447,-187500.02235174447,-187500.02235174447,1730329896.9275196,1730329894.6570528,3000
-2555.005556941695,-187500.02235174447,4057.199246549517,-187500.02235174447,-187500.02235174447,-187500.02235174447,-187500.02235174447,-187500.02235174447,1730329896.932082,1730329894.6570528,3000
-2623.357191486024,-187500.02235174447,4129.596546840256,-187500.02235174447,-187500.02235174447,-187500.02235174447,-187500.02235174447,-187500.02235174447,1730329896.935578,1730329894.6570528,3000
-2697.1179481885374,-187500.02235174447,4172.310730494348,-187500.02235174447,-187500.02235174447,-187500.02235174447,-187500.02235174447,-187500.02235174447,1730329896.9388328,1730329894.6570528,3000
-2645.261901052225,-187500.02235174447,4173.048338061373,-187500.02235174447,-187500.02235174447,-187500.02235174447,-187500.02235174447,-187500.02235174447,1730329896.9428475,1730329894.6570528,3000
-2556.4137168423795,-187500.02235174447,4096.404206324125,-187500.02235174447,-187500.02235174447,-187500.02235174447,-187500.02235174447,-187500.02235174447,1730329896.948146,1730329894.6570528,3000
-2615.3105634821136,-187500.02235174447,4060.999043106919,-187500.02235174447,-187500.02235174447,-187500.02235174447,-187500.02235174447,-187500.02235174447,1730329896.9514976,1730329894.6570528,3000
-2696.357988877057,-187500.02235174447,4103.020322682896,-187500.02235174447,-187500.02235174447,-187500.02235174447,-187500.02235174447,-187500.02235174447,1730329896.9562075,1730329894.6570528,3000
-2680.1753258914146,-187500.02235174447,4042.9611853314864,-187500.02235174447,-187500.02235174447,-187500.02235174447,-187500.02235174447,-187500.02235174447,1730329896.9597805,1730329894.6570528,3000
-2577.424356630368,-187500.02235174447,4073.672482213078,-187500.02235174447,-187500.02235174447,-187500.02235174447,-187500.02235174447,-187500.02235174447,1730329896.9632676,1730329894.6570528,3000
-2593.875240549474,-187500.02235174447,4214.667286237155,-187500.02235174447,-187500.02235174447,-187500.02235174447,-187500.02235174447,-187500.02235174447,1730329896.9670017,1730329894.6570528,3000
-2692.2005644083697,-187500.02235174447,4151.680070362099,-187500.02235174447,-187500.02235174447,-187500.02235174447,-187500.02235174447,-187500.02235174447,1730329896.9713347,1730329894.6570528,3000
-2675.4367560668893,-187500.02235174447,4034.8251503497545,-187500.02235174447,-187500.02235174447,-187500.02235174447,-187500.02235174447,-187500.02235174447,1730329896.9763129,1730329894.6570528,3000
-2593.18233647136,-187500.02235174447,4069.6715199555774,-187500.02235174447,-187500.02235174447,-187500.02235174447,-187500.02235174447,-187500.02235174447,1730329896.980296,1730329894.6570528,3000
-2586.610923601499,-187500.02235174447,4101.723921504488,-187500.02235174447,-187500.02235174447,-187500.02235174447,-187500.02235174447,-187500.02235174447,1730329896.9835584,1730329894.6570528,3000
-2673.4698025548223,-187500.02235174447,4215.6954664821,-187500.02235174447,-187500.02235174447,-187500.02235174447,-187500.02235174447,-187500.02235174447,1730329896.988199,1730329894.6570528,3000
-2703.6670093139423,-187500.02235174447,4213.504995525479,-187500.02235174447,-187500.02235174447,-187500.02235174447,-187500.02235174447,-187500.02235174447,1730329896.9912467,1730329894.6570528,3000
-2604.3358569545576,-187500.02235174447,4019.916536798065,-187500.02235174447,-187500.02235174447,-187500.02235174447,-187500.02235174447,-187500.02235174447,1730329896.9946623,1730329894.6570528,3000
-2564.6391588019324,-187500.02235174447,4066.408165265104,-187500.02235174447,-187500.02235174447,-187500.02235174447,-187500.02235174447,-187500.02235174447,1730329896.9988782,1730329894.6570528,3000
-2685.0703579271267,-187500.02235174447,4181.407890487658,-187500.02235174447,-187500.02235174447,-187500.02235174447,-187500.02235174447,-187500.02235174447,1730329897.002644,1730329894.6570528,3000
-2703.9128785029507,-187500.02235174447,4100.293409859349,-187500.02235174447,-187500.02235174447,-187500.02235174447,-187500.02235174447,-187500.02235174447,1730329897.0083396,1730329894.6570528,3000
-2629.459217722323,-187500.02235174447,4083.686063729056,-187500.02235174447,-187500.02235174447,-187500.02235174447,-187500.02235174447,-187500.02235174447,1730329897.0118797,1730329894.6570528,3000
-2581.4029671434128,-187500.02235174447,4118.6218403127,-187500.02235174447,-187500.02235174447,-187500.02235174447,-187500.02235174447,-187500.02235174447,1730329897.0159676,1730329894.6570528,3000
-2646.871226653007,-187500.02235174447,4099.220526125494,-187500.02235174447,-187500.02235174447,-187500.02235174447,-187500.02235174447,-187500.02235174447,1730329897.0187445,1730329894.6570528,3000
-2691.2617911412467,-187500.02235174447,4134.357468409236,-187500.02235174447,-187500.02235174447,-187500.02235174447,-187500.02235174447,-187500.02235174447,1730329897.0231595,1730329894.6570528,3000
-2622.619583918999,-187500.02235174447,4177.898666608175,-187500.02235174447,-187500.02235174447,-187500.02235174447,-187500.02235174447,-187500.02235174447,1730329897.0267446,1730329894.6570528,3000
-2535.045449143106,-187500.02235174447,4180.267951520437,-187500.02235174447,-187500.02235174447,-187500.02235174447,-187500.02235174447,-187500.02235174447,1730329897.0309927,1730329894.6570528,3000
-2610.102607024027,-187500.02235174447,4186.772309156931,-187500.02235174447,-187500.02235174447,-187500.02235174447,-187500.02235174447,-187500.02235174447,1730329897.0356853,1730329894.6570528,3000
-2713.166500707448,-187500.02235174447,4072.107860101207,-187500.02235174447,-187500.02235174447,-187500.02235174447,-187500.02235174447,-187500.02235174447,1730329897.0402968,1730329894.6570528,3000
-2646.155970830437,-187500.02235174447,4036.1439032726175,-187500.02235174447,-187500.02235174447,-187500.02235174447,-187500.02235174447,-187500.02235174447,1730329897.0429552,1730329894.6570528,3000
-2537.8841206889297,-187500.02235174447,4083.7307672179663,-187500.02235174447,-187500.02235174447,-187500.02235174447,-187500.02235174447,-187500.02235174447,1730329897.0469875,1730329894.6570528,3000
