Fp1,Fp2,C3,C4,P7,P8,O1,O2,time_board,time_marker,marker
3257.163257260711,-187500.02235174447,24713.899161088368,-187500.02235174447,-187500.02235174447,-187500.02235174447,-187500.02235174447,-187500.02235174447,1730409702.4284067,1730409702.427424,3000
3197.9534861986026,-187500.02235174447,24667.228718665687,-187500.02235174447,-187500.02235174447,-187500.02235174447,-187500.02235174447,-187500.02235174447,1730409702.4316869,1730409702.427424,3000
3238.4771988960742,-187500.02235174447,24720.42587046932,-187500.02235174447,-187500.02235174447,-187500.02235174447,-187500.02235174447,-187500.02235174447,1730409702.4356277,1730409702.427424,3000
3317.423560312219,-187500.02235174447,24794.879531249942,-187500.02235174447,-187500.02235174447,-187500.02235174447,-187500.02235174447,-187500.02235174447,1730409702.4407516,1730409702.427424,3000
3298.134004847289,-187500.02235174447,24769.71146699327,-187500.02235174447,-187500.02235174447,-187500.02235174447,-187500.02235174447,-187500.02235174447,1730409702.4433975,1730409702.427424,3000
3221.6910388101387,-187500.02235174447,24694.095515500965,-187500.02235174447,-187500.02235174447,-187500.02235174447,-187500.02235174447,-187500.02235174447,1730409702.447652,1730409702.427424,3000
3208.838785748337,-187500.02235174447,24702.27625397161,-187500.02235174447,-187500.02235174447,-187500.02235174447,-187500.02235174447,-187500.02235174447,1730409702.451555,1730409702.427424,3000
3311.522699776018,-187500.02235174447,24798.38875512943,-187500.02235174447,-187500.02235174447,-187500.02235174447,-187500.02235174447,-187500.02235174447,1730409702.456421,1730409702.427424,3000
3319.524624291018,-187500.02235174447,24787.078772435045,-187500.02235174447,-187500.02235174447,-187500.02235174447,-187500.02235174447,-187500.02235174447,1730409702.4596496,1730409702.427424,3000
3231.25758543701,-187500.02235174447,24696.30833820204,-187500.02235174447,-187500.02235174447,-187500.02235174447,-187500.02235174447,-187500.02235174447,1730409702.4634764,1730409702.427424,3000
3219.7911405314376,-187500.02235174447,24705.159629006343,-187500.02235174447,-187500.02235174447,-187500.02235174447,-187500.02235174447,-187500.02235174447,1730409702.4674451,1730409702.427424,3000
3289.1709553207106,-187500.02235174447,24782.36255435497,-187500.02235174447,-187500.02235174447,-187500.02235174447,-187500.02235174447,-187500.02235174447,1730409702.4715848,1730409702.427424,3000
3305.3089148174427,-187500.02235174447,24779.38977234242,-187500.02235174447,-187500.02235174447,-187500.02235174447,-187500.02235174447,-187500.02235174447,1730409702.4755836,1730409702.427424,3000
3231.905786026214,-187500.02235174447,24702.008033038142,-187500.02235174447,-187500.02235174447,-187500.02235174447,-187500.02235174447,-187500.02235174447,1730409702.4796436,1730409702.427424,3000
3205.888355480237,-187500.02235174447,24684.573672363007,-187500.02235174447,-187500.02235174447,-187500.02235174447,-187500.02235174447,-187500.02235174447,1730409702.4844935,1730409702.427424,3000
3254.9951380485463,-187500.02235174447,24735.714463676748,-187500.02235174447,-187500.02235174447,-187500.02235174447,-187500.02235174447,-187500.02235174447,1730409702.4880404,1730409702.427424,3000
3271.378966734286,-187500.02235174447,24740.69890269028,-187500.02235174447,-187500.02235174447,-187500.02235174447,-187500.02235174447,-187500.02235174447,1730409702.4920278,1730409702.427424,3000
3241.6958500976384,-187500.02235174447,24706.277216229108,-187500.02235174447,-187500.02235174447,-187500.02235174447,-187500.02235174447,-187500.02235174447,1730409702.495975,1730409702.427424,3000
3204.4354920906417,-187500.02235174447,24689.98279452119,-187500.02235174447,-187500.02235174447,-187500.02235174447,-187500.02235174447,-187500.02235174447,1730409702.499668,1730409702.427424,3000
3242.6346233647614,-187500.02235174447,24729.500678718174,-187500.02235174447,-187500.02235174447,-187500.02235174447,-187500.02235174447,-187500.02235174447,1730409702.5036592,1730409702.427424,3000
3304.4148450392304,-187500.02235174447,24780.507359565185,-187500.02235174447,-187500.02235174447,-187500.02235174447,-187500.02235174447,-187500.02235174447,1730409702.509633,1730409702.427424,3000
3270.350786489342,-187500.02235174447,24740.94477187929,-187500.02235174447,-187500.02235174447,-187500.02235174447,-187500.02235174447,-187500.02235174447,1730409702.512611,1730409702.427424,3000
3215.164329429189,-187500.02235174447,24709.786440108597,-187500.02235174447,-187500.02235174447,-187500.02235174447,-187500.02235174447,-187500.02235174447,1730409702.5166695,1730409702.427424,3000
3260.940702073658,-187500.02235174447,24760.23432734422,-187500.02235174447,-187500.02235174447,-187500.02235174447,-187500.02235174447,-187500.02235174447,1730409702.5195668,1730409702.427424,3000
3311.589755009384,-187500.02235174447,24791.079734692543,-187500.02235174447,-187500.02235174447,-187500.02235174447,-187500.02235174447,-187500.02235174447,1730409702.5236657,1730409702.427424,3000
3275.4693359696075,-187500.02235174447,24745.03514111461,-187500.02235174447,-187500.02235174447,-187500.02235174447,-187500.02235174447,-187500.02235174447,1730409702.527543,1730409702.427424,3000
3214.627887562261,-187500.02235174447,24708.57944590801,-187500.02235174447,-187500.02235174447,-187500.02235174447,-187500.02235174447,-187500.02235174447,1730409702.5316336,1730409702.427424,3000
3238.298384940432,-187500.02235174447,24732.965199108745,-187500.02235174447,-187500.02235174447,-187500.02235174447,-187500.02235174447,-187500.02235174447,1730409702.5355272,1730409702.427424,3000
3297.329342046898,-187500.02235174447,24779.076847920045,-187500.02235174447,-187500.02235174447,-187500.02235174447,-187500.02235174447,-187500.02235174447,1730409702.5407777,1730409702.427424,3000
3295.720016446116,-187500.02235174447,24767.05160940309,-187500.02235174447,-187500.02235174447,-187500.02235174447,-187500.02235174447,-187500.02235174447,1730409702.5435636,1730409702.427424,3000
3226.87664352377,-187500.02235174447,24693.000280022658,-187500.02235174447,-187500.02235174447,-187500.02235174447,-187500.02235174447,-187500.02235174447,1730409702.5467515,1730409702.427424,3000
3223.6579923222057,-187500.02235174447,24704.623187139416,-187500.02235174447,-187500.02235174447,-187500.02235174447,-187500.02235174447,-187500.02235174447,1730409702.5516284,1730409702.427424,3000
3300.704455459649,-187500.02235174447,24787.81638000207,-187500.02235174447,-187500.02235174447,-187500.02235174447,-187500.02235174447,-187500.02235174447,1730409702.5557427,1730409702.427424,3000
3303.5431270054733,-187500.02235174447,24779.725048509248,-187500.02235174447,-187500.02235174447,-187500.02235174447,-187500.02235174447,-187500.02235174447,1730409702.5597408,1730409702.427424,3000
3229.2459284360325,-187500.02235174447,24703.32678596101,-187500.02235174447,-187500.02235174447,-187500.02235174447,-187500.02235174447,-187500.02235174447,1730409702.563706,1730409702.427424,3000
3210.87279449377,-187500.02235174447,24703.170323749822,-187500.02235174447,-187500.02235174447,-187500.02235174447,-187500.02235174447,-187500.02235174447,1730409702.5677457,1730409702.427424,3000
3277.615103437317,-187500.02235174447,24771.454903060785,-187500.02235174447,-187500.02235174447,-187500.02235174447,-187500.02235174447,-187500.02235174447,1730409702.5707688,1730409702.427424,3000
3293.3730832783085,-187500.02235174447,24764.302344835087,-187500.02235174447,-187500.02235174447,-187500.02235174447,-187500.02235174447,-187500.02235174447,1730409702.574752,1730409702.427424,3000
3221.266355665488,-187500.02235174447,24685.870073541413,-187500.02235174447,-187500.02235174447,-187500.02235174447,-187500.02235174447,-187500.02235174447,1730409702.5797503,1730409702.427424,3000
3200.5462885554184,-187500.02235174447,24681.01974499461,-187500.02235174447,-187500.02235174447,-187500.02235174447,-187500.02235174447,-187500.02235174447,1730409702.5847516,1730409702.427424,3000
3268.137963788267,-187500.02235174447,24758.960277910268,-187500.02235174447,-187500.02235174447,-187500.02235174447,-187500.02235174447,-187500.02235174447,1730409702.588786,1730409702.427424,3000
3296.2788100574985,-187500.02235174447,24777.10989440797,-187500.02235174447,-187500.02235174447,-187500.02235174447,-187500.02235174447,-187500.02235174447,1730409702.5918036,1730409702.427424,3000
3250.0777542683786,-187500.02235174447,24732.45110898627,-187500.02235174447,-187500.02235174447,-187500.02235174447,-187500.02235174447,-187500.02235174447,1730409702.594696,1730409702.427424,3000
3210.805739260404,-187500.02235174447,24710.099364530965,-187500.02235174447,-187500.02235174447,-187500.02235174447,-187500.02235174447,-187500.02235174447,1730409702.5988028,1730409702.427424,3000
3255.397469448742,-187500.02235174447,24753.595859240995,-187500.02235174447,-187500.02235174447,-187500.02235174447,-187500.02235174447,-187500.02235174447,1730409702.6027029,1730409702.427424,3000
3301.0844351153896,-187500.02235174447,24787.838731746524,-187500.02235174447,-187500.02235174447,-187500.02235174447,-187500.02235174447,-187500.02235174447,1730409702.6078012,1730409702.427424,3000
3259.733707873072,-187500.02235174447,24741.07888234602,-187500.02235174447,-187500.02235174447,-187500.02235174447,-187500.02235174447,-187500.02235174447,1730409702.611807,1730409702.427424,3000
3212.727989283561,-187500.02235174447,24712.580408165504,-187500.02235174447,-187500.02235174447,-187500.02235174447,-187500.02235174447,-187500.02235174447,1730409702.615814,1730409702.427424,3000
3262.8629520968143,-187500.02235174447,24776.551100796594,-187500.02235174447,-187500.02235174447,-187500.02235174447,-187500.02235174447,-187500.02235174447,1730409702.6197844,1730409702.427424,3000
3311.9920864095798,-187500.02235174447,24798.2546446627,-187500.02235174447,-187500.02235174447,-187500.02235174447,-187500.02235174447,-187500.02235174447,1730409702.6228387,1730409702.427424,3000
3269.166144033211,-187500.02235174447,24745.392769025897,-187500.02235174447,-187500.02235174447,-187500.02235174447,-187500.02235174447,-187500.02235174447,1730409702.6267016,1730409702.427424,3000
3197.841727476326,-187500.02235174447,24693.44731491176,-187500.02235174447,-187500.02235174447,-187500.02235174447,-187500.02235174447,-187500.02235174447,1730409702.6328866,1730409702.427424,3000
3224.4403033781414,-187500.02235174447,24729.210106040253,-187500.02235174447,-187500.02235174447,-187500.02235174447,-187500.02235174447,-187500.02235174447,1730409702.6357005,1730409702.427424,3000
3294.781243178993,-187500.02235174447,24791.996156215213,-187500.02235174447,-187500.02235174447,-187500.02235174447,-187500.02235174447,-187500.02235174447,1730409702.6399095,1730409702.427424,3000
3301.978504893602,-187500.02235174447,24785.2012259008,-187500.02235174447,-187500.02235174447,-187500.02235174447,-187500.02235174447,-187500.02235174447,1730409702.6437545,1730409702.427424,3000
3222.182777188156,-187500.02235174447,24709.428812197308,-187500.02235174447,-187500.02235174447,-187500.02235174447,-187500.02235174447,-187500.02235174447,1730409702.647957,1730409702.427424,3000
3224.9990969895243,-187500.02235174447,24722.057547814555,-187500.02235174447,-187500.02235174447,-187500.02235174447,-187500.02235174447,-187500.02235174447,1730409702.6517465,1730409702.427424,3000
3296.882307157792,-187500.02235174447,24798.72403129626,-187500.02235174447,-187500.02235174447,-187500.02235174447,-187500.02235174447,-187500.02235174447,1730409702.6559477,1730409702.427424,3000
3299.4751095146075,-187500.02235174447,24787.25758639069,-187500.02235174447,-187500.02235174447,-187500.02235174447,-187500.02235174447,-187500.02235174447,1730409702.6589277,1730409702.427424,3000
3230.341163914343,-187500.02235174447,24708.04300404108,-187500.02235174447,-187500.02235174447,-187500.02235174447,-187500.02235174447,-187500.02235174447,1730409702.6629398,1730409702.427424,3000
3205.530727568952,-187500.02235174447,24702.45506792725,-187500.02235174447,-187500.02235174447,-187500.02235174447,-187500.02235174447,-187500.02235174447,1730409702.667925,1730409702.427424,3000
3255.5092281710185,-187500.02235174447,24751.405388284373,-187500.02235174447,-187500.02235174447,-187500.02235174447,-187500.02235174447,-187500.02235174447,1730409702.6718583,1730409702.427424,3000
3288.36629252032,-187500.02235174447,24762.380094811928,-187500.02235174447,-187500.02235174447,-187500.02235174447,-187500.02235174447,-187500.02235174447,1730409702.6747804,1730409702.427424,3000
3248.580187389873,-187500.02235174447,24740.207164312265,-187500.02235174447,-187500.02235174447,-187500.02235174447,-187500.02235174447,-187500.02235174447,1730409702.678824,1730409702.427424,3000
3195.5394977974297,-187500.02235174447,24696.88948355788,-187500.02235174447,-187500.02235174447,-187500.02235174447,-187500.02235174447,-187500.02235174447,1730409702.6829636,1730409702.427424,3000
3257.4985334275407,-187500.02235174447,24751.51714700665,-187500.02235174447,-187500.02235174447,-187500.02235174447,-187500.02235174447,-187500.02235174447,1730409702.6868112,1730409702.427424,3000
3319.591679524384,-187500.02235174447,24811.53158086915,-187500.02235174447,-187500.02235174447,-187500.02235174447,-187500.02235174447,-187500.02235174447,1730409702.6908262,1730409702.427424,3000
3271.0213388230013,-187500.02235174447,24765.75520822468,-187500.02235174447,-187500.02235174447,-187500.02235174447,-187500.02235174447,-187500.02235174447,1730409702.6961231,1730409702.427424,3000
3212.5491753279184,-187500.02235174447,24716.447259956272,-187500.02235174447,-187500.02235174447,-187500.02235174447,-187500.02235174447,-187500.02235174447,1730409702.6999726,1730409702.427424,3000
3257.8561613388256,-187500.02235174447,24774.405333328883,-187500.02235174447,-187500.02235174447,-187500.02235174447,-187500.02235174447,-187500.02235174447,1730409702.7028742,1730409702.427424,3000
3334.969679709635,-187500.02235174447,24837.236086992754,-187500.02235174447,-187500.02235174447,-187500.02235174447,-187500.02235174447,-187500.02235174447,1730409702.7070076,1730409702.427424,3000
3288.8580308983364,-187500.02235174447,24784.66478403387,-187500.02235174447,-187500.02235174447,-187500.02235174447,-187500.02235174447,-187500.02235174447,1730409702.7108831,1730409702.427424,3000
3217.5783178303623,-187500.02235174447,24722.057547814555,-187500.02235174447,-187500.02235174447,-187500.02235174447,-187500.02235174447,-187500.02235174447,1730409702.7152,1730409702.427424,3000
3231.8163790483927,-187500.02235174447,24734.75333866517,-187500.02235174447,-187500.02235174447,-187500.02235174447,-187500.02235174447,-187500.02235174447,1730409702.7188847,1730409702.427424,3000
3285.2370482965766,-187500.02235174447,24776.1487693964,-187500.02235174447,-187500.02235174447,-187500.02235174447,-187500.02235174447,-187500.02235174447,1730409702.7250402,1730409702.427424,3000
3270.686062656172,-187500.02235174447,24762.357743067478,-187500.02235174447,-187500.02235174447,-187500.02235174447,-187500.02235174447,-187500.02235174447,1730409702.7278757,1730409702.427424,3000
3227.860120279804,-187500.02235174447,24735.46859448774,-187500.02235174447,-187500.02235174447,-187500.02235174447,-187500.02235174447,-187500.02235174447,1730409702.7320762,1730409702.427424,3000
3243.5063413985185,-187500.02235174447,24762.00011515619,-187500.02235174447,-187500.02235174447,-187500.02235174447,-187500.02235174447,-187500.02235174447,1730409702.7350428,1730409702.427424,3000
3281.1243273168,-187500.02235174447,24787.928138724343,-187500.02235174447,-187500.02235174447,-187500.02235174447,-187500.02235174447,-187500.02235174447,1730409702.739034,1730409702.427424,3000
3255.6209868932947,-187500.02235174447,24747.605591726973,-187500.02235174447,-187500.02235174447,-187500.02235174447,-187500.02235174447,-187500.02235174447,1730409702.7430296,1730409702.427424,3000
3227.234271435055,-187500.02235174447,24718.973007079723,-187500.02235174447,-187500.02235174447,-187500.02235174447,-187500.02235174447,-187500.02235174447,1730409702.7470005,1730409702.427424,3000
3230.1176464697896,-187500.02235174447,24748.56671673855,-187500.02235174447,-187500.02235174447,-187500.02235174447,-187500.02235174447,-187500.02235174447,1730409702.7518697,1730409702.427424,3000
3281.4372517391744,-187500.02235174447,24796.66767080637,-187500.02235174447,-187500.02235174447,-187500.02235174447,-187500.02235174447,-187500.02235174447,1730409702.7560475,1730409702.427424,3000
3288.4780512425964,-187500.02235174447,24782.76488575517,-187500.02235174447,-187500.02235174447,-187500.02235174447,-187500.02235174447,-187500.02235174447,1730409702.7590368,1730409702.427424,3000
3223.859158022304,-187500.02235174447,24707.506562174152,-187500.02235174447,-187500.02235174447,-187500.02235174447,-187500.02235174447,-187500.02235174447,1730409702.7630036,1730409702.427424,3000
3193.6395995187286,-187500.02235174447,24699.21406498123,-187500.02235174447,-187500.02235174447,-187500.02235174447,-187500.02235174447,-187500.02235174447,1730409702.7669785,1730409702.427424,3000
3270.082565555879,-187500.02235174447,24779.76975199816,-187500.02235174447,-187500.02235174447,-187500.02235174447,-187500.02235174447,-187500.02235174447,1730409702.7709856,1730409702.427424,3000
3315.344848077875,-187500.02235174447,24807.262397678187,-187500.02235174447,-187500.02235174447,-187500.02235174447,-187500.02235174447,-187500.02235174447,1730409702.7750034,1730409702.427424,3000
3251.1506380022333,-187500.02235174447,24744.543402736595,-187500.02235174447,-187500.02235174447,-187500.02235174447,-187500.02235174447,-187500.02235174447,1730409702.7790515,1730409702.427424,3000
3186.3082273373875,-187500.02235174447,24694.587253878984,-187500.02235174447,-187500.02235174447,-187500.02235174447,-187500.02235174447,-187500.02235174447,1730409702.7840505,1730409702.427424,3000
3267.243894010054,-187500.02235174447,24774.13711239542,-187500.02235174447,-187500.02235174447,-187500.02235174447,-187500.02235174447,-187500.02235174447,1730409702.7881382,1730409702.427424,3000
3315.1660341222328,-187500.02235174447,24804.62489183246,-187500.02235174447,-187500.02235174447,-187500.02235174447,-187500.02235174447,-187500.02235174447,1730409702.792072,1730409702.427424,3000
3255.9115595712137,-187500.02235174447,24764.458807046278,-187500.02235174447,-187500.02235174447,-187500.02235174447,-187500.02235174447,-187500.02235174447,1730409702.7961292,1730409702.427424,3000
3203.4073118456977,-187500.02235174447,24727.354911250462,-187500.02235174447,-187500.02235174447,-187500.02235174447,-187500.02235174447,-187500.02235174447,1730409702.7999885,1730409702.427424,3000
3250.904768813225,-187500.02235174447,24774.718257751258,-187500.02235174447,-187500.02235174447,-187500.02235174447,-187500.02235174447,-187500.02235174447,1730409702.8030944,1730409702.427424,3000
3308.9298974192025,-187500.02235174447,24818.61708386148,-187500.02235174447,-187500.02235174447,-187500.02235174447,-187500.02235174447,-187500.02235174447,1730409702.8089623,1730409702.427424,3000
3269.5908271778617,-187500.02235174447,24763.18475761232,-187500.02235174447,-187500.02235174447,-187500.02235174447,-187500.02235174447,-187500.02235174447,1730409702.8120272,1730409702.427424,3000
3193.1478611407115,-187500.02235174447,24699.10230625896,-187500.02235174447,-187500.02235174447,-187500.02235174447,-187500.02235174447,-187500.02235174447,1730409702.8162408,1730409702.427424,3000
3211.7668642719823,-187500.02235174447,24727.019635083638,-187500.02235174447,-187500.02235174447,-187500.02235174447,-187500.02235174447,-187500.02235174447,1730409702.8189602,1730409702.427424,3000
3270.7307661450823,-187500.02235174447,24775.20999612928,-187500.02235174447,-187500.02235174447,-187500.02235174447,-187500.02235174447,-187500.02235174447,1730409702.8229566,1730409702.427424,3000
3272.2059812791326,-187500.02235174447,24746.82328067104,-187500.02235174447,-187500.02235174447,-187500.02235174447,-187500.02235174447,-187500.02235174447,1730409702.8301623,1730409702.427424,3000
3224.7308760560604,-187500.02235174447,24712.960387821244,-187500.02235174447,-187500.02235174447,-187500.02235174447,-187500.02235174447,-187500.02235174447,1730409702.8332343,1730409702.427424,3000
3237.6948878401386,-187500.02235174447,24757.86504243196,-187500.02235174447,-187500.02235174447,-187500.02235174447,-187500.02235174447,-187500.02235174447,1730409702.8373013,1730409702.427424,3000
3303.610182238839,-187500.02235174447,24822.9086187969,-187500.02235174447,-187500.02235174447,-187500.02235174447,-187500.02235174447,-187500.02235174447,1730409702.840155,1730409702.427424,3000
3320.172824880222,-187500.02235174447,24803.59671158752,-187500.02235174447,-187500.02235174447,-187500.02235174447,-187500.02235174447,-187500.02235174447,1730409702.8430312,1730409702.427424,3000
3263.1088212858226,-187500.02235174447,24739.42485325633,-187500.02235174447,-187500.02235174447,-187500.02235174447,-187500.02235174447,-187500.02235174447,1730409702.8471253,1730409702.427424,3000
3217.7571317860047,-187500.02235174447,24762.0448186451,-187500.02235174447,-187500.02235174447,-187500.02235174447,-187500.02235174447,-187500.02235174447,1730409702.8511589,1730409702.427424,3000
3283.5606674624287,-187500.02235174447,24802.54617959812,-187500.02235174447,-187500.02235174447,-187500.02235174447,-187500.02235174447,-187500.02235174447,1730409702.8551843,1730409702.427424,3000
3269.233199266577,-187500.02235174447,24763.922365179347,-187500.02235174447,-187500.02235174447,-187500.02235174447,-187500.02235174447,-187500.02235174447,1730409702.8591175,1730409702.427424,3000
3224.2167859335887,-187500.02235174447,24743.157594580367,-187500.02235174447,-187500.02235174447,-187500.02235174447,-187500.02235174447,-187500.02235174447,1730409702.8630233,1730409702.427424,3000
3224.105027211312,-187500.02235174447,24774.248871117696,-187500.02235174447,-187500.02235174447,-187500.02235174447,-187500.02235174447,-187500.02235174447,1730409702.8672612,1730409702.427424,3000
3285.058234340934,-187500.02235174447,24829.278865966666,-187500.02235174447,-187500.02235174447,-187500.02235174447,-187500.02235174447,-187500.02235174447,1730409702.87025,1730409702.427424,3000
3331.147531407777,-187500.02235174447,24834.19624974683,-187500.02235174447,-187500.02235174447,-187500.02235174447,-187500.02235174447,-187500.02235174447,1730409702.8742793,1730409702.427424,3000
3262.0582892964235,-187500.02235174447,24754.91461216385,-187500.02235174447,-187500.02235174447,-187500.02235174447,-187500.02235174447,-187500.02235174447,1730409702.8792703,1730409702.427424,3000
3183.424852302653,-187500.02235174447,24697.31416670253,-187500.02235174447,-187500.02235174447,-187500.02235174447,-187500.02235174447,-187500.02235174447,1730409702.8832636,1730409702.427424,3000
3250.3683269462977,-187500.02235174447,24756.81451044256,-187500.02235174447,-187500.02235174447,-187500.02235174447,-187500.02235174447,-187500.02235174447,1730409702.889267,1730409702.427424,3000
3335.1484936652773,-187500.02235174447,24812.895037280923,-187500.02235174447,-187500.02235174447,-187500.02235174447,-187500.02235174447,-187500.02235174447,1730409702.8922107,1730409702.427424,3000
3289.3721210208087,-187500.02235174447,24772.95246993929,-187500.02235174447,-187500.02235174447,-187500.02235174447,-187500.02235174447,-187500.02235174447,1730409702.8955014,1730409702.427424,3000
3219.6346783202507,-187500.02235174447,24692.55324513355,-187500.02235174447,-187500.02235174447,-187500.02235174447,-187500.02235174447,-187500.02235174447,1730409702.8982136,1730409702.427424,3000
3256.8503328383367,-187500.02235174447,24752.7911964406,-187500.02235174447,-187500.02235174447,-187500.02235174447,-187500.02235174447,-187500.02235174447,1730409702.902167,1730409702.427424,3000
3284.5441442184624,-187500.02235174447,24819.24293270623,-187500.02235174447,-187500.02235174447,-187500.02235174447,-187500.02235174447,-187500.02235174447,1730409702.907348,1730409702.427424,3000
3249.563664145907,-187500.02235174447,24742.844670157992,-187500.02235174447,-187500.02235174447,-187500.02235174447,-187500.02235174447,-187500.02235174447,1730409702.9112694,1730409702.427424,3000
3195.58420128634,-187500.02235174447,24691.860341055435,-187500.02235174447,-187500.02235174447,-187500.02235174447,-187500.02235174447,-187500.02235174447,1730409702.9171436,1730409702.427424,3000
3212.6385823057394,-187500.02235174447,24716.737832634197,-187500.02235174447,-187500.02235174447,-187500.02235174447,-187500.02235174447,-187500.02235174447,1730409702.9202795,1730409702.427424,3000
3332.488636075096,-187500.02235174447,24834.48682242475,-187500.02235174447,-187500.02235174447,-187500.02235174447,-187500.02235174447,-187500.02235174447,1730409702.923262,1730409702.427424,3000
3338.6353658003054,-187500.02235174447,24832.74338635724,-187500.02235174447,-187500.02235174447,-187500.02235174447,-187500.02235174447,-187500.02235174447,1730409702.9264843,1730409702.427424,3000
3251.910597313714,-187500.02235174447,24748.09733010499,-187500.02235174447,-187500.02235174447,-187500.02235174447,-187500.02235174447,-187500.02235174447,1730409702.930452,1730409702.427424,3000
3216.4160271186865,-187500.02235174447,24736.072091588037,-187500.02235174447,-187500.02235174447,-187500.02235174447,-187500.02235174447,-187500.02235174447,1730409702.9352534,1730409702.427424,3000
3288.522754731507,-187500.02235174447,24798.567569085077,-187500.02235174447,-187500.02235174447,-187500.02235174447,-187500.02235174447,-187500.02235174447,1730409702.9394903,1730409702.427424,3000
3318.4070370682525,-187500.02235174447,24789.17983641384,-187500.02235174447,-187500.02235174447,-187500.02235174447,-187500.02235174447,-187500.02235174447,1730409702.943395,1730409702.427424,3000
3206.87183223627,-187500.02235174447,24701.65040512686,-187500.02235174447,-187500.02235174447,-187500.02235174447,-187500.02235174447,-187500.02235174447,1730409702.9465735,1730409702.427424,3000
3167.0186718724576,-187500.02235174447,24691.636823610883,-187500.02235174447,-187500.02235174447,-187500.02235174447,-187500.02235174447,-187500.02235174447,1730409702.950464,1730409702.427424,3000
3251.3965071912417,-187500.02235174447,24748.87964116093,-187500.02235174447,-187500.02235174447,-187500.02235174447,-187500.02235174447,-187500.02235174447,1730409702.9544165,1730409702.427424,3000
3358.9531015101797,-187500.02235174447,24818.885304794945,-187500.02235174447,-187500.02235174447,-187500.02235174447,-187500.02235174447,-187500.02235174447,1730409702.9585292,1730409702.427424,3000
3329.337040106898,-187500.02235174447,24793.113743437974,-187500.02235174447,-187500.02235174447,-187500.02235174447,-187500.02235174447,-187500.02235174447,1730409702.9626231,1730409702.427424,3000
3223.143902199734,-187500.02235174447,24755.9427924088,-187500.02235174447,-187500.02235174447,-187500.02235174447,-187500.02235174447,-187500.02235174447,1730409702.9683197,1730409702.427424,3000
3258.124382272289,-187500.02235174447,24768.079789648036,-187500.02235174447,-187500.02235174447,-187500.02235174447,-187500.02235174447,-187500.02235174447,1730409702.9726613,1730409702.427424,3000
3318.697609746172,-187500.02235174447,24751.114815606456,-187500.02235174447,-187500.02235174447,-187500.02235174447,-187500.02235174447,-187500.02235174447,1730409702.9764462,1730409702.427424,3000
3292.9484001336577,-187500.02235174447,24698.31999520302,-187500.02235174447,-187500.02235174447,-187500.02235174447,-187500.02235174447,-187500.02235174447,1730409702.9796135,1730409702.427424,3000
3238.7677715739933,-187500.02235174447,24690.608643365937,-187500.02235174447,-187500.02235174447,-187500.02235174447,-187500.02235174447,-187500.02235174447,1730409702.982712,1730409702.427424,3000
3298.379874036297,-187500.02235174447,24789.269243391664,-187500.02235174447,-187500.02235174447,-187500.02235174447,-187500.02235174447,-187500.02235174447,1730409702.9863136,1730409702.427424,3000
3361.1212207223443,-187500.02235174447,24867.276831540687,-187500.02235174447,-187500.02235174447,-187500.02235174447,-187500.02235174447,-187500.02235174447,1730409702.9904723,1730409702.427424,3000
3287.807498908937,-187500.02235174447,24768.28095534813,-187500.02235174447,-187500.02235174447,-187500.02235174447,-187500.02235174447,-187500.02235174447,1730409702.9954464,1730409702.427424,3000
3195.271276863966,-187500.02235174447,24659.562070317515,-187500.02235174447,-187500.02235174447,-187500.02235174447,-187500.02235174447,-187500.02235174447,1730409702.9994478,1730409702.427424,3000
3221.154596943212,-187500.02235174447,24710.859323842447,-187500.02235174447,-187500.02235174447,-187500.02235174447,-187500.02235174447,-187500.02235174447,1730409703.002344,1730409702.427424,3000
3370.7548225825817,-187500.02235174447,24890.321480074108,-187500.02235174447,-187500.02235174447,-187500.02235174447,-187500.02235174447,-187500.02235174447,1730409703.0063994,1730409702.427424,3000
3322.4303510702075,-187500.02235174447,24875.077590355588,-187500.02235174447,-187500.02235174447,-187500.02235174447,-187500.02235174447,-187500.02235174447,1730409703.010321,1730409702.427424,3000
3176.585218499329,-187500.02235174447,24742.442338757795,-187500.02235174447,-187500.02235174447,-187500.02235174447,-187500.02235174447,-187500.02235174447,1730409703.0145507,1730409702.427424,3000
3247.1720274891886,-187500.02235174447,24676.080009469988,-187500.02235174447,-187500.02235174447,-187500.02235174447,-187500.02235174447,-187500.02235174447,1730409703.018386,1730409702.427424,3000
3256.425649693686,-187500.02235174447,24782.60842354398,-187500.02235174447,-187500.02235174447,-187500.02235174447,-187500.02235174447,-187500.02235174447,1730409703.0235584,1730409702.427424,3000
3300.972676393113,-187500.02235174447,24863.03000009418,-187500.02235174447,-187500.02235174447,-187500.02235174447,-187500.02235174447,-187500.02235174447,1730409703.027338,1730409702.427424,3000
3286.4663942416187,-187500.02235174447,24816.225447204764,-187500.02235174447,-187500.02235174447,-187500.02235174447,-187500.02235174447,-187500.02235174447,1730409703.0315683,1730409702.427424,3000
3236.197320961633,-187500.02235174447,24795.1030486945,-187500.02235174447,-187500.02235174447,-187500.02235174447,-187500.02235174447,-187500.02235174447,1730409703.0345771,1730409702.427424,3000
3284.767661663015,-187500.02235174447,24743.291705047097,-187500.02235174447,-187500.02235174447,-187500.02235174447,-187500.02235174447,-187500.02235174447,1730409703.0385747,1730409702.427424,3000
3314.1825573661995,-187500.02235174447,24626.79441294604,-187500.02235174447,-187500.02235174447,-187500.02235174447,-187500.02235174447,-187500.02235174447,1730409703.0425944,1730409702.427424,3000
3300.2127170816325,-187500.02235174447,24737.077920088523,-187500.02235174447,-187500.02235174447,-187500.02235174447,-187500.02235174447,-187500.02235174447,1730409703.048616,1730409702.427424,3000
3266.752155632038,-187500.02235174447,24894.65771849844,-187500.02235174447,-187500.02235174447,-187500.02235174447,-187500.02235174447,-187500.02235174447,1730409703.052409,1730409702.427424,3000
3241.2935186974432,-187500.02235174447,24815.15256347091,-187500.02235174447,-187500.02235174447,-187500.02235174447,-187500.02235174447,-187500.02235174447,1730409703.055596,1730409702.427424,3000
3276.4528127256413,-187500.02235174447,24822.193362974333,-187500.02235174447,-187500.02235174447,-187500.02235174447,-187500.02235174447,-187500.02235174447,1730409703.059476,1730409702.427424,3000
3150.165456553156,-187500.02235174447,24656.83515749397,-187500.02235174447,-187500.02235174447,-187500.02235174447,-187500.02235174447,-187500.02235174447,1730409703.0656123,1730409702.427424,3000
3126.9196423196368,-187500.02235174447,24575.92184256576,-187500.02235174447,-187500.02235174447,-187500.02235174447,-187500.02235174447,-187500.02235174447,1730409703.0683916,1730409702.427424,3000
3417.1793958162543,-187500.02235174447,24943.11630047754,-187500.02235174447,-187500.02235174447,-187500.02235174447,-187500.02235174447,-187500.02235174447,1730409703.0716207,1730409702.427424,3000
3386.6022094013942,-187500.02235174447,24964.573975154635,-187500.02235174447,-187500.02235174447,-187500.02235174447,-187500.02235174447,-187500.02235174447,1730409703.0746293,1730409702.427424,3000
3317.8482434568696,-187500.02235174447,24869.802578664134,-187500.02235174447,-187500.02235174447,-187500.02235174447,-187500.02235174447,-187500.02235174447,1730409703.0786476,1730409702.427424,3000
3267.60152192134,-187500.02235174447,24802.926159253857,-187500.02235174447,-187500.02235174447,-187500.02235174447,-187500.02235174447,-187500.02235174447,1730409703.0826485,1730409702.427424,3000
3282.5324872174847,-187500.02235174447,24829.10005201102,-187500.02235174447,-187500.02235174447,-187500.02235174447,-187500.02235174447,-187500.02235174447,1730409703.085525,1730409702.427424,3000
3308.5946212523727,-187500.02235174447,24855.117482557,-187500.02235174447,-187500.02235174447,-187500.02235174447,-187500.02235174447,-187500.02235174447,1730409703.090651,1730409702.427424,3000
3287.1816500641885,-187500.02235174447,24769.577356526537,-187500.02235174447,-187500.02235174447,-187500.02235174447,-187500.02235174447,-187500.02235174447,1730409703.0945816,1730409702.427424,3000
3233.9844982605578,-187500.02235174447,24725.253847271662,-187500.02235174447,-187500.02235174447,-187500.02235174447,-187500.02235174447,-187500.02235174447,1730409703.0986588,1730409702.427424,3000
3202.6026490453064,-187500.02235174447,24771.656068760883,-187500.02235174447,-187500.02235174447,-187500.02235174447,-187500.02235174447,-187500.02235174447,1730409703.1025453,1730409702.427424,3000
3291.204964066144,-187500.02235174447,24813.23031344775,-187500.02235174447,-187500.02235174447,-187500.02235174447,-187500.02235174447,-187500.02235174447,1730409703.1064856,1730409702.427424,3000
3283.8959436292585,-187500.02235174447,24794.700717294305,-187500.02235174447,-187500.02235174447,-187500.02235174447,-187500.02235174447,-187500.02235174447,1730409703.111549,1730409702.427424,3000
3223.7697510444823,-187500.02235174447,24676.05765772553,-187500.02235174447,-187500.02235174447,-187500.02235174447,-187500.02235174447,-187500.02235174447,1730409703.1147437,1730409702.427424,3000
3318.429388812708,-187500.02235174447,24684.283099685086,-187500.02235174447,-187500.02235174447,-187500.02235174447,-187500.02235174447,-187500.02235174447,1730409703.1194715,1730409702.427424,3000
3237.158445973211,-187500.02235174447,24648.72147425669,-187500.02235174447,-187500.02235174447,-187500.02235174447,-187500.02235174447,-187500.02235174447,1730409703.1236906,1730409702.427424,3000
3231.749323815027,-187500.02235174447,24839.739482371748,-187500.02235174447,-187500.02235174447,-187500.02235174447,-187500.02235174447,-187500.02235174447,1730409703.127608,1730409702.427424,3000
3368.318482436953,-187500.02235174447,24942.825727799624,-187500.02235174447,-187500.02235174447,-187500.02235174447,-187500.02235174447,-187500.02235174447,1730409703.1336656,1730409702.427424,3000
3408.506918967595,-187500.02235174447,24887.30399457264,-187500.02235174447,-187500.02235174447,-187500.02235174447,-187500.02235174447,-187500.02235174447,1730409703.1366904,1730409702.427424,3000
3347.8889880048023,-187500.02235174447,24739.84953640098,-187500.02235174447,-187500.02235174447,-187500.02235174447,-187500.02235174447,-187500.02235174447,1730409703.140783,1730409702.427424,3000
3181.837878446326,-187500.02235174447,24597.848903876413,-187500.02235174447,-187500.02235174447,-187500.02235174447,-187500.02235174447,-187500.02235174447,1730409703.143727,1730409702.427424,3000
3132.306412733366,-187500.02235174447,24630.393043803346,-187500.02235174447,-187500.02235174447,-187500.02235174447,-187500.02235174447,-187500.02235174447,1730409703.146809,1730409702.427424,3000
3196.29945710891,-187500.02235174447,24791.05738294809,-187500.02235174447,-187500.02235174447,-187500.02235174447,-187500.02235174447,-187500.02235174447,1730409703.150802,1730409702.427424,3000
3307.6334962407946,-187500.02235174447,24839.33715097155,-187500.02235174447,-187500.02235174447,-187500.02235174447,-187500.02235174447,-187500.02235174447,1730409703.1558075,1730409702.427424,3000
3440.5369687720504,-187500.02235174447,24911.44387858437,-187500.02235174447,-187500.02235174447,-187500.02235174447,-187500.02235174447,-187500.02235174447,1730409703.1597962,1730409702.427424,3000
3171.2878550634214,-187500.02235174447,24734.194545053782,-187500.02235174447,-187500.02235174447,-187500.02235174447,-187500.02235174447,-187500.02235174447,1730409703.1657996,1730409702.427424,3000
3189.3480645833097,-187500.02235174447,24727.064338572545,-187500.02235174447,-187500.02235174447,-187500.02235174447,-187500.02235174447,-187500.02235174447,1730409703.168692,1730409702.427424,3000
3363.892837034802,-187500.02235174447,24880.665526469413,-187500.02235174447,-187500.02235174447,-187500.02235174447,-187500.02235174447,-187500.02235174447,1730409703.1728275,1730409702.427424,3000
3376.633331374328,-187500.02235174447,24850.69183715485,-187500.02235174447,-187500.02235174447,-187500.02235174447,-187500.02235174447,-187500.02235174447,1730409703.1758428,1730409702.427424,3000
3322.832682470403,-187500.02235174447,24800.10983945249,-187500.02235174447,-187500.02235174447,-187500.02235174447,-187500.02235174447,-187500.02235174447,1730409703.178821,1730409702.427424,3000
3206.1118729247896,-187500.02235174447,24728.047815328577,-187500.02235174447,-187500.02235174447,-187500.02235174447,-187500.02235174447,-187500.02235174447,1730409703.1825733,1730409702.427424,3000
3265.925141087192,-187500.02235174447,24801.94268249782,-187500.02235174447,-187500.02235174447,-187500.02235174447,-187500.02235174447,-187500.02235174447,1730409703.186657,1730409702.427424,3000
3346.1455519372885,-187500.02235174447,24846.78028187517,-187500.02235174447,-187500.02235174447,-187500.02235174447,-187500.02235174447,-187500.02235174447,1730409703.190667,1730409702.427424,3000
3298.290467058476,-187500.02235174447,24793.270205649165,-187500.02235174447,-187500.02235174447,-187500.02235174447,-187500.02235174447,-187500.02235174447,1730409703.1958556,1730409702.427424,3000
3222.071018465879,-187500.02235174447,24699.30347195905,-187500.02235174447,-187500.02235174447,-187500.02235174447,-187500.02235174447,-187500.02235174447,1730409703.1986816,1730409702.427424,3000
3231.078771481368,-187500.02235174447,24674.94007050277,-187500.02235174447,-187500.02235174447,-187500.02235174447,-187500.02235174447,-187500.02235174447,1730409703.2038193,1730409702.427424,3000
3364.585741112917,-187500.02235174447,24714.07797504401,-187500.02235174447,-187500.02235174447,-187500.02235174447,-187500.02235174447,-187500.02235174447,1730409703.208302,1730409702.427424,3000
3319.7481417355707,-187500.02235174447,24732.674626430828,-187500.02235174447,-187500.02235174447,-187500.02235174447,-187500.02235174447,-187500.02235174447,1730409703.2106698,1730409702.427424,3000
3150.5454362088963,-187500.02235174447,24625.676825723272,-187500.02235174447,-187500.02235174447,-187500.02235174447,-187500.02235174447,-187500.02235174447,1730409703.2158923,1730409702.427424,3000
3241.8523123088257,-187500.02235174447,24764.27999309063,-187500.02235174447,-187500.02235174447,-187500.02235174447,-187500.02235174447,-187500.02235174447,1730409703.219813,1730409702.427424,3000
3305.644190984272,-187500.02235174447,24827.37896768796,-187500.02235174447,-187500.02235174447,-187500.02235174447,-187500.02235174447,-187500.02235174447,1730409703.223106,1730409702.427424,3000
3292.6578274557387,-187500.02235174447,24747.382074282417,-187500.02235174447,-187500.02235174447,-187500.02235174447,-187500.02235174447,-187500.02235174447,1730409703.2263284,1730409702.427424,3000
3225.4461318786302,-187500.02235174447,24741.45886200176,-187500.02235174447,-187500.02235174447,-187500.02235174447,-187500.02235174447,-187500.02235174447,1730409703.2297957,1730409702.427424,3000
3224.5967655893287,-187500.02235174447,24616.42320351877,-187500.02235174447,-187500.02235174447,-187500.02235174447,-187500.02235174447,-187500.02235174447,1730409703.2349713,1730409702.427424,3000
3480.837164024969,-187500.02235174447,24749.594896983494,-187500.02235174447,-187500.02235174447,-187500.02235174447,-187500.02235174447,-187500.02235174447,1730409703.238922,1730409702.427424,3000
3382.645950632805,-187500.02235174447,24983.70706840838,-187500.02235174447,-187500.02235174447,-187500.02235174447,-187500.02235174447,-187500.02235174447,1730409703.243723,1730409702.427424,3000
3224.909690011703,-187500.02235174447,24935.94139050739,-187500.02235174447,-187500.02235174447,-187500.02235174447,-187500.02235174447,-187500.02235174447,1730409703.2479093,1730409702.427424,3000
3232.039896492946,-187500.02235174447,24813.163258214387,-187500.02235174447,-187500.02235174447,-187500.02235174447,-187500.02235174447,-187500.02235174447,1730409703.2508025,1730409702.427424,3000
3279.157373804733,-187500.02235174447,24820.67344435137,-187500.02235174447,-187500.02235174447,-187500.02235174447,-187500.02235174447,-187500.02235174447,1730409703.2539396,1730409702.427424,3000
3329.5158540625403,-187500.02235174447,24839.00187480472,-187500.02235174447,-187500.02235174447,-187500.02235174447,-187500.02235174447,-187500.02235174447,1730409703.2579665,1730409702.427424,3000
3294.6247809678057,-187500.02235174447,24772.12545539444,-187500.02235174447,-187500.02235174447,-187500.02235174447,-187500.02235174447,-187500.02235174447,1730409703.2617383,1730409702.427424,3000
3250.681251368672,-187500.02235174447,24762.447150045296,-187500.02235174447,-187500.02235174447,-187500.02235174447,-187500.02235174447,-187500.02235174447,1730409703.2669437,1730409702.427424,3000
3270.194324278155,-187500.02235174447,24762.2459843452,-187500.02235174447,-187500.02235174447,-187500.02235174447,-187500.02235174447,-187500.02235174447,1730409703.27081,1730409702.427424,3000
3337.540130321995,-187500.02235174447,24800.847447019514,-187500.02235174447,-187500.02235174447,-187500.02235174447,-187500.02235174447,-187500.02235174447,1730409703.273806,1730409702.427424,3000
3304.6607142282387,-187500.02235174447,24762.558908767573,-187500.02235174447,-187500.02235174447,-187500.02235174447,-187500.02235174447,-187500.02235174447,1730409703.2789364,1730409702.427424,3000
3241.07000125289,-187500.02235174447,24646.0169131776,-187500.02235174447,-187500.02235174447,-187500.02235174447,-187500.02235174447,-187500.02235174447,1730409703.2838726,1730409702.427424,3000
3169.991453885013,-187500.02235174447,24641.54656428654,-187500.02235174447,-187500.02235174447,-187500.02235174447,-187500.02235174447,-187500.02235174447,1730409703.2869315,1730409702.427424,3000
3220.64050682074,-187500.02235174447,24651.24722138014,-187500.02235174447,-187500.02235174447,-187500.02235174447,-187500.02235174447,-187500.02235174447,1730409703.2899408,1730409702.427424,3000
3379.539058153517,-187500.02235174447,24892.958985919835,-187500.02235174447,-187500.02235174447,-187500.02235174447,-187500.02235174447,-187500.02235174447,1730409703.2949188,1730409702.427424,3000
3387.8092036019807,-187500.02235174447,24984.01999283076,-187500.02235174447,-187500.02235174447,-187500.02235174447,-187500.02235174447,-187500.02235174447,1730409703.3000634,1730409702.427424,3000
3370.0172150155563,-187500.02235174447,24809.56462735708,-187500.02235174447,-187500.02235174447,-187500.02235174447,-187500.02235174447,-187500.02235174447,1730409703.303808,1730409702.427424,3000
3289.1486035762555,-187500.02235174447,24717.85541985696,-187500.02235174447,-187500.02235174447,-187500.02235174447,-187500.02235174447,-187500.02235174447,1730409703.309104,1730409702.427424,3000
3394.313561238476,-187500.02235174447,24708.82531509701,-187500.02235174447,-187500.02235174447,-187500.02235174447,-187500.02235174447,-187500.02235174447,1730409703.3131104,1730409702.427424,3000
3283.9853506070795,-187500.02235174447,24669.709762300223,-187500.02235174447,-187500.02235174447,-187500.02235174447,-187500.02235174447,-187500.02235174447,1730409703.3174555,1730409702.427424,3000
3091.872107013716,-187500.02235174447,24675.85649202544,-187500.02235174447,-187500.02235174447,-187500.02235174447,-187500.02235174447,-187500.02235174447,1730409703.320266,1730409702.427424,3000
3403.231907276143,-187500.02235174447,24898.88219820049,-187500.02235174447,-187500.02235174447,-187500.02235174447,-187500.02235174447,-187500.02235174447,1730409703.3249447,1730409702.427424,3000
3593.2664386351635,-187500.02235174447,24788.509284080184,-187500.02235174447,-187500.02235174447,-187500.02235174447,-187500.02235174447,-187500.02235174447,1730409703.3292136,1730409702.427424,3000
3175.713500465572,-187500.02235174447,24465.861852867827,-187500.02235174447,-187500.02235174447,-187500.02235174447,-187500.02235174447,-187500.02235174447,1730409703.3342524,1730409702.427424,3000
3153.853494388282,-187500.02235174447,24574.96071755418,-187500.02235174447,-187500.02235174447,-187500.02235174447,-187500.02235174447,-187500.02235174447,1730409703.337366,1730409702.427424,3000
3358.684880576716,-187500.02235174447,24858.9172791144,-187500.02235174447,-187500.02235174447,-187500.02235174447,-187500.02235174447,-187500.02235174447,1730409703.3400867,1730409702.427424,3000
3311.969734665124,-187500.02235174447,24918.26116064324,-187500.02235174447,-187500.02235174447,-187500.02235174447,-187500.02235174447,-187500.02235174447,1730409703.3440354,1730409702.427424,3000
3435.932509414257,-187500.02235174447,24961.95882105337,-187500.02235174447,-187500.02235174447,-187500.02235174447,-187500.02235174447,-187500.02235174447,1730409703.3470728,1730409702.427424,3000
3229.2235766915774,-187500.02235174447,24890.634404496483,-187500.02235174447,-187500.02235174447,-187500.02235174447,-187500.02235174447,-187500.02235174447,1730409703.3509853,1730409702.427424,3000
3278.531524959985,-187500.02235174447,24873.49061649926,-187500.02235174447,-187500.02235174447,-187500.02235174447,-187500.02235174447,-187500.02235174447,1730409703.3540716,1730409702.427424,3000
3256.1574287602225,-187500.02235174447,24816.44896464932,-187500.02235174447,-187500.02235174447,-187500.02235174447,-187500.02235174447,-187500.02235174447,1730409703.3590913,1730409702.427424,3000
3035.07632435278,-187500.02235174447,24371.96217441108,-187500.02235174447,-187500.02235174447,-187500.02235174447,-187500.02235174447,-187500.02235174447,1730409703.3631053,1730409702.427424,3000
3337.875406488825,-187500.02235174447,24248.64760025115,-187500.02235174447,-187500.02235174447,-187500.02235174447,-187500.02235174447,-187500.02235174447,1730409703.3671012,1730409702.427424,3000
3887.884782300566,-187500.02235174447,25184.582195828225,-187500.02235174447,-187500.02235174447,-187500.02235174447,-187500.02235174447,-187500.02235174447,1730409703.3710773,1730409702.427424,3000
3227.033105734957,-187500.02235174447,25152.663904746045,-187500.02235174447,-187500.02235174447,-187500.02235174447,-187500.02235174447,-187500.02235174447,1730409703.376063,1730409702.427424,3000
3214.002038717513,-187500.02235174447,24956.57205063964,-187500.02235174447,-187500.02235174447,-187500.02235174447,-187500.02235174447,-187500.02235174447,1730409703.379135,1730409702.427424,3000
3206.961239214092,-187500.02235174447,24870.38372401997,-187500.02235174447,-187500.02235174447,-187500.02235174447,-187500.02235174447,-187500.02235174447,1730409703.384114,1730409702.427424,3000
3258.7949346059486,-187500.02235174447,24880.12908460249,-187500.02235174447,-187500.02235174447,-187500.02235174447,-187500.02235174447,-187500.02235174447,1730409703.3871105,1730409702.427424,3000
3417.4029132608075,-187500.02235174447,24904.38072733649,-187500.02235174447,-187500.02235174447,-187500.02235174447,-187500.02235174447,-187500.02235174447,1730409703.3910365,1730409702.427424,3000
3464.9674254617007,-187500.02235174447,24772.348972839,-187500.02235174447,-187500.02235174447,-187500.02235174447,-187500.02235174447,-187500.02235174447,1730409703.393974,1730409702.427424,3000
3379.360244197874,-187500.02235174447,24523.99874019608,-187500.02235174447,-187500.02235174447,-187500.02235174447,-187500.02235174447,-187500.02235174447,1730409703.4010973,1730409702.427424,3000
3311.2544788425544,-187500.02235174447,24678.873977526902,-187500.02235174447,-187500.02235174447,-187500.02235174447,-187500.02235174447,-187500.02235174447,1730409703.4043453,1730409702.427424,3000
3234.587995360851,-187500.02235174447,24918.909361232443,-187500.02235174447,-187500.02235174447,-187500.02235174447,-187500.02235174447,-187500.02235174447,1730409703.4083817,1730409702.427424,3000
3229.7600185585047,-187500.02235174447,25000.8508564056,-187500.02235174447,-187500.02235174447,-187500.02235174447,-187500.02235174447,-187500.02235174447,1730409703.4112017,1730409702.427424,3000
3252.0894112693563,-187500.02235174447,24817.834772805545,-187500.02235174447,-187500.02235174447,-187500.02235174447,-187500.02235174447,-187500.02235174447,1730409703.4144287,1730409702.427424,3000
3147.6397094297063,-187500.02235174447,24623.53105825556,-187500.02235174447,-187500.02235174447,-187500.02235174447,-187500.02235174447,-187500.02235174447,1730409703.4182584,1730409702.427424,3000
3205.4860240800413,-187500.02235174447,24476.99302160657,-187500.02235174447,-187500.02235174447,-187500.02235174447,-187500.02235174447,-187500.02235174447,1730409703.4226563,1730409702.427424,3000
3381.796584343503,-187500.02235174447,24511.45941155665,-187500.02235174447,-187500.02235174447,-187500.02235174447,-187500.02235174447,-187500.02235174447,1730409703.426129,1730409702.427424,3000
3431.842140178936,-187500.02235174447,25007.779897186745,-187500.02235174447,-187500.02235174447,-187500.02235174447,-187500.02235174447,-187500.02235174447,1730409703.430797,1730409702.427424,3000
3294.8930019012696,-187500.02235174447,25099.936139575977,-187500.02235174447,-187500.02235174447,-187500.02235174447,-187500.02235174447,-187500.02235174447,1730409703.434705,1730409702.427424,3000
3469.5718848194942,-187500.02235174447,25050.359970374106,-187500.02235174447,-187500.02235174447,-187500.02235174447,-187500.02235174447,-187500.02235174447,1730409703.4383695,1730409702.427424,3000
3328.75589475106,-187500.02235174447,24925.05609095765,-187500.02235174447,-187500.02235174447,-187500.02235174447,-187500.02235174447,-187500.02235174447,1730409703.4433362,1730409702.427424,3000
3179.58035225634,-187500.02235174447,24622.748747199625,-187500.02235174447,-187500.02235174447,-187500.02235174447,-187500.02235174447,-187500.02235174447,1730409703.4466178,1730409702.427424,3000
2877.5635811762318,-187500.02235174447,24092.900644886573,-187500.02235174447,-187500.02235174447,-187500.02235174447,-187500.02235174447,-187500.02235174447,1730409703.4504223,1730409702.427424,3000
3309.555746263951,-187500.02235174447,24537.1415659358,-187500.02235174447,-187500.02235174447,-187500.02235174447,-187500.02235174447,-187500.02235174447,1730409703.4547603,1730409702.427424,3000
3623.910680283389,-187500.02235174447,25317.73153754849,-187500.02235174447,-187500.02235174447,-187500.02235174447,-187500.02235174447,-187500.02235174447,1730409703.4582574,1730409702.427424,3000
3389.8208606029584,-187500.02235174447,25079.77486607729,-187500.02235174447,-187500.02235174447,-187500.02235174447,-187500.02235174447,-187500.02235174447,1730409703.4622765,1730409702.427424,3000
3421.806206918503,-187500.02235174447,24949.79947206968,-187500.02235174447,-187500.02235174447,-187500.02235174447,-187500.02235174447,-187500.02235174447,1730409703.4673572,1730409702.427424,3000
3432.1103611123995,-187500.02235174447,24747.78440568261,-187500.02235174447,-187500.02235174447,-187500.02235174447,-187500.02235174447,-187500.02235174447,1730409703.4712763,1730409702.427424,3000
3308.0581793854453,-187500.02235174447,24548.00451374108,-187500.02235174447,-187500.02235174447,-187500.02235174447,-187500.02235174447,-187500.02235174447,1730409703.47429,1730409702.427424,3000
3297.686969958183,-187500.02235174447,24825.76964208718,-187500.02235174447,-187500.02235174447,-187500.02235174447,-187500.02235174447,-187500.02235174447,1730409703.4804723,1730409702.427424,3000
3273.5470859464517,-187500.02235174447,24805.72012731077,-187500.02235174447,-187500.02235174447,-187500.02235174447,-187500.02235174447,-187500.02235174447,1730409703.48529,1730409702.427424,3000
3168.0915556063123,-187500.02235174447,24974.766370626257,-187500.02235174447,-187500.02235174447,-187500.02235174447,-187500.02235174447,-187500.02235174447,1730409703.4886408,1730409702.427424,3000
3334.544996564984,-187500.02235174447,25035.026673677767,-187500.02235174447,-187500.02235174447,-187500.02235174447,-187500.02235174447,-187500.02235174447,1730409703.4927316,1730409702.427424,3000
3377.0580145189783,-187500.02235174447,24919.445803099374,-187500.02235174447,-187500.02235174447,-187500.02235174447,-187500.02235174447,-187500.02235174447,1730409703.4954207,1730409702.427424,3000
3263.60055966384,-187500.02235174447,24798.835790018536,-187500.02235174447,-187500.02235174447,-187500.02235174447,-187500.02235174447,-187500.02235174447,1730409703.498572,1730409702.427424,3000
3273.100051057345,-187500.02235174447,24781.781408999137,-187500.02235174447,-187500.02235174447,-187500.02235174447,-187500.02235174447,-187500.02235174447,1730409703.5022707,1730409702.427424,3000
3424.0190296195783,-187500.02235174447,24830.888191567446,-187500.02235174447,-187500.02235174447,-187500.02235174447,-187500.02235174447,-187500.02235174447,1730409703.5066414,1730409702.427424,3000
3405.511785210584,-187500.02235174447,24793.851351005003,-187500.02235174447,-187500.02235174447,-187500.02235174447,-187500.02235174447,-187500.02235174447,1730409703.5103428,1730409702.427424,3000
3268.272074254998,-187500.02235174447,24724.51623970464,-187500.02235174447,-187500.02235174447,-187500.02235174447,-187500.02235174447,-187500.02235174447,1730409703.51467,1730409702.427424,3000
3241.5840913753623,-187500.02235174447,24815.063156493088,-187500.02235174447,-187500.02235174447,-187500.02235174447,-187500.02235174447,-187500.02235174447,1730409703.5183272,1730409702.427424,3000
3296.502327502052,-187500.02235174447,24911.108602417546,-187500.02235174447,-187500.02235174447,-187500.02235174447,-187500.02235174447,-187500.02235174447,1730409703.5226164,1730409702.427424,3000
3293.7083594451383,-187500.02235174447,24791.727935281742,-187500.02235174447,-187500.02235174447,-187500.02235174447,-187500.02235174447,-187500.02235174447,1730409703.527738,1730409702.427424,3000
3329.784074996004,-187500.02235174447,24528.871420487336,-187500.02235174447,-187500.02235174447,-187500.02235174447,-187500.02235174447,-187500.02235174447,1730409703.531358,1730409702.427424,3000
3314.361371321842,-187500.02235174447,24582.023868802054,-187500.02235174447,-187500.02235174447,-187500.02235174447,-187500.02235174447,-187500.02235174447,1730409703.5342948,1730409702.427424,3000
3285.214696552121,-187500.02235174447,25026.153031129008,-187500.02235174447,-187500.02235174447,-187500.02235174447,-187500.02235174447,-187500.02235174447,1730409703.5387564,1730409702.427424,3000
3440.514617027595,-187500.02235174447,25073.583432863168,-187500.02235174447,-187500.02235174447,-187500.02235174447,-187500.02235174447,-187500.02235174447,1730409703.5433352,1730409702.427424,3000
3197.439396076131,-187500.02235174447,24866.15924431792,-187500.02235174447,-187500.02235174447,-187500.02235174447,-187500.02235174447,-187500.02235174447,1730409703.5475984,1730409702.427424,3000
3261.9912340630576,-187500.02235174447,24870.33902053106,-187500.02235174447,-187500.02235174447,-187500.02235174447,-187500.02235174447,-187500.02235174447,1730409703.5523903,1730409702.427424,3000
3345.653813559272,-187500.02235174447,24889.69563122936,-187500.02235174447,-187500.02235174447,-187500.02235174447,-187500.02235174447,-187500.02235174447,1730409703.5566409,1730409702.427424,3000
3193.6395995187286,-187500.02235174447,24556.229955700637,-187500.02235174447,-187500.02235174447,-187500.02235174447,-187500.02235174447,-187500.02235174447,1730409703.559482,1730409702.427424,3000
2955.235893158423,-187500.02235174447,24033.959094757927,-187500.02235174447,-187500.02235174447,-187500.02235174447,-187500.02235174447,-187500.02235174447,1730409703.563606,1730409702.427424,3000
3223.076846966368,-187500.02235174447,24701.762163849136,-187500.02235174447,-187500.02235174447,-187500.02235174447,-187500.02235174447,-187500.02235174447,1730409703.5676365,1730409702.427424,3000
3401.510822953084,-187500.02235174447,25393.68276520762,-187500.02235174447,-187500.02235174447,-187500.02235174447,-187500.02235174447,-187500.02235174447,1730409703.5715432,1730409702.427424,3000
3598.899078237901,-187500.02235174447,25312.836505512776,-187500.02235174447,-187500.02235174447,-187500.02235174447,-187500.02235174447,-187500.02235174447,1730409703.574704,1730409702.427424,3000
3486.335693160974,-187500.02235174447,25003.3542517846,-187500.02235174447,-187500.02235174447,-187500.02235174447,-187500.02235174447,-187500.02235174447,1730409703.5773106,1730409702.427424,3000
3327.057162172456,-187500.02235174447,24797.67349930686,-187500.02235174447,-187500.02235174447,-187500.02235174447,-187500.02235174447,-187500.02235174447,1730409703.5816288,1730409702.427424,3000
3249.898940312736,-187500.02235174447,24835.470299180783,-187500.02235174447,-187500.02235174447,-187500.02235174447,-187500.02235174447,-187500.02235174447,1730409703.585327,1730409702.427424,3000
3327.235976128098,-187500.02235174447,24922.060957200643,-187500.02235174447,-187500.02235174447,-187500.02235174447,-187500.02235174447,-187500.02235174447,1730409703.5907984,1730409702.427424,3000
3356.941444509202,-187500.02235174447,24865.62280245099,-187500.02235174447,-187500.02235174447,-187500.02235174447,-187500.02235174447,-187500.02235174447,1730409703.5943792,1730409702.427424,3000
3353.6333863298164,-187500.02235174447,24761.553080267084,-187500.02235174447,-187500.02235174447,-187500.02235174447,-187500.02235174447,-187500.02235174447,1730409703.5976188,1730409702.427424,3000
3255.2857107264654,-187500.02235174447,24682.338497917477,-187500.02235174447,-187500.02235174447,-187500.02235174447,-187500.02235174447,-187500.02235174447,1730409703.601582,1730409702.427424,3000
3148.8690553747483,-187500.02235174447,24494.919120659724,-187500.02235174447,-187500.02235174447,-187500.02235174447,-187500.02235174447,-187500.02235174447,1730409703.607047,1730409702.427424,3000
3307.0523508849565,-187500.02235174447,24781.87081597696,-187500.02235174447,-187500.02235174447,-187500.02235174447,-187500.02235174447,-187500.02235174447,1730409703.6104157,1730409702.427424,3000
3322.6538685147607,-187500.02235174447,24966.42916994443,-187500.02235174447,-187500.02235174447,-187500.02235174447,-187500.02235174447,-187500.02235174447,1730409703.615644,1730409702.427424,3000
3306.22533634011,-187500.02235174447,25020.408632804,-187500.02235174447,-187500.02235174447,-187500.02235174447,-187500.02235174447,-187500.02235174447,1730409703.6194549,1730409702.427424,3000
3318.9211271907243,-187500.02235174447,24933.303884661666,-187500.02235174447,-187500.02235174447,-187500.02235174447,-187500.02235174447,-187500.02235174447,1730409703.6227446,1730409702.427424,3000
3250.189512990655,-187500.02235174447,24734.99920785418,-187500.02235174447,-187500.02235174447,-187500.02235174447,-187500.02235174447,-187500.02235174447,1730409703.6265302,1730409702.427424,3000
3199.495756566019,-187500.02235174447,24764.436455301817,-187500.02235174447,-187500.02235174447,-187500.02235174447,-187500.02235174447,-187500.02235174447,1730409703.6296203,1730409702.427424,3000
3299.028074625501,-187500.02235174447,24959.209556485363,-187500.02235174447,-187500.02235174447,-187500.02235174447,-187500.02235174447,-187500.02235174447,1730409703.636474,1730409702.427424,3000
3353.454572374174,-187500.02235174447,24997.207522059387,-187500.02235174447,-187500.02235174447,-187500.02235174447,-187500.02235174447,-187500.02235174447,1730409703.6396265,1730409702.427424,3000
3335.126141920822,-187500.02235174447,24964.32810596563,-187500.02235174447,-187500.02235174447,-187500.02235174447,-187500.02235174447,-187500.02235174447,1730409703.6426167,1730409702.427424,3000
3261.0971642848453,-187500.02235174447,24774.00300192869,-187500.02235174447,-187500.02235174447,-187500.02235174447,-187500.02235174447,-187500.02235174447,1730409703.646423,1730409702.427424,3000
3269.1214405443,-187500.02235174447,24813.990272759234,-187500.02235174447,-187500.02235174447,-187500.02235174447,-187500.02235174447,-187500.02235174447,1730409703.6505032,1730409702.427424,3000
3342.010479213057,-187500.02235174447,24912.203837895853,-187500.02235174447,-187500.02235174447,-187500.02235174447,-187500.02235174447,-187500.02235174447,1730409703.6545618,1730409702.427424,3000
3334.455589587163,-187500.02235174447,24881.04550612516,-187500.02235174447,-187500.02235174447,-187500.02235174447,-187500.02235174447,-187500.02235174447,1730409703.6575973,1730409702.427424,3000
3401.95785784219,-187500.02235174447,24854.08930231205,-187500.02235174447,-187500.02235174447,-187500.02235174447,-187500.02235174447,-187500.02235174447,1730409703.6614408,1730409702.427424,3000
3267.869742854803,-187500.02235174447,24769.443246059807,-187500.02235174447,-187500.02235174447,-187500.02235174447,-187500.02235174447,-187500.02235174447,1730409703.6656003,1730409702.427424,3000
3177.0993086218014,-187500.02235174447,24758.75911221017,-187500.02235174447,-187500.02235174447,-187500.02235174447,-187500.02235174447,-187500.02235174447,1730409703.66948,1730409702.427424,3000
3318.0941126458783,-187500.02235174447,24761.821301200547,-187500.02235174447,-187500.02235174447,-187500.02235174447,-187500.02235174447,-187500.02235174447,1730409703.679384,1730409702.427424,3000
3339.238862900598,-187500.02235174447,24795.661842305883,-187500.02235174447,-187500.02235174447,-187500.02235174447,-187500.02235174447,-187500.02235174447,1730409703.682542,1730409702.427424,3000
3263.332338730376,-187500.02235174447,24878.810331679622,-187500.02235174447,-187500.02235174447,-187500.02235174447,-187500.02235174447,-187500.02235174447,1730409703.6866412,1730409702.427424,3000
3307.745254963071,-187500.02235174447,25006.684661708437,-187500.02235174447,-187500.02235174447,-187500.02235174447,-187500.02235174447,-187500.02235174447,1730409703.689661,1730409702.427424,3000
3232.933966271158,-187500.02235174447,24814.7055285818,-187500.02235174447,-187500.02235174447,-187500.02235174447,-187500.02235174447,-187500.02235174447,1730409703.693493,1730409702.427424,3000
3210.9174979826807,-187500.02235174447,24576.771208855054,-187500.02235174447,-187500.02235174447,-187500.02235174447,-187500.02235174447,-187500.02235174447,1730409703.6966324,1730409702.427424,3000
3217.980649230558,-187500.02235174447,24713.78740236609,-187500.02235174447,-187500.02235174447,-187500.02235174447,-187500.02235174447,-187500.02235174447,1730409703.699699,1730409702.427424,3000
3288.9250861317023,-187500.02235174447,25009.590388487624,-187500.02235174447,-187500.02235174447,-187500.02235174447,-187500.02235174447,-187500.02235174447,1730409703.7036576,1730409702.427424,3000
3426.0083348761004,-187500.02235174447,25128.72518643441,-187500.02235174447,-187500.02235174447,-187500.02235174447,-187500.02235174447,-187500.02235174447,1730409703.7067273,1730409702.427424,3000
3466.062660940011,-187500.02235174447,25099.28793898677,-187500.02235174447,-187500.02235174447,-187500.02235174447,-187500.02235174447,-187500.02235174447,1730409703.7095504,1730409702.427424,3000
3293.2836763004875,-187500.02235174447,24898.815142967123,-187500.02235174447,-187500.02235174447,-187500.02235174447,-187500.02235174447,-187500.02235174447,1730409703.712694,1730409702.427424,3000
3259.197266006144,-187500.02235174447,24818.035938505644,-187500.02235174447,-187500.02235174447,-187500.02235174447,-187500.02235174447,-187500.02235174447,1730409703.7175326,1730409702.427424,3000
3324.7325807491043,-187500.02235174447,24834.933857313856,-187500.02235174447,-187500.02235174447,-187500.02235174447,-187500.02235174447,-187500.02235174447,1730409703.7217,1730409702.427424,3000
3323.123255148322,-187500.02235174447,24898.144590633463,-187500.02235174447,-187500.02235174447,-187500.02235174447,-187500.02235174447,-187500.02235174447,1730409703.7256887,1730409702.427424,3000
3240.0194692634905,-187500.02235174447,24863.365276261007,-187500.02235174447,-187500.02235174447,-187500.02235174447,-187500.02235174447,-187500.02235174447,1730409703.7296395,1730409702.427424,3000
3214.9184602401806,-187500.02235174447,24851.54120344415,-187500.02235174447,-187500.02235174447,-187500.02235174447,-187500.02235174447,-187500.02235174447,1730409703.7336588,1730409702.427424,3000
3313.1096736323448,-187500.02235174447,24874.18352057737,-187500.02235174447,-187500.02235174447,-187500.02235174447,-187500.02235174447,-187500.02235174447,1730409703.7366867,1730409702.427424,3000
3338.9259384782245,-187500.02235174447,24869.512005986217,-187500.02235174447,-187500.02235174447,-187500.02235174447,-187500.02235174447,-187500.02235174447,1730409703.7406745,1730409702.427424,3000
3191.0915006508235,-187500.02235174447,24620.223000076177,-187500.02235174447,-187500.02235174447,-187500.02235174447,-187500.02235174447,-187500.02235174447,1730409703.7457447,1730409702.427424,3000
3167.3092445503767,-187500.02235174447,24603.63800569034,-187500.02235174447,-187500.02235174447,-187500.02235174447,-187500.02235174447,-187500.02235174447,1730409703.7496867,1730409702.427424,3000
3253.0505362809345,-187500.02235174447,24925.547829335672,-187500.02235174447,-187500.02235174447,-187500.02235174447,-187500.02235174447,-187500.02235174447,1730409703.753749,1730409702.427424,3000
3371.850058060892,-187500.02235174447,25045.9119732275,-187500.02235174447,-187500.02235174447,-187500.02235174447,-187500.02235174447,-187500.02235174447,1730409703.7576475,1730409702.427424,3000
3528.356972736952,-187500.02235174447,25112.8777996156,-187500.02235174447,-187500.02235174447,-187500.02235174447,-187500.02235174447,-187500.02235174447,1730409703.7605157,1730409702.427424,3000
3374.28639820652,-187500.02235174447,24916.20480015335,-187500.02235174447,-187500.02235174447,-187500.02235174447,-187500.02235174447,-187500.02235174447,1730409703.7659357,1730409702.427424,3000
3130.115941776746,-187500.02235174447,24845.95326733032,-187500.02235174447,-187500.02235174447,-187500.02235174447,-187500.02235174447,-187500.02235174447,1730409703.7706325,1730409702.427424,3000
3282.6218941953057,-187500.02235174447,24899.03866041168,-187500.02235174447,-187500.02235174447,-187500.02235174447,-187500.02235174447,-187500.02235174447,1730409703.775019,1730409702.427424,3000
3366.932674280724,-187500.02235174447,24846.40030221943,-187500.02235174447,-187500.02235174447,-187500.02235174447,-187500.02235174447,-187500.02235174447,1730409703.778941,1730409702.427424,3000
3320.9774876806127,-187500.02235174447,24807.9553017563,-187500.02235174447,-187500.02235174447,-187500.02235174447,-187500.02235174447,-187500.02235174447,1730409703.7829173,1730409702.427424,3000
3187.001131415502,-187500.02235174447,24915.02015769722,-187500.02235174447,-187500.02235174447,-187500.02235174447,-187500.02235174447,-187500.02235174447,1730409703.7879107,1730409702.427424,3000
3415.279497537553,-187500.02235174447,25035.697226011423,-187500.02235174447,-187500.02235174447,-187500.02235174447,-187500.02235174447,-187500.02235174447,1730409703.791963,1730409702.427424,3000
3348.246615916087,-187500.02235174447,24956.03560877271,-187500.02235174447,-187500.02235174447,-187500.02235174447,-187500.02235174447,-187500.02235174447,1730409703.795966,1730409702.427424,3000
3191.91851519567,-187500.02235174447,24896.46820979932,-187500.02235174447,-187500.02235174447,-187500.02235174447,-187500.02235174447,-187500.02235174447,1730409703.7989955,1730409702.427424,3000
3220.841672520837,-187500.02235174447,24859.16314830341,-187500.02235174447,-187500.02235174447,-187500.02235174447,-187500.02235174447,-187500.02235174447,1730409703.802765,1730409702.427424,3000
3292.9931036225685,-187500.02235174447,24903.41960232492,-187500.02235174447,-187500.02235174447,-187500.02235174447,-187500.02235174447,-187500.02235174447,1730409703.8092873,1730409702.427424,3000
3310.874499186814,-187500.02235174447,24854.89396511245,-187500.02235174447,-187500.02235174447,-187500.02235174447,-187500.02235174447,-187500.02235174447,1730409703.8118677,1730409702.427424,3000
3263.578207919384,-187500.02235174447,24783.457789833283,-187500.02235174447,-187500.02235174447,-187500.02235174447,-187500.02235174447,-187500.02235174447,1730409703.815258,1730409702.427424,3000
3161.1178113362566,-187500.02235174447,24672.16845419031,-187500.02235174447,-187500.02235174447,-187500.02235174447,-187500.02235174447,-187500.02235174447,1730409703.818761,1730409702.427424,3000
3354.460400874663,-187500.02235174447,24759.89905117739,-187500.02235174447,-187500.02235174447,-187500.02235174447,-187500.02235174447,-187500.02235174447,1730409703.8216836,1730409702.427424,3000
3504.619420125416,-187500.02235174447,25015.84887693511,-187500.02235174447,-187500.02235174447,-187500.02235174447,-187500.02235174447,-187500.02235174447,1730409703.8250508,1730409702.427424,3000
3142.968194838548,-187500.02235174447,24788.71044978028,-187500.02235174447,-187500.02235174447,-187500.02235174447,-187500.02235174447,-187500.02235174447,1730409703.830923,1730409702.427424,3000
3247.1720274891886,-187500.02235174447,24882.610128237025,-187500.02235174447,-187500.02235174447,-187500.02235174447,-187500.02235174447,-187500.02235174447,1730409703.8338945,1730409702.427424,3000
3375.158116240277,-187500.02235174447,25033.260885865795,-187500.02235174447,-187500.02235174447,-187500.02235174447,-187500.02235174447,-187500.02235174447,1730409703.8379705,1730409702.427424,3000
3395.0735205499554,-187500.02235174447,25053.623325064586,-187500.02235174447,-187500.02235174447,-187500.02235174447,-187500.02235174447,-187500.02235174447,1730409703.8419812,1730409702.427424,3000
3320.619859769328,-187500.02235174447,24902.59258778007,-187500.02235174447,-187500.02235174447,-187500.02235174447,-187500.02235174447,-187500.02235174447,1730409703.8447323,1730409702.427424,3000
3204.591954301829,-187500.02235174447,24768.57152802605,-187500.02235174447,-187500.02235174447,-187500.02235174447,-187500.02235174447,-187500.02235174447,1730409703.850899,1730409702.427424,3000
3118.8730143157263,-187500.02235174447,24743.336408536008,-187500.02235174447,-187500.02235174447,-187500.02235174447,-187500.02235174447,-187500.02235174447,1730409703.8537948,1730409702.427424,3000
3158.659119446173,-187500.02235174447,24763.34121982351,-187500.02235174447,-187500.02235174447,-187500.02235174447,-187500.02235174447,-187500.02235174447,1730409703.8593082,1730409702.427424,3000
3424.2648988085866,-187500.02235174447,24970.877167091032,-187500.02235174447,-187500.02235174447,-187500.02235174447,-187500.02235174447,-187500.02235174447,1730409703.8628943,1730409702.427424,3000
3371.850058060892,-187500.02235174447,24931.06871021613,-187500.02235174447,-187500.02235174447,-187500.02235174447,-187500.02235174447,-187500.02235174447,1730409703.8668811,1730409702.427424,3000
3211.364532871787,-187500.02235174447,24926.17367818042,-187500.02235174447,-187500.02235174447,-187500.02235174447,-187500.02235174447,-187500.02235174447,1730409703.8709164,1730409702.427424,3000
3310.874499186814,-187500.02235174447,24990.323184767152,-187500.02235174447,-187500.02235174447,-187500.02235174447,-187500.02235174447,-187500.02235174447,1730409703.8742576,1730409702.427424,3000
3346.4584763596627,-187500.02235174447,24947.76546332425,-187500.02235174447,-187500.02235174447,-187500.02235174447,-187500.02235174447,-187500.02235174447,1730409703.8768373,1730409702.427424,3000
3255.173952004189,-187500.02235174447,24837.549011415125,-187500.02235174447,-187500.02235174447,-187500.02235174447,-187500.02235174447,-187500.02235174447,1730409703.880931,1730409702.427424,3000
3191.8067564733933,-187500.02235174447,24782.56372005507,-187500.02235174447,-187500.02235174447,-187500.02235174447,-187500.02235174447,-187500.02235174447,1730409703.8848507,1730409702.427424,3000
3337.093095432889,-187500.02235174447,24870.674296697893,-187500.02235174447,-187500.02235174447,-187500.02235174447,-187500.02235174447,-187500.02235174447,1730409703.8903253,1730409702.427424,3000
3349.341851394397,-187500.02235174447,24950.76059708126,-187500.02235174447,-187500.02235174447,-187500.02235174447,-187500.02235174447,-187500.02235174447,1730409703.8938298,1730409702.427424,3000
3243.841617565348,-187500.02235174447,24862.53826171616,-187500.02235174447,-187500.02235174447,-187500.02235174447,-187500.02235174447,-187500.02235174447,1730409703.8982089,1730409702.427424,3000
3268.003853321535,-187500.02235174447,24863.14175881645,-187500.02235174447,-187500.02235174447,-187500.02235174447,-187500.02235174447,-187500.02235174447,1730409703.900981,1730409702.427424,3000
3284.834716896381,-187500.02235174447,24835.649113136427,-187500.02235174447,-187500.02235174447,-187500.02235174447,-187500.02235174447,-187500.02235174447,1730409703.9052866,1730409702.427424,3000
3393.352436226897,-187500.02235174447,24977.403876471984,-187500.02235174447,-187500.02235174447,-187500.02235174447,-187500.02235174447,-187500.02235174447,1730409703.908954,1730409702.427424,3000
3279.894981371758,-187500.02235174447,24873.714133943813,-187500.02235174447,-187500.02235174447,-187500.02235174447,-187500.02235174447,-187500.02235174447,1730409703.913385,1730409702.427424,3000
3282.800708150948,-187500.02235174447,24834.86680208049,-187500.02235174447,-187500.02235174447,-187500.02235174447,-187500.02235174447,-187500.02235174447,1730409703.918187,1730409702.427424,3000
3329.8958337182803,-187500.02235174447,24918.395271109974,-187500.02235174447,-187500.02235174447,-187500.02235174447,-187500.02235174447,-187500.02235174447,1730409703.9224403,1730409702.427424,3000
3246.456771666619,-187500.02235174447,24807.552970356104,-187500.02235174447,-187500.02235174447,-187500.02235174447,-187500.02235174447,-187500.02235174447,1730409703.9263904,1730409702.427424,3000
3259.733707873072,-187500.02235174447,24746.2421353152,-187500.02235174447,-187500.02235174447,-187500.02235174447,-187500.02235174447,-187500.02235174447,1730409703.9303713,1730409702.427424,3000
3244.8921495547474,-187500.02235174447,24953.97924828282,-187500.02235174447,-187500.02235174447,-187500.02235174447,-187500.02235174447,-187500.02235174447,1730409703.934265,1730409702.427424,3000
3244.489818154552,-187500.02235174447,24982.79064688571,-187500.02235174447,-187500.02235174447,-187500.02235174447,-187500.02235174447,-187500.02235174447,1730409703.9389677,1730409702.427424,3000
3278.576228448895,-187500.02235174447,24949.151271480478,-187500.02235174447,-187500.02235174447,-187500.02235174447,-187500.02235174447,-187500.02235174447,1730409703.942495,1730409702.427424,3000
3306.001818895557,-187500.02235174447,24886.58873875007,-187500.02235174447,-187500.02235174447,-187500.02235174447,-187500.02235174447,-187500.02235174447,1730409703.9471967,1730409702.427424,3000
3299.005722881046,-187500.02235174447,24893.674241742403,-187500.02235174447,-187500.02235174447,-187500.02235174447,-187500.02235174447,-187500.02235174447,1730409703.9509697,1730409702.427424,3000
3275.067004569412,-187500.02235174447,24881.87252067,-187500.02235174447,-187500.02235174447,-187500.02235174447,-187500.02235174447,-187500.02235174447,1730409703.9551768,1730409702.427424,3000
3291.8308129108923,-187500.02235174447,24888.287471328676,-187500.02235174447,-187500.02235174447,-187500.02235174447,-187500.02235174447,-187500.02235174447,1730409703.9583306,1730409702.427424,3000
3200.725102511061,-187500.02235174447,24704.46672492823,-187500.02235174447,-187500.02235174447,-187500.02235174447,-187500.02235174447,-187500.02235174447,1730409703.9608512,1730409702.427424,3000
3096.275400671411,-187500.02235174447,24540.42727237073,-187500.02235174447,-187500.02235174447,-187500.02235174447,-187500.02235174447,-187500.02235174447,1730409703.969008,1730409702.427424,3000
3314.8754614443137,-187500.02235174447,24876.1728258339,-187500.02235174447,-187500.02235174447,-187500.02235174447,-187500.02235174447,-187500.02235174447,1730409703.9733956,1730409702.427424,3000
3645.658927638403,-187500.02235174447,25158.877689704623,-187500.02235174447,-187500.02235174447,-187500.02235174447,-187500.02235174447,-187500.02235174447,1730409703.976211,1730409702.427424,3000
3339.0824006894118,-187500.02235174447,25059.568889089693,-187500.02235174447,-187500.02235174447,-187500.02235174447,-187500.02235174447,-187500.02235174447,1730409703.9793534,1730409702.427424,3000
3254.6151583928063,-187500.02235174447,24979.75080963979,-187500.02235174447,-187500.02235174447,-187500.02235174447,-187500.02235174447,-187500.02235174447,1730409703.983146,1730409702.427424,3000
3213.264431150488,-187500.02235174447,24869.266136797207,-187500.02235174447,-187500.02235174447,-187500.02235174447,-187500.02235174447,-187500.02235174447,1730409703.9860334,1730409702.427424,3000
3186.5317447819407,-187500.02235174447,24904.02309942521,-187500.02235174447,-187500.02235174447,-187500.02235174447,-187500.02235174447,-187500.02235174447,1730409703.989595,1730409702.427424,3000
3261.030109051479,-187500.02235174447,24806.077755222053,-187500.02235174447,-187500.02235174447,-187500.02235174447,-187500.02235174447,-187500.02235174447,1730409703.9931407,1730409702.427424,3000
3292.7695861780157,-187500.02235174447,24702.946806305263,-187500.02235174447,-187500.02235174447,-187500.02235174447,-187500.02235174447,-187500.02235174447,1730409703.9970615,1730409702.427424,3000
3210.3587043712982,-187500.02235174447,24821.276941451662,-187500.02235174447,-187500.02235174447,-187500.02235174447,-187500.02235174447,-187500.02235174447,1730409704.0030773,1730409702.427424,3000
3354.8850840193136,-187500.02235174447,24964.641030388004,-187500.02235174447,-187500.02235174447,-187500.02235174447,-187500.02235174447,-187500.02235174447,1730409704.0065596,1730409702.427424,3000
3409.400988745808,-187500.02235174447,25029.14816488602,-187500.02235174447,-187500.02235174447,-187500.02235174447,-187500.02235174447,-187500.02235174447,1730409704.0100996,1730409702.427424,3000
3318.9211271907243,-187500.02235174447,24983.41649573046,-187500.02235174447,-187500.02235174447,-187500.02235174447,-187500.02235174447,-187500.02235174447,1730409704.0147045,1730409702.427424,3000
3255.5986351488395,-187500.02235174447,24915.22132339732,-187500.02235174447,-187500.02235174447,-187500.02235174447,-187500.02235174447,-187500.02235174447,1730409704.018152,1730409702.427424,3000
3271.2672080120096,-187500.02235174447,24885.940538160867,-187500.02235174447,-187500.02235174447,-187500.02235174447,-187500.02235174447,-187500.02235174447,1730409704.021137,1730409702.427424,3000
3304.683065972694,-187500.02235174447,24879.81616018011,-187500.02235174447,-187500.02235174447,-187500.02235174447,-187500.02235174447,-187500.02235174447,1730409704.0269504,1730409702.427424,3000
3239.617137863295,-187500.02235174447,24862.001819849236,-187500.02235174447,-187500.02235174447,-187500.02235174447,-187500.02235174447,-187500.02235174447,1730409704.0311756,1730409702.427424,3000
3216.974820730069,-187500.02235174447,24825.657883364904,-187500.02235174447,-187500.02235174447,-187500.02235174447,-187500.02235174447,-187500.02235174447,1730409704.0344827,1730409702.427424,3000
3259.845466595348,-187500.02235174447,24869.512005986217,-187500.02235174447,-187500.02235174447,-187500.02235174447,-187500.02235174447,-187500.02235174447,1730409704.037404,1730409702.427424,3000
3334.187368653699,-187500.02235174447,24868.84145365256,-187500.02235174447,-187500.02235174447,-187500.02235174447,-187500.02235174447,-187500.02235174447,1730409704.0411625,1730409702.427424,3000
3252.9834810475686,-187500.02235174447,24772.9971734282,-187500.02235174447,-187500.02235174447,-187500.02235174447,-187500.02235174447,-187500.02235174447,1730409704.0451272,1730409702.427424,3000
3234.252719194021,-187500.02235174447,24781.42378108785,-187500.02235174447,-187500.02235174447,-187500.02235174447,-187500.02235174447,-187500.02235174447,1730409704.049405,1730409702.427424,3000
3205.553079313407,-187500.02235174447,24818.684139094847,-187500.02235174447,-187500.02235174447,-187500.02235174447,-187500.02235174447,-187500.02235174447,1730409704.0531144,1730409702.427424,3000
3332.063952930445,-187500.02235174447,24897.71990748881,-187500.02235174447,-187500.02235174447,-187500.02235174447,-187500.02235174447,-187500.02235174447,1730409704.05741,1730409702.427424,3000
3395.453500205696,-187500.02235174447,24943.071596988637,-187500.02235174447,-187500.02235174447,-187500.02235174447,-187500.02235174447,-187500.02235174447,1730409704.0601733,1730409702.427424,3000
3130.0265347989243,-187500.02235174447,24777.71339150827,-187500.02235174447,-187500.02235174447,-187500.02235174447,-187500.02235174447,-187500.02235174447,1730409704.0643797,1730409702.427424,3000
3288.455699498141,-187500.02235174447,24913.187314651885,-187500.02235174447,-187500.02235174447,-187500.02235174447,-187500.02235174447,-187500.02235174447,1730409704.0680828,1730409702.427424,3000
3358.5954735988944,-187500.02235174447,24959.120149507544,-187500.02235174447,-187500.02235174447,-187500.02235174447,-187500.02235174447,-187500.02235174447,1730409704.073387,1730409702.427424,3000
3413.647820192316,-187500.02235174447,24819.980540273256,-187500.02235174447,-187500.02235174447,-187500.02235174447,-187500.02235174447,-187500.02235174447,1730409704.077036,1730409702.427424,3000
3251.485914169063,-187500.02235174447,24715.307320989054,-187500.02235174447,-187500.02235174447,-187500.02235174447,-187500.02235174447,-187500.02235174447,1730409704.0811906,1730409702.427424,3000
3194.533669296941,-187500.02235174447,24905.74418374827,-187500.02235174447,-187500.02235174447,-187500.02235174447,-187500.02235174447,-187500.02235174447,1730409704.0851607,1730409702.427424,3000
3339.70824953416,-187500.02235174447,25025.080147395154,-187500.02235174447,-187500.02235174447,-187500.02235174447,-187500.02235174447,-187500.02235174447,1730409704.0896368,1730409702.427424,3000
3308.5722695079176,-187500.02235174447,24876.68691595637,-187500.02235174447,-187500.02235174447,-187500.02235174447,-187500.02235174447,-187500.02235174447,1730409704.09421,1730409702.427424,3000
3195.785366986438,-187500.02235174447,24823.86974380848,-187500.02235174447,-187500.02235174447,-187500.02235174447,-187500.02235174447,-187500.02235174447,1730409704.0973933,1730409702.427424,3000
3179.58035225634,-187500.02235174447,24794.38779287193,-187500.02235174447,-187500.02235174447,-187500.02235174447,-187500.02235174447,-187500.02235174447,1730409704.1011064,1730409702.427424,3000
3258.4820101835744,-187500.02235174447,24841.77349111718,-187500.02235174447,-187500.02235174447,-187500.02235174447,-187500.02235174447,-187500.02235174447,1730409704.1054618,1730409702.427424,3000
3421.6720964517717,-187500.02235174447,24979.169664283952,-187500.02235174447,-187500.02235174447,-187500.02235174447,-187500.02235174447,-187500.02235174447,1730409704.1101832,1730409702.427424,3000
3347.4419531156964,-187500.02235174447,24881.26902356971,-187500.02235174447,-187500.02235174447,-187500.02235174447,-187500.02235174447,-187500.02235174447,1730409704.1145842,1730409702.427424,3000
3224.127378955767,-187500.02235174447,24876.463398511816,-187500.02235174447,-187500.02235174447,-187500.02235174447,-187500.02235174447,-187500.02235174447,1730409704.117483,1730409702.427424,3000
3279.537353460473,-187500.02235174447,24918.0823466876,-187500.02235174447,-187500.02235174447,-187500.02235174447,-187500.02235174447,-187500.02235174447,1730409704.1201792,1730409702.427424,3000
3366.3738806693414,-187500.02235174447,24950.492376147795,-187500.02235174447,-187500.02235174447,-187500.02235174447,-187500.02235174447,-187500.02235174447,1730409704.127159,1730409702.427424,3000
3309.6004497528616,-187500.02235174447,24851.98823833325,-187500.02235174447,-187500.02235174447,-187500.02235174447,-187500.02235174447,-187500.02235174447,1730409704.1305535,1730409702.427424,3000
3206.1565764137003,-187500.02235174447,24800.690984808327,-187500.02235174447,-187500.02235174447,-187500.02235174447,-187500.02235174447,-187500.02235174447,1730409704.1345189,1730409702.427424,3000
3262.192399763155,-187500.02235174447,24873.624726965994,-187500.02235174447,-187500.02235174447,-187500.02235174447,-187500.02235174447,-187500.02235174447,1730409704.1375573,1730409702.427424,3000
3324.2855458599984,-187500.02235174447,24904.604244781047,-187500.02235174447,-187500.02235174447,-187500.02235174447,-187500.02235174447,-187500.02235174447,1730409704.1407487,1730409702.427424,3000
3317.781188223504,-187500.02235174447,24908.26993087172,-187500.02235174447,-187500.02235174447,-187500.02235174447,-187500.02235174447,-187500.02235174447,1730409704.1441965,1730409702.427424,3000
3269.5908271778617,-187500.02235174447,24750.243097572697,-187500.02235174447,-187500.02235174447,-187500.02235174447,-187500.02235174447,-187500.02235174447,1730409704.1486204,1730409702.427424,3000
3117.375447437221,-187500.02235174447,24627.979055402167,-187500.02235174447,-187500.02235174447,-187500.02235174447,-187500.02235174447,-187500.02235174447,1730409704.1522765,1730409702.427424,3000
3267.109783543323,-187500.02235174447,24846.020322563687,-187500.02235174447,-187500.02235174447,-187500.02235174447,-187500.02235174447,-187500.02235174447,1730409704.1566875,1730409702.427424,3000
3329.717019762638,-187500.02235174447,24822.752156585717,-187500.02235174447,-187500.02235174447,-187500.02235174447,-187500.02235174447,-187500.02235174447,1730409704.161107,1730409702.427424,3000
3296.7258449466044,-187500.02235174447,24887.795732950657,-187500.02235174447,-187500.02235174447,-187500.02235174447,-187500.02235174447,-187500.02235174447,1730409704.1656587,1730409702.427424,3000
3301.911449660236,-187500.02235174447,24956.79556808419,-187500.02235174447,-187500.02235174447,-187500.02235174447,-187500.02235174447,-187500.02235174447,1730409704.168218,1730409702.427424,3000
3328.711191262149,-187500.02235174447,24911.93561696239,-187500.02235174447,-187500.02235174447,-187500.02235174447,-187500.02235174447,-187500.02235174447,1730409704.1725883,1730409702.427424,3000
3292.724882689105,-187500.02235174447,24923.71498629033,-187500.02235174447,-187500.02235174447,-187500.02235174447,-187500.02235174447,-187500.02235174447,1730409704.176278,1730409702.427424,3000
3273.7706033910044,-187500.02235174447,24822.23806646324,-187500.02235174447,-187500.02235174447,-187500.02235174447,-187500.02235174447,-187500.02235174447,1730409704.1803455,1730409702.427424,3000
3264.204056764133,-187500.02235174447,24838.64424689344,-187500.02235174447,-187500.02235174447,-187500.02235174447,-187500.02235174447,-187500.02235174447,1730409704.1842384,1730409702.427424,3000
3306.0688741289227,-187500.02235174447,24968.1949577564,-187500.02235174447,-187500.02235174447,-187500.02235174447,-187500.02235174447,-187500.02235174447,1730409704.1894057,1730409702.427424,3000
3438.9723466601786,-187500.02235174447,25004.248321562805,-187500.02235174447,-187500.02235174447,-187500.02235174447,-187500.02235174447,-187500.02235174447,1730409704.1942124,1730409702.427424,3000
3366.6421016028053,-187500.02235174447,24927.403024125462,-187500.02235174447,-187500.02235174447,-187500.02235174447,-187500.02235174447,-187500.02235174447,1730409704.1984272,1730409702.427424,3000
3194.041930918924,-187500.02235174447,24795.1030486945,-187500.02235174447,-187500.02235174447,-187500.02235174447,-187500.02235174447,-187500.02235174447,1730409704.2033708,1730409702.427424,3000
3215.812530018393,-187500.02235174447,24832.65397937941,-187500.02235174447,-187500.02235174447,-187500.02235174447,-187500.02235174447,-187500.02235174447,1730409704.2063951,1730409702.427424,3000
3300.2127170816325,-187500.02235174447,24894.00951790923,-187500.02235174447,-187500.02235174447,-187500.02235174447,-187500.02235174447,-187500.02235174447,1730409704.210257,1730409702.427424,3000
3283.5606674624287,-187500.02235174447,24773.824187973045,-187500.02235174447,-187500.02235174447,-187500.02235174447,-187500.02235174447,-187500.02235174447,1730409704.2133784,1730409702.427424,3000
3201.753282756005,-187500.02235174447,24910.102773917053,-187500.02235174447,-187500.02235174447,-187500.02235174447,-187500.02235174447,-187500.02235174447,1730409704.2173684,1730409702.427424,3000
3298.290467058476,-187500.02235174447,24999.33093778264,-187500.02235174447,-187500.02235174447,-187500.02235174447,-187500.02235174447,-187500.02235174447,1730409704.2244463,1730409702.427424,3000
3361.90353177828,-187500.02235174447,24949.844175558588,-187500.02235174447,-187500.02235174447,-187500.02235174447,-187500.02235174447,-187500.02235174447,1730409704.22729,1730409702.427424,3000
3319.301106846465,-187500.02235174447,24907.912302960434,-187500.02235174447,-187500.02235174447,-187500.02235174447,-187500.02235174447,-187500.02235174447,1730409704.2303405,1730409702.427424,3000
3230.967012759091,-187500.02235174447,24834.889153824945,-187500.02235174447,-187500.02235174447,-187500.02235174447,-187500.02235174447,-187500.02235174447,1730409704.234482,1730409702.427424,3000
3202.982628701047,-187500.02235174447,24799.68515630784,-187500.02235174447,-187500.02235174447,-187500.02235174447,-187500.02235174447,-187500.02235174447,1730409704.237474,1730409702.427424,3000
3346.4361246152075,-187500.02235174447,24893.83070395359,-187500.02235174447,-187500.02235174447,-187500.02235174447,-187500.02235174447,-187500.02235174447,1730409704.2403696,1730409702.427424,3000
3352.784020040515,-187500.02235174447,24875.189349077864,-187500.02235174447,-187500.02235174447,-187500.02235174447,-187500.02235174447,-187500.02235174447,1730409704.2454443,1730409702.427424,3000
3178.5074685224854,-187500.02235174447,24772.103103649988,-187500.02235174447,-187500.02235174447,-187500.02235174447,-187500.02235174447,-187500.02235174447,1730409704.2484982,1730409702.427424,3000
3265.902789342736,-187500.02235174447,24887.102828872543,-187500.02235174447,-187500.02235174447,-187500.02235174447,-187500.02235174447,-187500.02235174447,1730409704.2523975,1730409702.427424,3000
3487.609742594927,-187500.02235174447,24997.65455694849,-187500.02235174447,-187500.02235174447,-187500.02235174447,-187500.02235174447,-187500.02235174447,1730409704.2565172,1730409702.427424,3000
3316.4847870450963,-187500.02235174447,24933.0356637282,-187500.02235174447,-187500.02235174447,-187500.02235174447,-187500.02235174447,-187500.02235174447,1730409704.260258,1730409702.427424,3000
3199.071073421368,-187500.02235174447,24789.04572594711,-187500.02235174447,-187500.02235174447,-187500.02235174447,-187500.02235174447,-187500.02235174447,1730409704.2644317,1730409702.427424,3000
3178.2168958445664,-187500.02235174447,24739.00017011168,-187500.02235174447,-187500.02235174447,-187500.02235174447,-187500.02235174447,-187500.02235174447,1730409704.2683036,1730409702.427424,3000
3220.2828789094547,-187500.02235174447,24794.74542078321,-187500.02235174447,-187500.02235174447,-187500.02235174447,-187500.02235174447,-187500.02235174447,1730409704.2733655,1730409702.427424,3000
3244.6686321101943,-187500.02235174447,24773.265394361664,-187500.02235174447,-187500.02235174447,-187500.02235174447,-187500.02235174447,-187500.02235174447,1730409704.2763965,1730409702.427424,3000
3265.7686788760043,-187500.02235174447,24888.846264940057,-187500.02235174447,-187500.02235174447,-187500.02235174447,-187500.02235174447,-187500.02235174447,1730409704.2794664,1730409702.427424,3000
3319.390513824286,-187500.02235174447,24935.136727707,-187500.02235174447,-187500.02235174447,-187500.02235174447,-187500.02235174447,-187500.02235174447,1730409704.284467,1730409702.427424,3000
3361.389441655808,-187500.02235174447,25034.7584527443,-187500.02235174447,-187500.02235174447,-187500.02235174447,-187500.02235174447,-187500.02235174447,1730409704.2884188,1730409702.427424,3000
3372.386499927819,-187500.02235174447,24986.99277484331,-187500.02235174447,-187500.02235174447,-187500.02235174447,-187500.02235174447,-187500.02235174447,1730409704.292684,1730409702.427424,3000
3315.747179478071,-187500.02235174447,24856.525642457684,-187500.02235174447,-187500.02235174447,-187500.02235174447,-187500.02235174447,-187500.02235174447,1730409704.2965684,1730409702.427424,3000
3242.142884986745,-187500.02235174447,24762.536557023115,-187500.02235174447,-187500.02235174447,-187500.02235174447,-187500.02235174447,-187500.02235174447,1730409704.3013532,1730409702.427424,3000
3262.8629520968143,-187500.02235174447,24850.02128482119,-187500.02235174447,-187500.02235174447,-187500.02235174447,-187500.02235174447,-187500.02235174447,1730409704.304581,1730409702.427424,3000
3332.287470374998,-187500.02235174447,24974.36403922606,-187500.02235174447,-187500.02235174447,-187500.02235174447,-187500.02235174447,-187500.02235174447,1730409704.308024,1730409702.427424,3000
3289.4168245097194,-187500.02235174447,24886.231110838788,-187500.02235174447,-187500.02235174447,-187500.02235174447,-187500.02235174447,-187500.02235174447,1730409704.3130052,1730409702.427424,3000
3232.8222075488816,-187500.02235174447,24765.352876824487,-187500.02235174447,-187500.02235174447,-187500.02235174447,-187500.02235174447,-187500.02235174447,1730409704.3170211,1730409702.427424,3000
3321.6703917587274,-187500.02235174447,24830.619970633983,-187500.02235174447,-187500.02235174447,-187500.02235174447,-187500.02235174447,-187500.02235174447,1730409704.3206284,1730409702.427424,3000
3293.171917578211,-187500.02235174447,24814.81728730408,-187500.02235174447,-187500.02235174447,-187500.02235174447,-187500.02235174447,-187500.02235174447,1730409704.3248284,1730409702.427424,3000
3298.7598536920377,-187500.02235174447,24854.178709289878,-187500.02235174447,-187500.02235174447,-187500.02235174447,-187500.02235174447,-187500.02235174447,1730409704.3298144,1730409702.427424,3000
3255.330414215376,-187500.02235174447,24923.60322756806,-187500.02235174447,-187500.02235174447,-187500.02235174447,-187500.02235174447,-187500.02235174447,1730409704.3326964,1730409702.427424,3000
3318.496444046073,-187500.02235174447,24981.38248698503,-187500.02235174447,-187500.02235174447,-187500.02235174447,-187500.02235174447,-187500.02235174447,1730409704.3355074,1730409702.427424,3000
3383.76353785557,-187500.02235174447,24936.902515518967,-187500.02235174447,-187500.02235174447,-187500.02235174447,-187500.02235174447,-187500.02235174447,1730409704.3416183,1730409702.427424,3000
3328.5994325398724,-187500.02235174447,24839.225392249275,-187500.02235174447,-187500.02235174447,-187500.02235174447,-187500.02235174447,-187500.02235174447,1730409704.3444996,1730409702.427424,3000
3179.58035225634,-187500.02235174447,24787.48110383524,-187500.02235174447,-187500.02235174447,-187500.02235174447,-187500.02235174447,-187500.02235174447,1730409704.3496375,1730409702.427424,3000
3217.39950387472,-187500.02235174447,24864.48286348377,-187500.02235174447,-187500.02235174447,-187500.02235174447,-187500.02235174447,-187500.02235174447,1730409704.3536053,1730409702.427424,3000
3327.012458683545,-187500.02235174447,24923.80439326816,-187500.02235174447,-187500.02235174447,-187500.02235174447,-187500.02235174447,-187500.02235174447,1730409704.3580656,1730409702.427424,3000
3325.8501679718697,-187500.02235174447,24855.16218604591,-187500.02235174447,-187500.02235174447,-187500.02235174447,-187500.02235174447,-187500.02235174447,1730409704.3604891,1730409702.427424,3000
3237.6054808623176,-187500.02235174447,24818.10299373901,-187500.02235174447,-187500.02235174447,-187500.02235174447,-187500.02235174447,-187500.02235174447,1730409704.367103,1730409702.427424,3000
3269.1884957776665,-187500.02235174447,24868.953212374832,-187500.02235174447,-187500.02235174447,-187500.02235174447,-187500.02235174447,-187500.02235174447,1730409704.369628,1730409702.427424,3000
3381.7295291101373,-187500.02235174447,24987.104533565587,-187500.02235174447,-187500.02235174447,-187500.02235174447,-187500.02235174447,-187500.02235174447,1730409704.3741128,1730409702.427424,3000
3350.8841217618137,-187500.02235174447,24948.972457524836,-187500.02235174447,-187500.02235174447,-187500.02235174447,-187500.02235174447,-187500.02235174447,1730409704.3765645,1730409702.427424,3000
3285.751138419049,-187500.02235174447,24832.184592745853,-187500.02235174447,-187500.02235174447,-187500.02235174447,-187500.02235174447,-187500.02235174447,1730409704.384134,1730409702.427424,3000
3273.345920246353,-187500.02235174447,24816.00192976021,-187500.02235174447,-187500.02235174447,-187500.02235174447,-187500.02235174447,-187500.02235174447,1730409704.3866427,1730409702.427424,3000
3298.8492606698587,-187500.02235174447,24887.192235850365,-187500.02235174447,-187500.02235174447,-187500.02235174447,-187500.02235174447,-187500.02235174447,1730409704.3907084,1730409702.427424,3000
3376.633331374328,-187500.02235174447,24882.654831725937,-187500.02235174447,-187500.02235174447,-187500.02235174447,-187500.02235174447,-187500.02235174447,1730409704.3935804,1730409702.427424,3000
3274.1505830467445,-187500.02235174447,24820.740499584736,-187500.02235174447,-187500.02235174447,-187500.02235174447,-187500.02235174447,-187500.02235174447,1730409704.3968868,1730409702.427424,3000
3077.924618473604,-187500.02235174447,24670.849701267445,-187500.02235174447,-187500.02235174447,-187500.02235174447,-187500.02235174447,-187500.02235174447,1730409704.4007092,1730409702.427424,3000
3255.7327456155717,-187500.02235174447,24906.57119829312,-187500.02235174447,-187500.02235174447,-187500.02235174447,-187500.02235174447,-187500.02235174447,1730409704.4052052,1730409702.427424,3000
3473.349329632441,-187500.02235174447,24999.66621394947,-187500.02235174447,-187500.02235174447,-187500.02235174447,-187500.02235174447,-187500.02235174447,1730409704.409175,1730409702.427424,3000
3290.132080332289,-187500.02235174447,24822.10395599651,-187500.02235174447,-187500.02235174447,-187500.02235174447,-187500.02235174447,-187500.02235174447,1730409704.411662,1730409702.427424,3000
3256.000966549035,-187500.02235174447,24807.21769418928,-187500.02235174447,-187500.02235174447,-187500.02235174447,-187500.02235174447,-187500.02235174447,1730409704.4179473,1730409702.427424,3000
3262.1253445297893,-187500.02235174447,24753.349990051986,-187500.02235174447,-187500.02235174447,-187500.02235174447,-187500.02235174447,-187500.02235174447,1730409704.4207337,1730409702.427424,3000
3289.7744524210043,-187500.02235174447,24921.21159091134,-187500.02235174447,-187500.02235174447,-187500.02235174447,-187500.02235174447,-187500.02235174447,1730409704.4267223,1730409702.427424,3000
3346.391421126297,-187500.02235174447,24961.735303608813,-187500.02235174447,-187500.02235174447,-187500.02235174447,-187500.02235174447,-187500.02235174447,1730409704.430704,1730409702.427424,3000
3358.930749765724,-187500.02235174447,24954.04630351619,-187500.02235174447,-187500.02235174447,-187500.02235174447,-187500.02235174447,-187500.02235174447,1730409704.4339385,1730409702.427424,3000
3299.4751095146075,-187500.02235174447,24939.383559153503,-187500.02235174447,-187500.02235174447,-187500.02235174447,-187500.02235174447,-187500.02235174447,1730409704.4381,1730409702.427424,3000
3292.635475711284,-187500.02235174447,24908.180523893898,-187500.02235174447,-187500.02235174447,-187500.02235174447,-187500.02235174447,-187500.02235174447,1730409704.4430351,1730409702.427424,3000
3269.099088799845,-187500.02235174447,24770.203205371286,-187500.02235174447,-187500.02235174447,-187500.02235174447,-187500.02235174447,-187500.02235174447,1730409704.4458976,1730409702.427424,3000
3332.958022708657,-187500.02235174447,24853.10582555602,-187500.02235174447,-187500.02235174447,-187500.02235174447,-187500.02235174447,-187500.02235174447,1730409704.449303,1730409702.427424,3000
3255.26335898201,-187500.02235174447,24884.26415732672,-187500.02235174447,-187500.02235174447,-187500.02235174447,-187500.02235174447,-187500.02235174447,1730409704.451794,1730409702.427424,3000
3305.331266561898,-187500.02235174447,24997.16281857048,-187500.02235174447,-187500.02235174447,-187500.02235174447,-187500.02235174447,-187500.02235174447,1730409704.4562738,1730409702.427424,3000
3365.546866124495,-187500.02235174447,24946.98315226831,-187500.02235174447,-187500.02235174447,-187500.02235174447,-187500.02235174447,-187500.02235174447,1730409704.4607396,1730409702.427424,3000
3283.9406471181687,-187500.02235174447,24891.886102185978,-187500.02235174447,-187500.02235174447,-187500.02235174447,-187500.02235174447,-187500.02235174447,1730409704.465096,1730409702.427424,3000
3234.87856803877,-187500.02235174447,24870.13785483097,-187500.02235174447,-187500.02235174447,-187500.02235174447,-187500.02235174447,-187500.02235174447,1730409704.4679103,1730409702.427424,3000
3337.920109977736,-187500.02235174447,24879.570290991105,-187500.02235174447,-187500.02235174447,-187500.02235174447,-187500.02235174447,-187500.02235174447,1730409704.4720428,1730409702.427424,3000
3341.027002457023,-187500.02235174447,24875.882253155974,-187500.02235174447,-187500.02235174447,-187500.02235174447,-187500.02235174447,-187500.02235174447,1730409704.4760356,1730409702.427424,3000
3249.6754228681834,-187500.02235174447,24786.72114452376,-187500.02235174447,-187500.02235174447,-187500.02235174447,-187500.02235174447,-187500.02235174447,1730409704.479844,1730409702.427424,3000
3279.582056949384,-187500.02235174447,24813.87851403696,-187500.02235174447,-187500.02235174447,-187500.02235174447,-187500.02235174447,-187500.02235174447,1730409704.483955,1730409702.427424,3000
3303.677237472205,-187500.02235174447,24885.78407594968,-187500.02235174447,-187500.02235174447,-187500.02235174447,-187500.02235174447,-187500.02235174447,1730409704.4891882,1730409702.427424,3000
3255.442172937652,-187500.02235174447,24906.97352969331,-187500.02235174447,-187500.02235174447,-187500.02235174447,-187500.02235174447,-187500.02235174447,1730409704.4923992,1730409702.427424,3000
3238.566605873896,-187500.02235174447,24784.687135778328,-187500.02235174447,-187500.02235174447,-187500.02235174447,-187500.02235174447,-187500.02235174447,1730409704.4969556,1730409702.427424,3000
3239.7065448411163,-187500.02235174447,24796.041821961622,-187500.02235174447,-187500.02235174447,-187500.02235174447,-187500.02235174447,-187500.02235174447,1730409704.5008442,1730409702.427424,3000
3234.520940127485,-187500.02235174447,24858.11261631401,-187500.02235174447,-187500.02235174447,-187500.02235174447,-187500.02235174447,-187500.02235174447,1730409704.5049028,1730409702.427424,3000
3361.0988689778887,-187500.02235174447,24907.59937853806,-187500.02235174447,-187500.02235174447,-187500.02235174447,-187500.02235174447,-187500.02235174447,1730409704.50965,1730409702.427424,3000
3390.267895492065,-187500.02235174447,24993.07244933515,-187500.02235174447,-187500.02235174447,-187500.02235174447,-187500.02235174447,-187500.02235174447,1730409704.5141635,1730409702.427424,3000
3279.515001716018,-187500.02235174447,24877.938613645867,-187500.02235174447,-187500.02235174447,-187500.02235174447,-187500.02235174447,-187500.02235174447,1730409704.5172844,1730409702.427424,3000
3299.5645164924285,-187500.02235174447,24875.614032222515,-187500.02235174447,-187500.02235174447,-187500.02235174447,-187500.02235174447,-187500.02235174447,1730409704.5208597,1730409702.427424,3000
3239.527730885474,-187500.02235174447,24844.031017307167,-187500.02235174447,-187500.02235174447,-187500.02235174447,-187500.02235174447,-187500.02235174447,1730409704.5242035,1730409702.427424,3000
3241.807608819915,-187500.02235174447,24907.957006449345,-187500.02235174447,-187500.02235174447,-187500.02235174447,-187500.02235174447,-187500.02235174447,1730409704.5277767,1730409702.427424,3000
3305.085397372889,-187500.02235174447,24943.876259789024,-187500.02235174447,-187500.02235174447,-187500.02235174447,-187500.02235174447,-187500.02235174447,1730409704.5348077,1730409702.427424,3000
3324.486711560096,-187500.02235174447,24928.453556114862,-187500.02235174447,-187500.02235174447,-187500.02235174447,-187500.02235174447,-187500.02235174447,1730409704.5381277,1730409702.427424,3000
3353.454572374174,-187500.02235174447,24942.57985861061,-187500.02235174447,-187500.02235174447,-187500.02235174447,-187500.02235174447,-187500.02235174447,1730409704.5419056,1730409702.427424,3000
3297.351693791353,-187500.02235174447,24816.046633249123,-187500.02235174447,-187500.02235174447,-187500.02235174447,-187500.02235174447,-187500.02235174447,1730409704.544803,1730409702.427424,3000
3256.716222371605,-187500.02235174447,24833.458642179805,-187500.02235174447,-187500.02235174447,-187500.02235174447,-187500.02235174447,-187500.02235174447,1730409704.548242,1730409702.427424,3000
3271.803649878937,-187500.02235174447,24927.447727614373,-187500.02235174447,-187500.02235174447,-187500.02235174447,-187500.02235174447,-187500.02235174447,1730409704.5518367,1730409702.427424,3000
3369.8160493154587,-187500.02235174447,24930.64402707148,-187500.02235174447,-187500.02235174447,-187500.02235174447,-187500.02235174447,-187500.02235174447,1730409704.556045,1730409702.427424,3000
3340.6693745457383,-187500.02235174447,24904.1795616364,-187500.02235174447,-187500.02235174447,-187500.02235174447,-187500.02235174447,-187500.02235174447,1730409704.559705,1730409702.427424,3000
3248.6695943676946,-187500.02235174447,24724.85151587147,-187500.02235174447,-187500.02235174447,-187500.02235174447,-187500.02235174447,-187500.02235174447,1730409704.56407,1730409702.427424,3000
3157.049793845391,-187500.02235174447,24818.170048972377,-187500.02235174447,-187500.02235174447,-187500.02235174447,-187500.02235174447,-187500.02235174447,1730409704.5678582,1730409702.427424,3000
3296.435272268686,-187500.02235174447,24955.789739583703,-187500.02235174447,-187500.02235174447,-187500.02235174447,-187500.02235174447,-187500.02235174447,1730409704.5728476,1730409702.427424,3000
3470.1083266864216,-187500.02235174447,25019.08987988113,-187500.02235174447,-187500.02235174447,-187500.02235174447,-187500.02235174447,-187500.02235174447,1730409704.576754,1730409702.427424,3000
3278.777394148993,-187500.02235174447,24876.84337816756,-187500.02235174447,-187500.02235174447,-187500.02235174447,-187500.02235174447,-187500.02235174447,1730409704.5809762,1730409702.427424,3000
3182.48607903553,-187500.02235174447,24735.96033286576,-187500.02235174447,-187500.02235174447,-187500.02235174447,-187500.02235174447,-187500.02235174447,1730409704.5843976,1730409702.427424,3000
3336.6684122882384,-187500.02235174447,24835.29148522514,-187500.02235174447,-187500.02235174447,-187500.02235174447,-187500.02235174447,-187500.02235174447,1730409704.5882351,1730409702.427424,3000
3290.1767838211995,-187500.02235174447,24880.509064258225,-187500.02235174447,-187500.02235174447,-187500.02235174447,-187500.02235174447,-187500.02235174447,1730409704.592908,1730409702.427424,3000
3360.517723622051,-187500.02235174447,25023.71669098338,-187500.02235174447,-187500.02235174447,-187500.02235174447,-187500.02235174447,-187500.02235174447,1730409704.5983157,1730409702.427424,3000
3232.7328005710606,-187500.02235174447,24924.56435257964,-187500.02235174447,-187500.02235174447,-187500.02235174447,-187500.02235174447,-187500.02235174447,1730409704.601794,1730409702.427424,3000
3169.499715506997,-187500.02235174447,24755.808681942068,-187500.02235174447,-187500.02235174447,-187500.02235174447,-187500.02235174447,-187500.02235174447,1730409704.6048255,1730409702.427424,3000
3268.2497225105435,-187500.02235174447,24910.907436717443,-187500.02235174447,-187500.02235174447,-187500.02235174447,-187500.02235174447,-187500.02235174447,1730409704.608982,1730409702.427424,3000
3384.232924489132,-187500.02235174447,24997.60985345958,-187500.02235174447,-187500.02235174447,-187500.02235174447,-187500.02235174447,-187500.02235174447,1730409704.611979,1730409702.427424,3000
3336.37783961032,-187500.02235174447,24964.484568176817,-187500.02235174447,-187500.02235174447,-187500.02235174447,-187500.02235174447,-187500.02235174447,1730409704.6188853,1730409702.427424,3000
3326.431313327708,-187500.02235174447,24976.04042006021,-187500.02235174447,-187500.02235174447,-187500.02235174447,-187500.02235174447,-187500.02235174447,1730409704.6219006,1730409702.427424,3000
3399.253296763098,-187500.02235174447,24943.22805919982,-187500.02235174447,-187500.02235174447,-187500.02235174447,-187500.02235174447,-187500.02235174447,1730409704.624938,1730409702.427424,3000
3382.824764588448,-187500.02235174447,24907.26410237123,-187500.02235174447,-187500.02235174447,-187500.02235174447,-187500.02235174447,-187500.02235174447,1730409704.6289644,1730409702.427424,3000
3209.77755901546,-187500.02235174447,24770.627888515937,-187500.02235174447,-187500.02235174447,-187500.02235174447,-187500.02235174447,-187500.02235174447,1730409704.6319487,1730409702.427424,3000
3228.2848034244544,-187500.02235174447,24819.354691428507,-187500.02235174447,-187500.02235174447,-187500.02235174447,-187500.02235174447,-187500.02235174447,1730409704.634816,1730409702.427424,3000
3298.625743225305,-187500.02235174447,24901.58675927958,-187500.02235174447,-187500.02235174447,-187500.02235174447,-187500.02235174447,-187500.02235174447,1730409704.6399229,1730409702.427424,3000
3369.793697571004,-187500.02235174447,24893.048392897654,-187500.02235174447,-187500.02235174447,-187500.02235174447,-187500.02235174447,-187500.02235174447,1730409704.643895,1730409702.427424,3000
3180.0497388899016,-187500.02235174447,24861.375971004483,-187500.02235174447,-187500.02235174447,-187500.02235174447,-187500.02235174447,-187500.02235174447,1730409704.6479733,1730409702.427424,3000
3187.716387238072,-187500.02235174447,24814.54906637061,-187500.02235174447,-187500.02235174447,-187500.02235174447,-187500.02235174447,-187500.02235174447,1730409704.651943,1730409702.427424,3000
3282.4430802396632,-187500.02235174447,24877.44687526785,-187500.02235174447,-187500.02235174447,-187500.02235174447,-187500.02235174447,-187500.02235174447,1730409704.6563392,1730409702.427424,3000
3382.3330262104305,-187500.02235174447,24968.753751367774,-187500.02235174447,-187500.02235174447,-187500.02235174447,-187500.02235174447,-187500.02235174447,1730409704.6611629,1730409702.427424,3000
3367.6032266143834,-187500.02235174447,24974.00641131478,-187500.02235174447,-187500.02235174447,-187500.02235174447,-187500.02235174447,-187500.02235174447,1730409704.664461,1730409702.427424,3000
3301.2185455821214,-187500.02235174447,24863.25351753873,-187500.02235174447,-187500.02235174447,-187500.02235174447,-187500.02235174447,-187500.02235174447,1730409704.668898,1730409702.427424,3000
3324.106731904356,-187500.02235174447,24922.2844746452,-187500.02235174447,-187500.02235174447,-187500.02235174447,-187500.02235174447,-187500.02235174447,1730409704.6732342,1730409702.427424,3000
3369.324310937442,-187500.02235174447,24988.892673122013,-187500.02235174447,-187500.02235174447,-187500.02235174447,-187500.02235174447,-187500.02235174447,1730409704.6768973,1730409702.427424,3000
3297.061121113434,-187500.02235174447,24902.36907033552,-187500.02235174447,-187500.02235174447,-187500.02235174447,-187500.02235174447,-187500.02235174447,1730409704.6824224,1730409702.427424,3000
3231.346992414831,-187500.02235174447,24817.32068268308,-187500.02235174447,-187500.02235174447,-187500.02235174447,-187500.02235174447,-187500.02235174447,1730409704.6848736,1730409702.427424,3000
3246.4791234110744,-187500.02235174447,24799.774563285657,-187500.02235174447,-187500.02235174447,-187500.02235174447,-187500.02235174447,-187500.02235174447,1730409704.688337,1730409702.427424,3000
3287.1592983197334,-187500.02235174447,24839.00187480472,-187500.02235174447,-187500.02235174447,-187500.02235174447,-187500.02235174447,-187500.02235174447,1730409704.6922548,1730409702.427424,3000
3325.5595952939507,-187500.02235174447,24882.87834917049,-187500.02235174447,-187500.02235174447,-187500.02235174447,-187500.02235174447,-187500.02235174447,1730409704.695228,1730409702.427424,3000
3282.398376750753,-187500.02235174447,24849.082511554065,-187500.02235174447,-187500.02235174447,-187500.02235174447,-187500.02235174447,-187500.02235174447,1730409704.6994307,1730409702.427424,3000
3221.7133905545943,-187500.02235174447,24861.57713670458,-187500.02235174447,-187500.02235174447,-187500.02235174447,-187500.02235174447,-187500.02235174447,1730409704.7030144,1730409702.427424,3000
3308.0134758965346,-187500.02235174447,24911.823858240117,-187500.02235174447,-187500.02235174447,-187500.02235174447,-187500.02235174447,-187500.02235174447,1730409704.7073624,1730409702.427424,3000
3328.8676534733363,-187500.02235174447,24898.34575633356,-187500.02235174447,-187500.02235174447,-187500.02235174447,-187500.02235174447,-187500.02235174447,1730409704.7127302,1730409702.427424,3000
3146.7679913959496,-187500.02235174447,24721.54345769208,-187500.02235174447,-187500.02235174447,-187500.02235174447,-187500.02235174447,-187500.02235174447,1730409704.7163966,1730409702.427424,3000
3284.164164562722,-187500.02235174447,24897.74225923327,-187500.02235174447,-187500.02235174447,-187500.02235174447,-187500.02235174447,-187500.02235174447,1730409704.720048,1730409702.427424,3000
3449.924701443279,-187500.02235174447,25040.547554558227,-187500.02235174447,-187500.02235174447,-187500.02235174447,-187500.02235174447,-187500.02235174447,1730409704.7244356,1730409702.427424,3000
3282.420728495208,-187500.02235174447,24850.222450521287,-187500.02235174447,-187500.02235174447,-187500.02235174447,-187500.02235174447,-187500.02235174447,1730409704.7280786,1730409702.427424,3000
3257.2750159829875,-187500.02235174447,24869.35554377503,-187500.02235174447,-187500.02235174447,-187500.02235174447,-187500.02235174447,-187500.02235174447,1730409704.7334712,1730409702.427424,3000
3345.609110070361,-187500.02235174447,24887.41575329492,-187500.02235174447,-187500.02235174447,-187500.02235174447,-187500.02235174447,-187500.02235174447,1730409704.737414,1730409702.427424,3000
3326.520720305529,-187500.02235174447,24858.805520392125,-187500.02235174447,-187500.02235174447,-187500.02235174447,-187500.02235174447,-187500.02235174447,1730409704.7406323,1730409702.427424,3000
3346.905511248769,-187500.02235174447,24972.33003048063,-187500.02235174447,-187500.02235174447,-187500.02235174447,-187500.02235174447,-187500.02235174447,1730409704.7453556,1730409702.427424,3000
3327.9288802062133,-187500.02235174447,25004.98592912983,-187500.02235174447,-187500.02235174447,-187500.02235174447,-187500.02235174447,-187500.02235174447,1730409704.749544,1730409702.427424,3000
3244.914501299203,-187500.02235174447,24935.91903876293,-187500.02235174447,-187500.02235174447,-187500.02235174447,-187500.02235174447,-187500.02235174447,1730409704.752194,1730409702.427424,3000
3362.350566667386,-187500.02235174447,24910.88508497299,-187500.02235174447,-187500.02235174447,-187500.02235174447,-187500.02235174447,-187500.02235174447,1730409704.7582436,1730409702.427424,3000
3358.7519358100817,-187500.02235174447,24852.994066833744,-187500.02235174447,-187500.02235174447,-187500.02235174447,-187500.02235174447,-187500.02235174447,1730409704.7611208,1730409702.427424,3000
3264.137001530767,-187500.02235174447,24852.77054938919,-187500.02235174447,-187500.02235174447,-187500.02235174447,-187500.02235174447,-187500.02235174447,1730409704.7656507,1730409702.427424,3000
3227.9048237687143,-187500.02235174447,24904.961872692333,-187500.02235174447,-187500.02235174447,-187500.02235174447,-187500.02235174447,-187500.02235174447,1730409704.7702732,1730409702.427424,3000
3286.354635519342,-187500.02235174447,24908.87342797201,-187500.02235174447,-187500.02235174447,-187500.02235174447,-187500.02235174447,-187500.02235174447,1730409704.7746208,1730409702.427424,3000
3324.41965632673,-187500.02235174447,24929.191163681888,-187500.02235174447,-187500.02235174447,-187500.02235174447,-187500.02235174447,-187500.02235174447,1730409704.7772083,1730409702.427424,3000
3289.0815483428896,-187500.02235174447,24829.189458988843,-187500.02235174447,-187500.02235174447,-187500.02235174447,-187500.02235174447,-187500.02235174447,1730409704.7811863,1730409702.427424,3000
3239.415972163197,-187500.02235174447,24784.03893518912,-187500.02235174447,-187500.02235174447,-187500.02235174447,-187500.02235174447,-187500.02235174447,1730409704.7844555,1730409702.427424,3000
3344.670336803238,-187500.02235174447,24825.52377289817,-187500.02235174447,-187500.02235174447,-187500.02235174447,-187500.02235174447,-187500.02235174447,1730409704.787264,1730409702.427424,3000
3374.4652121621625,-187500.02235174447,24926.97834098081,-187500.02235174447,-187500.02235174447,-187500.02235174447,-187500.02235174447,-187500.02235174447,1730409704.791217,1730409702.427424,3000
3256.2915392269542,-187500.02235174447,24929.66055031545,-187500.02235174447,-187500.02235174447,-187500.02235174447,-187500.02235174447,-187500.02235174447,1730409704.795257,1730409702.427424,3000
3156.0886688338123,-187500.02235174447,24708.914722074835,-187500.02235174447,-187500.02235174447,-187500.02235174447,-187500.02235174447,-187500.02235174447,1730409704.8002615,1730409702.427424,3000
3239.103047740823,-187500.02235174447,24843.98631381825,-187500.02235174447,-187500.02235174447,-187500.02235174447,-187500.02235174447,-187500.02235174447,1730409704.804174,1730409702.427424,3000
3404.707122410193,-187500.02235174447,25080.42306666649,-187500.02235174447,-187500.02235174447,-187500.02235174447,-187500.02235174447,-187500.02235174447,1730409704.807273,1730409702.427424,3000
3318.4740923016184,-187500.02235174447,24931.44868987187,-187500.02235174447,-187500.02235174447,-187500.02235174447,-187500.02235174447,-187500.02235174447,1730409704.8112793,1730409702.427424,3000
3254.3245857148872,-187500.02235174447,24812.313891925085,-187500.02235174447,-187500.02235174447,-187500.02235174447,-187500.02235174447,-187500.02235174447,1730409704.815302,1730409702.427424,3000
3294.22244956761,-187500.02235174447,24891.21554985232,-187500.02235174447,-187500.02235174447,-187500.02235174447,-187500.02235174447,-187500.02235174447,1730409704.8192208,1730409702.427424,3000
3411.032666091045,-187500.02235174447,24956.10266400608,-187500.02235174447,-187500.02235174447,-187500.02235174447,-187500.02235174447,-187500.02235174447,1730409704.8243153,1730409702.427424,3000
3383.76353785557,-187500.02235174447,24940.054111487167,-187500.02235174447,-187500.02235174447,-187500.02235174447,-187500.02235174447,-187500.02235174447,1730409704.8282983,1730409702.427424,3000
3211.520995082974,-187500.02235174447,24836.163203258897,-187500.02235174447,-187500.02235174447,-187500.02235174447,-187500.02235174447,-187500.02235174447,1730409704.8312893,1730409702.427424,3000
3187.425814560153,-187500.02235174447,24779.76975199816,-187500.02235174447,-187500.02235174447,-187500.02235174447,-187500.02235174447,-187500.02235174447,1730409704.8351996,1730409702.427424,3000
