Fp1,Fp2,C3,C4,P7,P8,O1,O2,time_board,time_marker,marker
4953.615957929606,-187500.02235174447,288.3598552179164,-187500.02235174447,-187500.02235174447,-187500.02235174447,-187500.02235174447,-187500.02235174447,1730243394.2077715,1730243394.2096872,3000
4950.330251494676,-187500.02235174447,307.984686849676,-187500.02235174447,-187500.02235174447,-187500.02235174447,-187500.02235174447,-187500.02235174447,1730243394.2117865,1730243394.2096872,3000
4941.970699068392,-187500.02235174447,295.17713727678506,-187500.02235174447,-187500.02235174447,-187500.02235174447,-187500.02235174447,-187500.02235174447,1730243394.2157972,1730243394.2096872,3000
4950.665527661506,-187500.02235174447,268.1091747414082,-187500.02235174447,-187500.02235174447,-187500.02235174447,-187500.02235174447,-187500.02235174447,1730243394.219808,1730243394.2096872,3000
4946.508103192818,-187500.02235174447,284.6941691272461,-187500.02235174447,-187500.02235174447,-187500.02235174447,-187500.02235174447,-187500.02235174447,1730243394.223834,1730243394.2096872,3000
4950.196141027945,-187500.02235174447,307.7164659162123,-187500.02235174447,-187500.02235174447,-187500.02235174447,-187500.02235174447,-187500.02235174447,1730243394.2277577,1730243394.2096872,3000
4949.972623583391,-187500.02235174447,305.3024775150392,-187500.02235174447,-187500.02235174447,-187500.02235174447,-187500.02235174447,-187500.02235174447,1730243394.232916,1730243394.2096872,3000
4954.107696307623,-187500.02235174447,277.94394230174333,-187500.02235174447,-187500.02235174447,-187500.02235174447,-187500.02235174447,-187500.02235174447,1730243394.2357657,1730243394.2096872,3000
4952.45366721793,-187500.02235174447,270.9925497761428,-187500.02235174447,-187500.02235174447,-187500.02235174447,-187500.02235174447,-187500.02235174447,1730243394.239983,1730243394.2096872,3000
4960.969681855403,-187500.02235174447,297.59112567795825,-187500.02235174447,-187500.02235174447,-187500.02235174447,-187500.02235174447,-187500.02235174447,1730243394.2447932,1730243394.2096872,3000
4962.288434778266,-187500.02235174447,313.03618109657543,-187500.02235174447,-187500.02235174447,-187500.02235174447,-187500.02235174447,-187500.02235174447,1730243394.2478304,1730243394.2096872,3000
4954.107696307623,-187500.02235174447,283.73304411566784,-187500.02235174447,-187500.02235174447,-187500.02235174447,-187500.02235174447,-187500.02235174447,1730243394.2517736,1730243394.2096872,3000
4961.372013255598,-187500.02235174447,273.3394829439501,-187500.02235174447,-187500.02235174447,-187500.02235174447,-187500.02235174447,-187500.02235174447,1730243394.254845,1730243394.2096872,3000
4965.50708597983,-187500.02235174447,295.84768961044426,-187500.02235174447,-187500.02235174447,-187500.02235174447,-187500.02235174447,-187500.02235174447,1730243394.2589033,1730243394.2096872,3000
4965.752955168839,-187500.02235174447,309.70577117273467,-187500.02235174447,-187500.02235174447,-187500.02235174447,-187500.02235174447,-187500.02235174447,1730243394.262911,1730243394.2096872,3000
4958.98037659888,-187500.02235174447,288.71748312920136,-187500.02235174447,-187500.02235174447,-187500.02235174447,-187500.02235174447,-187500.02235174447,1730243394.2677765,1730243394.2096872,3000
4957.013423086813,-187500.02235174447,265.5163723845926,-187500.02235174447,-187500.02235174447,-187500.02235174447,-187500.02235174447,-187500.02235174447,1730243394.2719405,1730243394.2096872,3000
4966.937597624969,-187500.02235174447,279.083881268964,-187500.02235174447,-187500.02235174447,-187500.02235174447,-187500.02235174447,-187500.02235174447,1730243394.2759445,1730243394.2096872,3000
4970.223304059899,-187500.02235174447,316.36659102041614,-187500.02235174447,-187500.02235174447,-187500.02235174447,-187500.02235174447,-187500.02235174447,1730243394.278972,1730243394.2096872,3000
4947.0892485486565,-187500.02235174447,312.3879805073715,-187500.02235174447,-187500.02235174447,-187500.02235174447,-187500.02235174447,-187500.02235174447,1730243394.2829623,1730243394.2096872,3000
4948.251539260333,-187500.02235174447,276.7592998456121,-187500.02235174447,-187500.02235174447,-187500.02235174447,-187500.02235174447,-187500.02235174447,1730243394.286993,1730243394.2096872,3000
4954.018289329802,-187500.02235174447,283.48717492665946,-187500.02235174447,-187500.02235174447,-187500.02235174447,-187500.02235174447,-187500.02235174447,1730243394.2910044,1730243394.2096872,3000
4953.973585840891,-187500.02235174447,311.33744851797206,-187500.02235174447,-187500.02235174447,-187500.02235174447,-187500.02235174447,-187500.02235174447,1730243394.2960143,1730243394.2096872,3000
4950.419658472498,-187500.02235174447,297.00998032212027,-187500.02235174447,-187500.02235174447,-187500.02235174447,-187500.02235174447,-187500.02235174447,1730243394.2999942,1730243394.2096872,3000
4958.153362054034,-187500.02235174447,272.6018753769249,-187500.02235174447,-187500.02235174447,-187500.02235174447,-187500.02235174447,-187500.02235174447,1730243394.3039908,1730243394.2096872,3000
4972.3914232720645,-187500.02235174447,276.1110992564081,-187500.02235174447,-187500.02235174447,-187500.02235174447,-187500.02235174447,-187500.02235174447,1730243394.3069944,1730243394.2096872,3000
4963.718946423405,-187500.02235174447,299.93805884576545,-187500.02235174447,-187500.02235174447,-187500.02235174447,-187500.02235174447,-187500.02235174447,1730243394.3120177,1730243394.2096872,3000
4947.938614837959,-187500.02235174447,304.1401868033632,-187500.02235174447,-187500.02235174447,-187500.02235174447,-187500.02235174447,-187500.02235174447,1730243394.3170152,1730243394.2096872,3000
4938.237957744355,-187500.02235174447,270.2102387202071,-187500.02235174447,-187500.02235174447,-187500.02235174447,-187500.02235174447,-187500.02235174447,1730243394.3210015,1730243394.2096872,3000
4955.359393997121,-187500.02235174447,274.6358841223579,-187500.02235174447,-187500.02235174447,-187500.02235174447,-187500.02235174447,-187500.02235174447,1730243394.3240037,1730243394.2096872,3000
4962.199027800444,-187500.02235174447,300.69801815724594,-187500.02235174447,-187500.02235174447,-187500.02235174447,-187500.02235174447,-187500.02235174447,1730243394.3290462,1730243394.2096872,3000
4959.427411487986,-187500.02235174447,310.68924792876817,-187500.02235174447,-187500.02235174447,-187500.02235174447,-187500.02235174447,-187500.02235174447,1730243394.333042,1730243394.2096872,3000
4957.572216698196,-187500.02235174447,282.10136677043045,-187500.02235174447,-187500.02235174447,-187500.02235174447,-187500.02235174447,-187500.02235174447,1730243394.3360798,1730243394.2096872,3000
4953.6606614185175,-187500.02235174447,273.7641660886009,-187500.02235174447,-187500.02235174447,-187500.02235174447,-187500.02235174447,-187500.02235174447,1730243394.3390586,1730243394.2096872,3000
4959.896798121548,-187500.02235174447,291.1985267637404,-187500.02235174447,-187500.02235174447,-187500.02235174447,-187500.02235174447,-187500.02235174447,1730243394.3429172,1730243394.2096872,3000
4965.283568535277,-187500.02235174447,306.9341548602766,-187500.02235174447,-187500.02235174447,-187500.02235174447,-187500.02235174447,-187500.02235174447,1730243394.3469863,1730243394.2096872,3000
4972.726699438894,-187500.02235174447,293.3442942314499,-187500.02235174447,-187500.02235174447,-187500.02235174447,-187500.02235174447,-187500.02235174447,1730243394.3519878,1730243394.2096872,3000
4955.292338763755,-187500.02235174447,277.7874800905562,-187500.02235174447,-187500.02235174447,-187500.02235174447,-187500.02235174447,-187500.02235174447,1730243394.356134,1730243394.2096872,3000
4950.732582894872,-187500.02235174447,302.597916435947,-187500.02235174447,-187500.02235174447,-187500.02235174447,-187500.02235174447,-187500.02235174447,1730243394.3591268,1730243394.2096872,3000
4947.759800882316,-187500.02235174447,317.48417824318153,-187500.02235174447,-187500.02235174447,-187500.02235174447,-187500.02235174447,-187500.02235174447,1730243394.36316,1730243394.2096872,3000
4943.088286291157,-187500.02235174447,292.2043552642292,-187500.02235174447,-187500.02235174447,-187500.02235174447,-187500.02235174447,-187500.02235174447,1730243394.3671448,1730243394.2096872,3000
4944.831722358671,-187500.02235174447,270.74668058713445,-187500.02235174447,-187500.02235174447,-187500.02235174447,-187500.02235174447,-187500.02235174447,1730243394.3711903,1730243394.2096872,3000
4953.325385251687,-187500.02235174447,282.213125492707,-187500.02235174447,-187500.02235174447,-187500.02235174447,-187500.02235174447,-187500.02235174447,1730243394.375146,1730243394.2096872,3000
4957.683975420472,-187500.02235174447,309.1916810502626,-187500.02235174447,-187500.02235174447,-187500.02235174447,-187500.02235174447,-187500.02235174447,1730243394.3791733,1730243394.2096872,3000
4946.888082848559,-187500.02235174447,299.58043093448055,-187500.02235174447,-187500.02235174447,-187500.02235174447,-187500.02235174447,-187500.02235174447,1730243394.3840177,1730243394.2096872,3000
4940.160207767512,-187500.02235174447,268.533857886059,-187500.02235174447,-187500.02235174447,-187500.02235174447,-187500.02235174447,-187500.02235174447,1730243394.3880975,1730243394.2096872,3000
4947.379821226576,-187500.02235174447,275.19467773374055,-187500.02235174447,-187500.02235174447,-187500.02235174447,-187500.02235174447,-187500.02235174447,1730243394.391107,1730243394.2096872,3000
4940.383725212065,-187500.02235174447,299.2004512787404,-187500.02235174447,-187500.02235174447,-187500.02235174447,-187500.02235174447,-187500.02235174447,1730243394.3960729,1730243394.2096872,3000
4940.316669978699,-187500.02235174447,300.20627977922913,-187500.02235174447,-187500.02235174447,-187500.02235174447,-187500.02235174447,-187500.02235174447,1730243394.4001353,1730243394.2096872,3000
4944.652908403028,-187500.02235174447,272.04308176554224,-187500.02235174447,-187500.02235174447,-187500.02235174447,-187500.02235174447,-187500.02235174447,1730243394.406118,1730243394.2096872,3000
4952.073687562191,-187500.02235174447,272.4901166546484,-187500.02235174447,-187500.02235174447,-187500.02235174447,-187500.02235174447,-187500.02235174447,1730243394.4100711,1730243394.2096872,3000
4945.569329925696,-187500.02235174447,307.13532056037434,-187500.02235174447,-187500.02235174447,-187500.02235174447,-187500.02235174447,-187500.02235174447,1730243394.413051,1730243394.2096872,3000
4944.898777592037,-187500.02235174447,296.7864628775672,-187500.02235174447,-187500.02235174447,-187500.02235174447,-187500.02235174447,-187500.02235174447,1730243394.416113,1730243394.2096872,3000
4960.388536499565,-187500.02235174447,269.36087243090543,-187500.02235174447,-187500.02235174447,-187500.02235174447,-187500.02235174447,-187500.02235174447,1730243394.4192083,1730243394.2096872,3000
4957.840437631659,-187500.02235174447,275.88758181185506,-187500.02235174447,-187500.02235174447,-187500.02235174447,-187500.02235174447,-187500.02235174447,1730243394.4232056,1730243394.2096872,3000
4949.771457883294,-187500.02235174447,305.4142362373157,-187500.02235174447,-187500.02235174447,-187500.02235174447,-187500.02235174447,-187500.02235174447,1730243394.427188,1730243394.2096872,3000
4947.983318326869,-187500.02235174447,309.7504746616453,-187500.02235174447,-187500.02235174447,-187500.02235174447,-187500.02235174447,-187500.02235174447,1730243394.4311986,1730243394.2096872,3000
4928.671411117484,-187500.02235174447,278.0780527684752,-187500.02235174447,-187500.02235174447,-187500.02235174447,-187500.02235174447,-187500.02235174447,1730243394.4361556,1730243394.2096872,3000
4931.554786152218,-187500.02235174447,260.68839558224624,-187500.02235174447,-187500.02235174447,-187500.02235174447,-187500.02235174447,-187500.02235174447,1730243394.4391572,1730243394.2096872,3000
4951.157266039523,-187500.02235174447,296.47353845519285,-187500.02235174447,-187500.02235174447,-187500.02235174447,-187500.02235174447,-187500.02235174447,1730243394.442069,1730243394.2096872,3000
4943.870597347092,-187500.02235174447,310.8680618844106,-187500.02235174447,-187500.02235174447,-187500.02235174447,-187500.02235174447,-187500.02235174447,1730243394.4461627,1730243394.2096872,3000
4947.290414248755,-187500.02235174447,289.4550906962265,-187500.02235174447,-187500.02235174447,-187500.02235174447,-187500.02235174447,-187500.02235174447,1730243394.4510846,1730243394.2096872,3000
4951.604300928629,-187500.02235174447,268.1762299747741,-187500.02235174447,-187500.02235174447,-187500.02235174447,-187500.02235174447,-187500.02235174447,1730243394.4551327,1730243394.2096872,3000
4950.285548005766,-187500.02235174447,286.0576255390198,-187500.02235174447,-187500.02235174447,-187500.02235174447,-187500.02235174447,-187500.02235174447,1730243394.459179,1730243394.2096872,3000
4944.675260147484,-187500.02235174447,312.4326839962821,-187500.02235174447,-187500.02235174447,-187500.02235174447,-187500.02235174447,-187500.02235174447,1730243394.4632745,1730243394.2096872,3000
4948.542111938252,-187500.02235174447,293.83603260946666,-187500.02235174447,-187500.02235174447,-187500.02235174447,-187500.02235174447,-187500.02235174447,1730243394.4673126,1730243394.2096872,3000
4942.305975235221,-187500.02235174447,269.182058475263,-187500.02235174447,-187500.02235174447,-187500.02235174447,-187500.02235174447,-187500.02235174447,1730243394.4713173,1730243394.2096872,3000
4954.688841663461,-187500.02235174447,286.3929017058494,-187500.02235174447,-187500.02235174447,-187500.02235174447,-187500.02235174447,-187500.02235174447,1730243394.4752517,1730243394.2096872,3000
4955.046469574746,-187500.02235174447,308.63288743887995,-187500.02235174447,-187500.02235174447,-187500.02235174447,-187500.02235174447,-187500.02235174447,1730243394.480316,1730243394.2096872,3000
4950.307899750221,-187500.02235174447,298.30638150052806,-187500.02235174447,-187500.02235174447,-187500.02235174447,-187500.02235174447,-187500.02235174447,1730243394.4833105,1730243394.2096872,3000
4951.045507317246,-187500.02235174447,271.2160672206959,-187500.02235174447,-187500.02235174447,-187500.02235174447,-187500.02235174447,-187500.02235174447,1730243394.4862351,1730243394.2096872,3000
4957.572216698196,-187500.02235174447,279.7991370915338,-187500.02235174447,-187500.02235174447,-187500.02235174447,-187500.02235174447,-187500.02235174447,1730243394.4912007,1730243394.2096872,3000
4953.906530607525,-187500.02235174447,308.2976112720503,-187500.02235174447,-187500.02235174447,-187500.02235174447,-187500.02235174447,-187500.02235174447,1730243394.495289,1730243394.2096872,3000
4949.637347416562,-187500.02235174447,300.20627977922913,-187500.02235174447,-187500.02235174447,-187500.02235174447,-187500.02235174447,-187500.02235174447,1730243394.499374,1730243394.2096872,3000
4959.3603562546205,-187500.02235174447,274.792346333545,-187500.02235174447,-187500.02235174447,-187500.02235174447,-187500.02235174447,-187500.02235174447,1730243394.5032434,1730243394.2096872,3000
4970.379766271087,-187500.02235174447,279.97795104717625,-187500.02235174447,-187500.02235174447,-187500.02235174447,-187500.02235174447,-187500.02235174447,1730243394.506354,1730243394.2096872,3000
4955.113524808112,-187500.02235174447,307.3588380049274,-187500.02235174447,-187500.02235174447,-187500.02235174447,-187500.02235174447,-187500.02235174447,1730243394.510228,1730243394.2096872,3000
4943.490617691353,-187500.02235174447,305.0119048371202,-187500.02235174447,-187500.02235174447,-187500.02235174447,-187500.02235174447,-187500.02235174447,1730243394.5143268,1730243394.2096872,3000
4948.989146827358,-187500.02235174447,266.4998491406261,-187500.02235174447,-187500.02235174447,-187500.02235174447,-187500.02235174447,-187500.02235174447,1730243394.5182076,1730243394.2096872,3000
4960.857923133126,-187500.02235174447,272.06543350999755,-187500.02235174447,-187500.02235174447,-187500.02235174447,-187500.02235174447,-187500.02235174447,1730243394.5234084,1730243394.2096872,3000
4941.50131243483,-187500.02235174447,305.8836228708772,-187500.02235174447,-187500.02235174447,-187500.02235174447,-187500.02235174447,-187500.02235174447,1730243394.5274076,1730243394.2096872,3000
4938.908510078015,-187500.02235174447,307.3364862604721,-187500.02235174447,-187500.02235174447,-187500.02235174447,-187500.02235174447,-187500.02235174447,1730243394.5313332,1730243394.2096872,3000
4944.094114791646,-187500.02235174447,288.51631742910354,-187500.02235174447,-187500.02235174447,-187500.02235174447,-187500.02235174447,-187500.02235174447,1730243394.53422,1730243394.2096872,3000
4947.871559604592,-187500.02235174447,268.1091747414082,-187500.02235174447,-187500.02235174447,-187500.02235174447,-187500.02235174447,-187500.02235174447,1730243394.5413697,1730243394.2096872,3000
4952.6101294291175,-187500.02235174447,289.36568371840525,-187500.02235174447,-187500.02235174447,-187500.02235174447,-187500.02235174447,-187500.02235174447,1730243394.544361,1730243394.2096872,3000
4945.83755085916,-187500.02235174447,304.31900075900563,-187500.02235174447,-187500.02235174447,-187500.02235174447,-187500.02235174447,-187500.02235174447,1730243394.548377,1730243394.2096872,3000
4947.379821226576,-187500.02235174447,281.2072969922182,-187500.02235174447,-187500.02235174447,-187500.02235174447,-187500.02235174447,-187500.02235174447,1730243394.551345,1730243394.2096872,3000
4957.326347509187,-187500.02235174447,269.7632038311009,-187500.02235174447,-187500.02235174447,-187500.02235174447,-187500.02235174447,-187500.02235174447,1730243394.5553114,1730243394.2096872,3000
4979.253408819844,-187500.02235174447,297.3452564889499,-187500.02235174447,-187500.02235174447,-187500.02235174447,-187500.02235174447,-187500.02235174447,1730243394.5593636,1730243394.2096872,3000
4971.2738360493,-187500.02235174447,311.7174281737123,-187500.02235174447,-187500.02235174447,-187500.02235174447,-187500.02235174447,-187500.02235174447,1730243394.5624204,1730243394.2096872,3000
4931.331268707665,-187500.02235174447,298.90987860082134,-187500.02235174447,-187500.02235174447,-187500.02235174447,-187500.02235174447,-187500.02235174447,1730243394.5664833,1730243394.2096872,3000
4944.250577002833,-187500.02235174447,273.8088695775116,-187500.02235174447,-187500.02235174447,-187500.02235174447,-187500.02235174447,-187500.02235174447,1730243394.5703256,1730243394.2096872,3000
4958.823914387693,-187500.02235174447,285.0294452940757,-187500.02235174447,-187500.02235174447,-187500.02235174447,-187500.02235174447,-187500.02235174447,1730243394.574352,1730243394.2096872,3000
4948.698574149439,-187500.02235174447,315.5395764755698,-187500.02235174447,-187500.02235174447,-187500.02235174447,-187500.02235174447,-187500.02235174447,1730243394.579426,1730243394.2096872,3000
4947.066896804202,-187500.02235174447,300.8321286239778,-187500.02235174447,-187500.02235174447,-187500.02235174447,-187500.02235174447,-187500.02235174447,1730243394.5833237,1730243394.2096872,3000
4953.347736996143,-187500.02235174447,275.0605672670087,-187500.02235174447,-187500.02235174447,-187500.02235174447,-187500.02235174447,-187500.02235174447,1730243394.587438,1730243394.2096872,3000
4959.919149866003,-187500.02235174447,278.68154986876846,-187500.02235174447,-187500.02235174447,-187500.02235174447,-187500.02235174447,-187500.02235174447,1730243394.5916667,1730243394.2096872,3000
4957.54986495374,-187500.02235174447,305.52599495959225,-187500.02235174447,-187500.02235174447,-187500.02235174447,-187500.02235174447,-187500.02235174447,1730243394.5944688,1730243394.2096872,3000
4946.575158426185,-187500.02235174447,301.99441933565373,-187500.02235174447,-187500.02235174447,-187500.02235174447,-187500.02235174447,-187500.02235174447,1730243394.5986078,1730243394.2096872,3000
4937.768571110794,-187500.02235174447,264.7340613286569,-187500.02235174447,-187500.02235174447,-187500.02235174447,-187500.02235174447,-187500.02235174447,1730243394.602431,1730243394.2096872,3000
4950.352603239132,-187500.02235174447,261.6942240827351,-187500.02235174447,-187500.02235174447,-187500.02235174447,-187500.02235174447,-187500.02235174447,1730243394.607397,1730243394.2096872,3000
4957.326347509187,-187500.02235174447,296.51824194410347,-187500.02235174447,-187500.02235174447,-187500.02235174447,-187500.02235174447,-187500.02235174447,1730243394.6115432,1730243394.2096872,3000
4954.800600385738,-187500.02235174447,304.63192518138,-187500.02235174447,-187500.02235174447,-187500.02235174447,-187500.02235174447,-187500.02235174447,1730243394.615574,1730243394.2096872,3000
4945.077591547679,-187500.02235174447,277.1392795013523,-187500.02235174447,-187500.02235174447,-187500.02235174447,-187500.02235174447,-187500.02235174447,1730243394.6194727,1730243394.2096872,3000
4955.672318419494,-187500.02235174447,263.5047153836149,-187500.02235174447,-187500.02235174447,-187500.02235174447,-187500.02235174447,-187500.02235174447,1730243394.6224885,1730243394.2096872,3000
4957.795734142749,-187500.02235174447,294.9983233211426,-187500.02235174447,-187500.02235174447,-187500.02235174447,-187500.02235174447,-187500.02235174447,1730243394.6264255,1730243394.2096872,3000
4962.444896989453,-187500.02235174447,311.29274502906145,-187500.02235174447,-187500.02235174447,-187500.02235174447,-187500.02235174447,-187500.02235174447,1730243394.6326163,1730243394.2096872,3000
4962.98133885638,-187500.02235174447,278.34627370193886,-187500.02235174447,-187500.02235174447,-187500.02235174447,-187500.02235174447,-187500.02235174447,1730243394.6364748,1730243394.2096872,3000
4971.542056982763,-187500.02235174447,252.08297396695303,-187500.02235174447,-187500.02235174447,-187500.02235174447,-187500.02235174447,-187500.02235174447,1730243394.6404588,1730243394.2096872,3000
4969.150420326045,-187500.02235174447,272.08778525445285,-187500.02235174447,-187500.02235174447,-187500.02235174447,-187500.02235174447,-187500.02235174447,1730243394.64463,1730243394.2096872,3000
4975.073632606702,-187500.02235174447,307.2917827715615,-187500.02235174447,-187500.02235174447,-187500.02235174447,-187500.02235174447,-187500.02235174447,1730243394.6475492,1730243394.2096872,3000
5031.8470635231815,-187500.02235174447,288.4716139401929,-187500.02235174447,-187500.02235174447,-187500.02235174447,-187500.02235174447,-187500.02235174447,1730243394.6505008,1730243394.2096872,3000
5060.971386548446,-187500.02235174447,260.1966572042295,-187500.02235174447,-187500.02235174447,-187500.02235174447,-187500.02235174447,-187500.02235174447,1730243394.6545908,1730243394.2096872,3000
5021.788778518293,-187500.02235174447,281.72138711469023,-187500.02235174447,-187500.02235174447,-187500.02235174447,-187500.02235174447,-187500.02235174447,1730243394.658518,1730243394.2096872,3000
4999.660551507539,-187500.02235174447,316.50070148714804,-187500.02235174447,-187500.02235174447,-187500.02235174447,-187500.02235174447,-187500.02235174447,1730243394.662609,1730243394.2096872,3000
5036.652688581073,-187500.02235174447,275.50760215611484,-187500.02235174447,-187500.02235174447,-187500.02235174447,-187500.02235174447,-187500.02235174447,1730243394.667524,1730243394.2096872,3000
4941.88129209057,-187500.02235174447,269.11500324189706,-187500.02235174447,-187500.02235174447,-187500.02235174447,-187500.02235174447,-187500.02235174447,1730243394.6707156,1730243394.2096872,3000
4889.734672276339,-187500.02235174447,303.6037449364358,-187500.02235174447,-187500.02235174447,-187500.02235174447,-187500.02235174447,-187500.02235174447,1730243394.674621,1730243394.2096872,3000
4928.917280306492,-187500.02235174447,311.2033380512402,-187500.02235174447,-187500.02235174447,-187500.02235174447,-187500.02235174447,-187500.02235174447,1730243394.6786983,1730243394.2096872,3000
4960.701460921939,-187500.02235174447,294.9089163433214,-187500.02235174447,-187500.02235174447,-187500.02235174447,-187500.02235174447,-187500.02235174447,1730243394.6824937,1730243394.2096872,3000
5016.46906333793,-187500.02235174447,260.64369209333563,-187500.02235174447,-187500.02235174447,-187500.02235174447,-187500.02235174447,-187500.02235174447,1730243394.6867044,1730243394.2096872,3000
4971.899684894048,-187500.02235174447,276.8487068234333,-187500.02235174447,-187500.02235174447,-187500.02235174447,-187500.02235174447,-187500.02235174447,1730243394.6905437,1730243394.2096872,3000
4863.560779519175,-187500.02235174447,310.35397176193857,-187500.02235174447,-187500.02235174447,-187500.02235174447,-187500.02235174447,-187500.02235174447,1730243394.6956527,1730243394.2096872,3000
4890.874611243559,-187500.02235174447,291.1538232748298,-187500.02235174447,-187500.02235174447,-187500.02235174447,-187500.02235174447,-187500.02235174447,1730243394.6985528,1730243394.2096872,3000
4984.08138562219,-187500.02235174447,275.2393812226512,-187500.02235174447,-187500.02235174447,-187500.02235174447,-187500.02235174447,-187500.02235174447,1730243394.7026792,1730243394.2096872,3000
5092.599104952706,-187500.02235174447,249.80309603251172,-187500.02235174447,-187500.02235174447,-187500.02235174447,-187500.02235174447,-187500.02235174447,1730243394.7066517,1730243394.2096872,3000
5033.679906568516,-187500.02235174447,270.8360875649557,-187500.02235174447,-187500.02235174447,-187500.02235174447,-187500.02235174447,-187500.02235174447,1730243394.7107165,1730243394.2096872,3000
4924.4916349043415,-187500.02235174447,347.4578675577483,-187500.02235174447,-187500.02235174447,-187500.02235174447,-187500.02235174447,-187500.02235174447,1730243394.714716,1730243394.2096872,3000
4965.238865046366,-187500.02235174447,284.3365412159611,-187500.02235174447,-187500.02235174447,-187500.02235174447,-187500.02235174447,-187500.02235174447,1730243394.7186432,1730243394.2096872,3000
4938.573233911185,-187500.02235174447,271.14901198733,-187500.02235174447,-187500.02235174447,-187500.02235174447,-187500.02235174447,-187500.02235174447,1730243394.7227137,1730243394.2096872,3000
4885.82311699666,-187500.02235174447,312.1644630628184,-187500.02235174447,-187500.02235174447,-187500.02235174447,-187500.02235174447,-187500.02235174447,1730243394.725665,1730243394.2096872,3000
4920.848300558127,-187500.02235174447,349.44717281427063,-187500.02235174447,-187500.02235174447,-187500.02235174447,-187500.02235174447,-187500.02235174447,1730243394.7306993,1730243394.2096872,3000
4969.530399981785,-187500.02235174447,315.02548635309773,-187500.02235174447,-187500.02235174447,-187500.02235174447,-187500.02235174447,-187500.02235174447,1730243394.7346838,1730243394.2096872,3000
4976.79471692976,-187500.02235174447,281.52022141459247,-187500.02235174447,-187500.02235174447,-187500.02235174447,-187500.02235174447,-187500.02235174447,1730243394.7388544,1730243394.2096872,3000
4922.368219181088,-187500.02235174447,320.8369399114776,-187500.02235174447,-187500.02235174447,-187500.02235174447,-187500.02235174447,-187500.02235174447,1730243394.742669,1730243394.2096872,3000
4886.001930952302,-187500.02235174447,332.9068819173434,-187500.02235174447,-187500.02235174447,-187500.02235174447,-187500.02235174447,-187500.02235174447,1730243394.7468808,1730243394.2096872,3000
4936.338059465655,-187500.02235174447,262.49888688312615,-187500.02235174447,-187500.02235174447,-187500.02235174447,-187500.02235174447,-187500.02235174447,1730243394.7510266,1730243394.2096872,3000
4961.55082721124,-187500.02235174447,212.2968688365065,-187500.02235174447,-187500.02235174447,-187500.02235174447,-187500.02235174447,-187500.02235174447,1730243394.7537444,1730243394.2096872,3000
4991.0551298922455,-187500.02235174447,244.08104945195316,-187500.02235174447,-187500.02235174447,-187500.02235174447,-187500.02235174447,-187500.02235174447,1730243394.7577784,1730243394.2096872,3000
5013.205708647455,-187500.02235174447,307.49294847165925,-187500.02235174447,-187500.02235174447,-187500.02235174447,-187500.02235174447,-187500.02235174447,1730243394.7628891,1730243394.2096872,3000
4956.119353308601,-187500.02235174447,331.789294694578,-187500.02235174447,-187500.02235174447,-187500.02235174447,-187500.02235174447,-187500.02235174447,1730243394.7668695,1730243394.2096872,3000
4885.376082107554,-187500.02235174447,325.6872684582792,-187500.02235174447,-187500.02235174447,-187500.02235174447,-187500.02235174447,-187500.02235174447,1730243394.7707715,1730243394.2096872,3000
4947.066896804202,-187500.02235174447,292.31611398650574,-187500.02235174447,-187500.02235174447,-187500.02235174447,-187500.02235174447,-187500.02235174447,1730243394.7748344,1730243394.2096872,3000
4995.36901657212,-187500.02235174447,329.4870650156814,-187500.02235174447,-187500.02235174447,-187500.02235174447,-187500.02235174447,-187500.02235174447,1730243394.7789392,1730243394.2096872,3000
4987.076519379201,-187500.02235174447,322.66978295681275,-187500.02235174447,-187500.02235174447,-187500.02235174447,-187500.02235174447,-187500.02235174447,1730243394.7817986,1730243394.2096872,3000
4902.072835215668,-187500.02235174447,288.18104126227394,-187500.02235174447,-187500.02235174447,-187500.02235174447,-187500.02235174447,-187500.02235174447,1730243394.7857487,1730243394.2096872,3000
4861.929102173937,-187500.02235174447,278.793308591045,-187500.02235174447,-187500.02235174447,-187500.02235174447,-187500.02235174447,-187500.02235174447,1730243394.7909095,1730243394.2096872,3000
4896.931933990948,-187500.02235174447,315.13724507537427,-187500.02235174447,-187500.02235174447,-187500.02235174447,-187500.02235174447,-187500.02235174447,1730243394.7947571,1730243394.2096872,3000
4927.375009939076,-187500.02235174447,344.8427134564774,-187500.02235174447,-187500.02235174447,-187500.02235174447,-187500.02235174447,-187500.02235174447,1730243394.7989037,1730243394.2096872,3000
4964.925940623992,-187500.02235174447,274.2335527221624,-187500.02235174447,-187500.02235174447,-187500.02235174447,-187500.02235174447,-187500.02235174447,1730243394.8028193,1730243394.2096872,3000
4985.131917611589,-187500.02235174447,284.89533482734385,-187500.02235174447,-187500.02235174447,-187500.02235174447,-187500.02235174447,-187500.02235174447,1730243394.8059075,1730243394.2096872,3000
4993.1785456155,-187500.02235174447,309.90693687283243,-187500.02235174447,-187500.02235174447,-187500.02235174447,-187500.02235174447,-187500.02235174447,1730243394.8097477,1730243394.2096872,3000
4969.440993003964,-187500.02235174447,284.2918377270505,-187500.02235174447,-187500.02235174447,-187500.02235174447,-187500.02235174447,-187500.02235174447,1730243394.8138895,1730243394.2096872,3000
4916.802634811716,-187500.02235174447,262.9459217722323,-187500.02235174447,-187500.02235174447,-187500.02235174447,-187500.02235174447,-187500.02235174447,1730243394.818804,1730243394.2096872,3000
4947.31276599321,-187500.02235174447,298.6863611562683,-187500.02235174447,-187500.02235174447,-187500.02235174447,-187500.02235174447,-187500.02235174447,1730243394.822924,1730243394.2096872,3000
4927.352658194621,-187500.02235174447,330.7834661940892,-187500.02235174447,-187500.02235174447,-187500.02235174447,-187500.02235174447,-187500.02235174447,1730243394.826774,1730243394.2096872,3000
4924.603393626618,-187500.02235174447,328.54829174855854,-187500.02235174447,-187500.02235174447,-187500.02235174447,-187500.02235174447,-187500.02235174447,1730243394.8299077,1730243394.2096872,3000
4965.864713891115,-187500.02235174447,308.2976112720503,-187500.02235174447,-187500.02235174447,-187500.02235174447,-187500.02235174447,-187500.02235174447,1730243394.8339162,1730243394.2096872,3000
4916.288544689244,-187500.02235174447,272.1548404878188,-187500.02235174447,-187500.02235174447,-187500.02235174447,-187500.02235174447,-187500.02235174447,1730243394.837999,1730243394.2096872,3000
4971.5644087272185,-187500.02235174447,272.1995439767294,-187500.02235174447,-187500.02235174447,-187500.02235174447,-187500.02235174447,-187500.02235174447,1730243394.8420217,1730243394.2096872,3000
4994.60905726064,-187500.02235174447,304.4531112257375,-187500.02235174447,-187500.02235174447,-187500.02235174447,-187500.02235174447,-187500.02235174447,1730243394.8459785,1730243394.2096872,3000
4897.669541557973,-187500.02235174447,344.8650652009327,-187500.02235174447,-187500.02235174447,-187500.02235174447,-187500.02235174447,-187500.02235174447,1730243394.8508587,1730243394.2096872,3000
4898.451852613909,-187500.02235174447,318.6464689548575,-187500.02235174447,-187500.02235174447,-187500.02235174447,-187500.02235174447,-187500.02235174447,1730243394.8549445,1730243394.2096872,3000
4968.524571481296,-187500.02235174447,274.50177365562604,-187500.02235174447,-187500.02235174447,-187500.02235174447,-187500.02235174447,-187500.02235174447,1730243394.857966,1730243394.2096872,3000
4996.643066006072,-187500.02235174447,284.15772726031867,-187500.02235174447,-187500.02235174447,-187500.02235174447,-187500.02235174447,-187500.02235174447,1730243394.8619747,1730243394.2096872,3000
5063.206560993977,-187500.02235174447,247.56792158698104,-187500.02235174447,-187500.02235174447,-187500.02235174447,-187500.02235174447,-187500.02235174447,1730243394.865969,1730243394.2096872,3000
4952.051335817735,-187500.02235174447,305.79421589305593,-187500.02235174447,-187500.02235174447,-187500.02235174447,-187500.02235174447,-187500.02235174447,1730243394.8700016,1730243394.2096872,3000
4847.668689211451,-187500.02235174447,366.63566430040174,-187500.02235174447,-187500.02235174447,-187500.02235174447,-187500.02235174447,-187500.02235174447,1730243394.873968,1730243394.2096872,3000
4905.045617228225,-187500.02235174447,356.2644548731393,-187500.02235174447,-187500.02235174447,-187500.02235174447,-187500.02235174447,-187500.02235174447,1730243394.8788905,1730243394.2096872,3000
5006.500185310863,-187500.02235174447,300.9885908351649,-187500.02235174447,-187500.02235174447,-187500.02235174447,-187500.02235174447,-187500.02235174447,1730243394.882959,1730243394.2096872,3000
5108.222974326965,-187500.02235174447,214.64380200431373,-187500.02235174447,-187500.02235174447,-187500.02235174447,-187500.02235174447,-187500.02235174447,1730243394.8860116,1730243394.2096872,3000
4933.655850131017,-187500.02235174447,244.05869770749783,-187500.02235174447,-187500.02235174447,-187500.02235174447,-187500.02235174447,-187500.02235174447,1730243394.8899782,1730243394.2096872,3000
4856.609386993574,-187500.02235174447,356.21975138422863,-187500.02235174447,-187500.02235174447,-187500.02235174447,-187500.02235174447,-187500.02235174447,1730243394.8940496,1730243394.2096872,3000
4873.954340690892,-187500.02235174447,390.08264423401886,-187500.02235174447,-187500.02235174447,-187500.02235174447,-187500.02235174447,-187500.02235174447,1730243394.898022,1730243394.2096872,3000
4865.639491753518,-187500.02235174447,321.39573352286027,-187500.02235174447,-187500.02235174447,-187500.02235174447,-187500.02235174447,-187500.02235174447,1730243394.902012,1730243394.2096872,3000
4929.699591362428,-187500.02235174447,297.92640184478785,-187500.02235174447,-187500.02235174447,-187500.02235174447,-187500.02235174447,-187500.02235174447,1730243394.9070876,1730243394.2096872,3000
4977.442917518963,-187500.02235174447,312.9914776076648,-187500.02235174447,-187500.02235174447,-187500.02235174447,-187500.02235174447,-187500.02235174447,1730243394.9110143,1730243394.2096872,3000
4975.073632606702,-187500.02235174447,326.9613178922317,-187500.02235174447,-187500.02235174447,-187500.02235174447,-187500.02235174447,-187500.02235174447,1730243394.914085,1730243394.2096872,3000
4924.73750409335,-187500.02235174447,338.338355819983,-187500.02235174447,-187500.02235174447,-187500.02235174447,-187500.02235174447,-187500.02235174447,1730243394.9179237,1730243394.2096872,3000
4926.860919816604,-187500.02235174447,295.0206750655979,-187500.02235174447,-187500.02235174447,-187500.02235174447,-187500.02235174447,-187500.02235174447,1730243394.922078,1730243394.2096872,3000
4933.700553619928,-187500.02235174447,335.74555346316737,-187500.02235174447,-187500.02235174447,-187500.02235174447,-187500.02235174447,-187500.02235174447,1730243394.9259107,1730243394.2096872,3000
4982.069728621213,-187500.02235174447,305.81656763751124,-187500.02235174447,-187500.02235174447,-187500.02235174447,-187500.02235174447,-187500.02235174447,1730243394.9300275,1730243394.2096872,3000
5004.242659120877,-187500.02235174447,239.11896218287492,-187500.02235174447,-187500.02235174447,-187500.02235174447,-187500.02235174447,-187500.02235174447,1730243394.9349484,1730243394.2096872,3000
4914.209832454901,-187500.02235174447,335.5667395075249,-187500.02235174447,-187500.02235174447,-187500.02235174447,-187500.02235174447,-187500.02235174447,1730243394.9381528,1730243394.2096872,3000
4893.310951389188,-187500.02235174447,359.01371944114203,-187500.02235174447,-187500.02235174447,-187500.02235174447,-187500.02235174447,-187500.02235174447,1730243394.9410305,1730243394.2096872,3000
4944.831722358671,-187500.02235174447,278.92741905777683,-187500.02235174447,-187500.02235174447,-187500.02235174447,-187500.02235174447,-187500.02235174447,1730243394.946035,1730243394.2096872,3000
4871.093317400613,-187500.02235174447,280.5143929141036,-187500.02235174447,-187500.02235174447,-187500.02235174447,-187500.02235174447,-187500.02235174447,1730243394.9499967,1730243394.2096872,3000
4909.650076586017,-187500.02235174447,337.3772308084048,-187500.02235174447,-187500.02235174447,-187500.02235174447,-187500.02235174447,-187500.02235174447,1730243394.9540224,1730243394.2096872,3000
5018.123092427622,-187500.02235174447,275.4181951782936,-187500.02235174447,-187500.02235174447,-187500.02235174447,-187500.02235174447,-187500.02235174447,1730243394.9581468,1730243394.2096872,3000
5028.941336743991,-187500.02235174447,310.5551374620363,-187500.02235174447,-187500.02235174447,-187500.02235174447,-187500.02235174447,-187500.02235174447,1730243394.9621067,1730243394.2096872,3000
4980.482754764886,-187500.02235174447,327.8777394148993,-187500.02235174447,-187500.02235174447,-187500.02235174447,-187500.02235174447,-187500.02235174447,1730243394.9661102,1730243394.2096872,3000
4900.217640425878,-187500.02235174447,324.03323936858646,-187500.02235174447,-187500.02235174447,-187500.02235174447,-187500.02235174447,-187500.02235174447,1730243394.9690654,1730243394.2096872,3000
4793.622171118519,-187500.02235174447,309.32579151699446,-187500.02235174447,-187500.02235174447,-187500.02235174447,-187500.02235174447,-187500.02235174447,1730243394.9741125,1730243394.2096872,3000
4814.14107252849,-187500.02235174447,273.115965499397,-187500.02235174447,-187500.02235174447,-187500.02235174447,-187500.02235174447,-187500.02235174447,1730243394.978145,1730243394.2096872,3000
4956.74520215335,-187500.02235174447,302.8214338805001,-187500.02235174447,-187500.02235174447,-187500.02235174447,-187500.02235174447,-187500.02235174447,1730243394.9821513,1730243394.2096872,3000
5041.815941550248,-187500.02235174447,320.0546288555418,-187500.02235174447,-187500.02235174447,-187500.02235174447,-187500.02235174447,-187500.02235174447,1730243394.986195,1730243394.2096872,3000
5144.701021278027,-187500.02235174447,263.77293631707863,-187500.02235174447,-187500.02235174447,-187500.02235174447,-187500.02235174447,-187500.02235174447,1730243394.9901645,1730243394.2096872,3000
4923.441102914942,-187500.02235174447,338.47246628671485,-187500.02235174447,-187500.02235174447,-187500.02235174447,-187500.02235174447,-187500.02235174447,1730243394.9943194,1730243394.2096872,3000
4708.797300910628,-187500.02235174447,273.0042067771205,-187500.02235174447,-187500.02235174447,-187500.02235174447,-187500.02235174447,-187500.02235174447,1730243394.9972856,1730243394.2096872,3000
4771.18101968539,-187500.02235174447,180.2891707765068,-187500.02235174447,-187500.02235174447,-187500.02235174447,-187500.02235174447,-187500.02235174447,1730243395.0012176,1730243394.2096872,3000
4952.677184662483,-187500.02235174447,253.5805408454586,-187500.02235174447,-187500.02235174447,-187500.02235174447,-187500.02235174447,-187500.02235174447,1730243395.0062904,1730243394.2096872,3000
5000.264048607833,-187500.02235174447,381.52192610763626,-187500.02235174447,-187500.02235174447,-187500.02235174447,-187500.02235174447,-187500.02235174447,1730243395.010147,1730243394.2096872,3000
4957.907492865025,-187500.02235174447,405.8629758194657,-187500.02235174447,-187500.02235174447,-187500.02235174447,-187500.02235174447,-187500.02235174447,1730243395.0163093,1730243394.2096872,3000
4902.855146271604,-187500.02235174447,328.2130155817289,-187500.02235174447,-187500.02235174447,-187500.02235174447,-187500.02235174447,-187500.02235174447,1730243395.0191998,1730243394.2096872,3000
4937.656812388517,-187500.02235174447,328.14596034836296,-187500.02235174447,-187500.02235174447,-187500.02235174447,-187500.02235174447,-187500.02235174447,1730243395.0223176,1730243394.2096872,3000
4924.804559326716,-187500.02235174447,378.32562665052734,-187500.02235174447,-187500.02235174447,-187500.02235174447,-187500.02235174447,-187500.02235174447,1730243395.0271933,1730243394.2096872,3000
4923.888137804048,-187500.02235174447,381.8124987855553,-187500.02235174447,-187500.02235174447,-187500.02235174447,-187500.02235174447,-187500.02235174447,1730243395.030211,1730243394.2096872,3000
4973.665472706017,-187500.02235174447,329.3753062934049,-187500.02235174447,-187500.02235174447,-187500.02235174447,-187500.02235174447,-187500.02235174447,1730243395.034227,1730243394.2096872,3000
5083.77016589286,-187500.02235174447,271.70780559871264,-187500.02235174447,-187500.02235174447,-187500.02235174447,-187500.02235174447,-187500.02235174447,1730243395.0382507,1730243394.2096872,3000
5024.158063430556,-187500.02235174447,258.74379381463456,-187500.02235174447,-187500.02235174447,-187500.02235174447,-187500.02235174447,-187500.02235174447,1730243395.0421193,1730243394.2096872,3000
4842.594843220097,-187500.02235174447,340.8417511989774,-187500.02235174447,-187500.02235174447,-187500.02235174447,-187500.02235174447,-187500.02235174447,1730243395.0461955,1730243394.2096872,3000
4885.06315768518,-187500.02235174447,396.67640884833446,-187500.02235174447,-187500.02235174447,-187500.02235174447,-187500.02235174447,-187500.02235174447,1730243395.0502508,1730243394.2096872,3000
4927.062085516702,-187500.02235174447,330.7164109607233,-187500.02235174447,-187500.02235174447,-187500.02235174447,-187500.02235174447,-187500.02235174447,1730243395.0532863,1730243394.2096872,3000
5013.406874347553,-187500.02235174447,248.52904659855923,-187500.02235174447,-187500.02235174447,-187500.02235174447,-187500.02235174447,-187500.02235174447,1730243395.0574374,1730243394.2096872,3000
5104.892564403125,-187500.02235174447,329.0400301265753,-187500.02235174447,-187500.02235174447,-187500.02235174447,-187500.02235174447,-187500.02235174447,1730243395.06237,1730243394.2096872,3000
4820.936002842904,-187500.02235174447,309.5269572170922,-187500.02235174447,-187500.02235174447,-187500.02235174447,-187500.02235174447,-187500.02235174447,1730243395.0662324,1730243394.2096872,3000
4718.967344637793,-187500.02235174447,246.78561053104528,-187500.02235174447,-187500.02235174447,-187500.02235174447,-187500.02235174447,-187500.02235174447,1730243395.070191,1730243394.2096872,3000
4956.3652224976095,-187500.02235174447,421.73271438273366,-187500.02235174447,-187500.02235174447,-187500.02235174447,-187500.02235174447,-187500.02235174447,1730243395.0732455,1730243394.2096872,3000
5019.151272672567,-187500.02235174447,351.43647807079293,-187500.02235174447,-187500.02235174447,-187500.02235174447,-187500.02235174447,-187500.02235174447,1730243395.0772128,1730243394.2096872,3000
4929.207852984411,-187500.02235174447,177.49520271959338,-187500.02235174447,-187500.02235174447,-187500.02235174447,-187500.02235174447,-187500.02235174447,1730243395.0812132,1730243394.2096872,3000
4932.6500216305285,-187500.02235174447,308.856404883433,-187500.02235174447,-187500.02235174447,-187500.02235174447,-187500.02235174447,-187500.02235174447,1730243395.0851958,1730243394.2096872,3000
4922.949364536925,-187500.02235174447,491.201936149828,-187500.02235174447,-187500.02235174447,-187500.02235174447,-187500.02235174447,-187500.02235174447,1730243395.0892885,1730243394.2096872,3000
4860.655052739984,-187500.02235174447,401.0573507615746,-187500.02235174447,-187500.02235174447,-187500.02235174447,-187500.02235174447,-187500.02235174447,1730243395.094309,1730243394.2096872,3000
4930.861882074104,-187500.02235174447,368.6026178124688,-187500.02235174447,-187500.02235174447,-187500.02235174447,-187500.02235174447,-187500.02235174447,1730243395.098415,1730243394.2096872,3000
4954.688841663461,-187500.02235174447,336.6843267302903,-187500.02235174447,-187500.02235174447,-187500.02235174447,-187500.02235174447,-187500.02235174447,1730243395.101236,1730243394.2096872,3000
4928.224376228378,-187500.02235174447,336.7066784747456,-187500.02235174447,-187500.02235174447,-187500.02235174447,-187500.02235174447,-187500.02235174447,1730243395.1053717,1730243394.2096872,3000
4881.084547172135,-187500.02235174447,318.0653235990195,-187500.02235174447,-187500.02235174447,-187500.02235174447,-187500.02235174447,-187500.02235174447,1730243395.109229,1730243394.2096872,3000
4981.332121054187,-187500.02235174447,304.07313156999726,-187500.02235174447,-187500.02235174447,-187500.02235174447,-187500.02235174447,-187500.02235174447,1730243395.1132789,1730243394.2096872,3000
5047.806209064271,-187500.02235174447,376.045748716086,-187500.02235174447,-187500.02235174447,-187500.02235174447,-187500.02235174447,-187500.02235174447,1730243395.1182992,1730243394.2096872,3000
4815.035142306703,-187500.02235174447,275.2393812226512,-187500.02235174447,-187500.02235174447,-187500.02235174447,-187500.02235174447,-187500.02235174447,1730243395.1223135,1730243394.2096872,3000
4831.620136692541,-187500.02235174447,141.93357729119984,-187500.02235174447,-187500.02235174447,-187500.02235174447,-187500.02235174447,-187500.02235174447,1730243395.126281,1730243394.2096872,3000
4886.516021074775,-187500.02235174447,376.8057080275665,-187500.02235174447,-187500.02235174447,-187500.02235174447,-187500.02235174447,-187500.02235174447,1730243395.1293373,1730243394.2096872,3000
4823.752322644273,-187500.02235174447,388.4956703776921,-187500.02235174447,-187500.02235174447,-187500.02235174447,-187500.02235174447,-187500.02235174447,1730243395.133495,1730243394.2096872,3000
4756.160647411424,-187500.02235174447,237.1073051818973,-187500.02235174447,-187500.02235174447,-187500.02235174447,-187500.02235174447,-187500.02235174447,1730243395.1374533,1730243394.2096872,3000
4797.869002565027,-187500.02235174447,149.19789423917464,-187500.02235174447,-187500.02235174447,-187500.02235174447,-187500.02235174447,-187500.02235174447,1730243395.1413238,1730243394.2096872,3000
4951.447838717441,-187500.02235174447,255.0334042350536,-187500.02235174447,-187500.02235174447,-187500.02235174447,-187500.02235174447,-187500.02235174447,1730243395.1455133,1730243394.2096872,3000
4980.46040302043,-187500.02235174447,332.4598470282373,-187500.02235174447,-187500.02235174447,-187500.02235174447,-187500.02235174447,-187500.02235174447,1730243395.1504786,1730243394.2096872,3000
4986.808298445738,-187500.02235174447,391.1778797123289,-187500.02235174447,-187500.02235174447,-187500.02235174447,-187500.02235174447,-187500.02235174447,1730243395.1534264,1730243394.2096872,3000
4991.502164781352,-187500.02235174447,389.948533767287,-187500.02235174447,-187500.02235174447,-187500.02235174447,-187500.02235174447,-187500.02235174447,1730243395.157444,1730243394.2096872,3000
4913.762797565794,-187500.02235174447,426.5383394406247,-187500.02235174447,-187500.02235174447,-187500.02235174447,-187500.02235174447,-187500.02235174447,1730243395.161392,1730243394.2096872,3000
4823.260584266256,-187500.02235174447,462.25642708020536,-187500.02235174447,-187500.02235174447,-187500.02235174447,-187500.02235174447,-187500.02235174447,1730243395.165565,1730243394.2096872,3000
4853.301328814188,-187500.02235174447,337.4889895306813,-187500.02235174447,-187500.02235174447,-187500.02235174447,-187500.02235174447,-187500.02235174447,1730243395.1694632,1730243394.2096872,3000
4867.0252999097465,-187500.02235174447,276.1110992564081,-187500.02235174447,-187500.02235174447,-187500.02235174447,-187500.02235174447,-187500.02235174447,1730243395.1735215,1730243394.2096872,3000
5000.42051081902,-187500.02235174447,319.0040968661424,-187500.02235174447,-187500.02235174447,-187500.02235174447,-187500.02235174447,-187500.02235174447,1730243395.1785543,1730243394.2096872,3000
5113.497986018418,-187500.02235174447,340.7746959656115,-187500.02235174447,-187500.02235174447,-187500.02235174447,-187500.02235174447,-187500.02235174447,1730243395.181451,1730243394.2096872,3000
5081.95967459198,-187500.02235174447,351.3247193485164,-187500.02235174447,-187500.02235174447,-187500.02235174447,-187500.02235174447,-187500.02235174447,1730243395.1853995,1730243394.2096872,3000
4993.670283993517,-187500.02235174447,379.62202782893513,-187500.02235174447,-187500.02235174447,-187500.02235174447,-187500.02235174447,-187500.02235174447,1730243395.1897187,1730243394.2096872,3000
4923.821082570682,-187500.02235174447,390.77554831213337,-187500.02235174447,-187500.02235174447,-187500.02235174447,-187500.02235174447,-187500.02235174447,1730243395.1935031,1730243394.2096872,3000
4960.992033599858,-187500.02235174447,408.2546124761835,-187500.02235174447,-187500.02235174447,-187500.02235174447,-187500.02235174447,-187500.02235174447,1730243395.1976197,1730243394.2096872,3000
4906.610239340096,-187500.02235174447,417.91056608087615,-187500.02235174447,-187500.02235174447,-187500.02235174447,-187500.02235174447,-187500.02235174447,1730243395.2014072,1730243394.2096872,3000
4842.48308449782,-187500.02235174447,323.854425412944,-187500.02235174447,-187500.02235174447,-187500.02235174447,-187500.02235174447,-187500.02235174447,1730243395.206546,1730243394.2096872,3000
4973.821934917204,-187500.02235174447,303.44728272524867,-187500.02235174447,-187500.02235174447,-187500.02235174447,-187500.02235174447,-187500.02235174447,1730243395.2094214,1730243394.2096872,3000
4975.185391328978,-187500.02235174447,366.36744336693806,-187500.02235174447,-187500.02235174447,-187500.02235174447,-187500.02235174447,-187500.02235174447,1730243395.2126317,1730243394.2096872,3000
4975.230094817888,-187500.02235174447,379.4432138732927,-187500.02235174447,-187500.02235174447,-187500.02235174447,-187500.02235174447,-187500.02235174447,1730243395.217512,1730243394.2096872,3000
4921.541204636241,-187500.02235174447,326.9613178922317,-187500.02235174447,-187500.02235174447,-187500.02235174447,-187500.02235174447,-187500.02235174447,1730243395.2215607,1730243394.2096872,3000
4974.000748872847,-187500.02235174447,262.5882938609474,-187500.02235174447,-187500.02235174447,-187500.02235174447,-187500.02235174447,-187500.02235174447,1730243395.2255676,1730243394.2096872,3000
4985.377786800598,-187500.02235174447,350.6988705037678,-187500.02235174447,-187500.02235174447,-187500.02235174447,-187500.02235174447,-187500.02235174447,1730243395.2296736,1730243394.2096872,3000
4884.392605351521,-187500.02235174447,414.0213625456527,-187500.02235174447,-187500.02235174447,-187500.02235174447,-187500.02235174447,-187500.02235174447,1730243395.2338767,1730243394.2096872,3000
4899.167108436479,-187500.02235174447,299.3569134899275,-187500.02235174447,-187500.02235174447,-187500.02235174447,-187500.02235174447,-187500.02235174447,1730243395.2376647,1730243394.2096872,3000
4921.518852891785,-187500.02235174447,313.72908517468994,-187500.02235174447,-187500.02235174447,-187500.02235174447,-187500.02235174447,-187500.02235174447,1730243395.2415073,1730243394.2096872,3000
5001.94042944198,-187500.02235174447,362.8582194874549,-187500.02235174447,-187500.02235174447,-187500.02235174447,-187500.02235174447,-187500.02235174447,1730243395.2456791,1730243394.2096872,3000
5000.666380008028,-187500.02235174447,326.73780044767864,-187500.02235174447,-187500.02235174447,-187500.02235174447,-187500.02235174447,-187500.02235174447,1730243395.2497375,1730243394.2096872,3000
4896.462547357386,-187500.02235174447,349.24600711417287,-187500.02235174447,-187500.02235174447,-187500.02235174447,-187500.02235174447,-187500.02235174447,1730243395.2536843,1730243394.2096872,3000
4869.863971455571,-187500.02235174447,283.77774760457845,-187500.02235174447,-187500.02235174447,-187500.02235174447,-187500.02235174447,-187500.02235174447,1730243395.2577045,1730243394.2096872,3000
4967.429336002986,-187500.02235174447,227.2725376215622,-187500.02235174447,-187500.02235174447,-187500.02235174447,-187500.02235174447,-187500.02235174447,1730243395.2627664,1730243394.2096872,3000
4975.252446562344,-187500.02235174447,441.8269326480547,-187500.02235174447,-187500.02235174447,-187500.02235174447,-187500.02235174447,-187500.02235174447,1730243395.2657216,1730243394.2096872,3000
4835.084657083114,-187500.02235174447,372.15654518086257,-187500.02235174447,-187500.02235174447,-187500.02235174447,-187500.02235174447,-187500.02235174447,1730243395.269653,1730243394.2096872,3000
4982.60617048814,-187500.02235174447,324.7931986800669,-187500.02235174447,-187500.02235174447,-187500.02235174447,-187500.02235174447,-187500.02235174447,1730243395.273693,1730243394.2096872,3000
4942.171864768489,-187500.02235174447,391.5131558791585,-187500.02235174447,-187500.02235174447,-187500.02235174447,-187500.02235174447,-187500.02235174447,1730243395.2775624,1730243394.2096872,3000
4987.657664735039,-187500.02235174447,350.564760037036,-187500.02235174447,-187500.02235174447,-187500.02235174447,-187500.02235174447,-187500.02235174447,1730243395.2817144,1730243394.2096872,3000
5024.359229130653,-187500.02235174447,212.22981360314057,-187500.02235174447,-187500.02235174447,-187500.02235174447,-187500.02235174447,-187500.02235174447,1730243395.2855597,1730243394.2096872,3000
4750.259786875223,-187500.02235174447,145.48750465959367,-187500.02235174447,-187500.02235174447,-187500.02235174447,-187500.02235174447,-187500.02235174447,1730243395.2887237,1730243394.2096872,3000
4930.414847184998,-187500.02235174447,458.47898226725846,-187500.02235174447,-187500.02235174447,-187500.02235174447,-187500.02235174447,-187500.02235174447,1730243395.2925775,1730243394.2096872,3000
4984.953103655947,-187500.02235174447,465.3186160705824,-187500.02235174447,-187500.02235174447,-187500.02235174447,-187500.02235174447,-187500.02235174447,1730243395.296707,1730243394.2096872,3000
4944.787018869761,-187500.02235174447,340.4394197987819,-187500.02235174447,-187500.02235174447,-187500.02235174447,-187500.02235174447,-187500.02235174447,1730243395.301581,1730243394.2096872,3000
4923.932841292959,-187500.02235174447,423.431446961337,-187500.02235174447,-187500.02235174447,-187500.02235174447,-187500.02235174447,-187500.02235174447,1730243395.3058865,1730243394.2096872,3000
4877.508268059286,-187500.02235174447,375.7104725492564,-187500.02235174447,-187500.02235174447,-187500.02235174447,-187500.02235174447,-187500.02235174447,1730243395.30961,1730243394.2096872,3000
4954.442972474453,-187500.02235174447,360.6677485308348,-187500.02235174447,-187500.02235174447,-187500.02235174447,-187500.02235174447,-187500.02235174447,1730243395.313722,1730243394.2096872,3000
4992.84326944867,-187500.02235174447,402.8678420624545,-187500.02235174447,-187500.02235174447,-187500.02235174447,-187500.02235174447,-187500.02235174447,1730243395.3168125,1730243394.2096872,3000
5039.379601404619,-187500.02235174447,297.61347742241355,-187500.02235174447,-187500.02235174447,-187500.02235174447,-187500.02235174447,-187500.02235174447,1730243395.3207157,1730243394.2096872,3000
5100.086939345234,-187500.02235174447,279.64267488034665,-187500.02235174447,-187500.02235174447,-187500.02235174447,-187500.02235174447,-187500.02235174447,1730243395.3248615,1730243394.2096872,3000
4965.842362146659,-187500.02235174447,405.55005139709135,-187500.02235174447,-187500.02235174447,-187500.02235174447,-187500.02235174447,-187500.02235174447,1730243395.329782,1730243394.2096872,3000
4888.3935676090205,-187500.02235174447,401.45968216177016,-187500.02235174447,-187500.02235174447,-187500.02235174447,-187500.02235174447,-187500.02235174447,1730243395.33381,1730243394.2096872,3000
4919.708361590906,-187500.02235174447,344.5297890341031,-187500.02235174447,-187500.02235174447,-187500.02235174447,-187500.02235174447,-187500.02235174447,1730243395.338007,1730243394.2096872,3000
5013.004542947358,-187500.02235174447,258.9449595147323,-187500.02235174447,-187500.02235174447,-187500.02235174447,-187500.02235174447,-187500.02235174447,1730243395.3418117,1730243394.2096872,3000
5047.560339875262,-187500.02235174447,324.1673498353183,-187500.02235174447,-187500.02235174447,-187500.02235174447,-187500.02235174447,-187500.02235174447,1730243395.3449185,1730243394.2096872,3000
4851.781410191227,-187500.02235174447,403.6501531183902,-187500.02235174447,-187500.02235174447,-187500.02235174447,-187500.02235174447,-187500.02235174447,1730243395.3489215,1730243394.2096872,3000
4853.882474170026,-187500.02235174447,311.2033380512402,-187500.02235174447,-187500.02235174447,-187500.02235174447,-187500.02235174447,-187500.02235174447,1730243395.3527317,1730243394.2096872,3000
4937.075667032679,-187500.02235174447,321.93217538978763,-187500.02235174447,-187500.02235174447,-187500.02235174447,-187500.02235174447,-187500.02235174447,1730243395.3582969,1730243394.2096872,3000
4974.805411673237,-187500.02235174447,434.7190779112671,-187500.02235174447,-187500.02235174447,-187500.02235174447,-187500.02235174447,-187500.02235174447,1730243395.3618731,1730243394.2096872,3000
4885.890172230026,-187500.02235174447,338.47246628671485,-187500.02235174447,-187500.02235174447,-187500.02235174447,-187500.02235174447,-187500.02235174447,1730243395.3659406,1730243394.2096872,3000
4867.114706887568,-187500.02235174447,164.5758944244259,-187500.02235174447,-187500.02235174447,-187500.02235174447,-187500.02235174447,-187500.02235174447,1730243395.3698332,1730243394.2096872,3000
4932.895890819537,-187500.02235174447,298.55225068953644,-187500.02235174447,-187500.02235174447,-187500.02235174447,-187500.02235174447,-187500.02235174447,1730243395.3730836,1730243394.2096872,3000
4928.134969250556,-187500.02235174447,437.2671767791721,-187500.02235174447,-187500.02235174447,-187500.02235174447,-187500.02235174447,-187500.02235174447,1730243395.3767047,1730243394.2096872,3000
4958.60039694314,-187500.02235174447,416.97179281375327,-187500.02235174447,-187500.02235174447,-187500.02235174447,-187500.02235174447,-187500.02235174447,1730243395.3807552,1730243394.2096872,3000
4998.833536962693,-187500.02235174447,377.99035048369774,-187500.02235174447,-187500.02235174447,-187500.02235174447,-187500.02235174447,-187500.02235174447,1730243395.384704,1730243394.2096872,3000
5001.515746297329,-187500.02235174447,361.87474273142135,-187500.02235174447,-187500.02235174447,-187500.02235174447,-187500.02235174447,-187500.02235174447,1730243395.3888292,1730243394.2096872,3000
5054.981119034424,-187500.02235174447,370.9048474913654,-187500.02235174447,-187500.02235174447,-187500.02235174447,-187500.02235174447,-187500.02235174447,1730243395.3936992,1730243394.2096872,3000
4989.9375426694805,-187500.02235174447,342.5181320331254,-187500.02235174447,-187500.02235174447,-187500.02235174447,-187500.02235174447,-187500.02235174447,1730243395.3969092,1730243394.2096872,3000
4924.268117459788,-187500.02235174447,352.15173389336275,-187500.02235174447,-187500.02235174447,-187500.02235174447,-187500.02235174447,-187500.02235174447,1730243395.4007275,1730243394.2096872,3000
4933.409980942009,-187500.02235174447,363.1264404209185,-187500.02235174447,-187500.02235174447,-187500.02235174447,-187500.02235174447,-187500.02235174447,1730243395.4047792,1730243394.2096872,3000
4957.147533553545,-187500.02235174447,285.96821856119857,-187500.02235174447,-187500.02235174447,-187500.02235174447,-187500.02235174447,-187500.02235174447,1730243395.4088993,1730243394.2096872,3000
4956.231112030878,-187500.02235174447,289.0974627849416,-187500.02235174447,-187500.02235174447,-187500.02235174447,-187500.02235174447,-187500.02235174447,1730243395.412928,1730243394.2096872,3000
4985.355435056143,-187500.02235174447,386.9086965213653,-187500.02235174447,-187500.02235174447,-187500.02235174447,-187500.02235174447,-187500.02235174447,1730243395.4177644,1730243394.2096872,3000
4994.832574705193,-187500.02235174447,295.0206750655979,-187500.02235174447,-187500.02235174447,-187500.02235174447,-187500.02235174447,-187500.02235174447,1730243395.4218004,1730243394.2096872,3000
4920.378913924565,-187500.02235174447,263.6164741058915,-187500.02235174447,-187500.02235174447,-187500.02235174447,-187500.02235174447,-187500.02235174447,1730243395.4249165,1730243394.2096872,3000
4732.2666325887,-187500.02235174447,336.43845754128193,-187500.02235174447,-187500.02235174447,-187500.02235174447,-187500.02235174447,-187500.02235174447,1730243395.4290116,1730243394.2096872,3000
4774.846705776061,-187500.02235174447,314.01965785260893,-187500.02235174447,-187500.02235174447,-187500.02235174447,-187500.02235174447,-187500.02235174447,1730243395.432908,1730243394.2096872,3000
4938.439123444453,-187500.02235174447,446.8784268949541,-187500.02235174447,-187500.02235174447,-187500.02235174447,-187500.02235174447,-187500.02235174447,1730243395.4369252,1730243394.2096872,3000
5017.94427847198,-187500.02235174447,408.142853753907,-187500.02235174447,-187500.02235174447,-187500.02235174447,-187500.02235174447,-187500.02235174447,1730243395.440836,1730243394.2096872,3000
5050.175493976533,-187500.02235174447,392.0719494905412,-187500.02235174447,-187500.02235174447,-187500.02235174447,-187500.02235174447,-187500.02235174447,1730243395.4450288,1730243394.2096872,3000
5004.130900398601,-187500.02235174447,379.06323421755246,-187500.02235174447,-187500.02235174447,-187500.02235174447,-187500.02235174447,-187500.02235174447,1730243395.45002,1730243394.2096872,3000
4916.5120621337965,-187500.02235174447,363.88639973239896,-187500.02235174447,-187500.02235174447,-187500.02235174447,-187500.02235174447,-187500.02235174447,1730243395.452939,1730243394.2096872,3000
4889.846430998616,-187500.02235174447,361.628873542413,-187500.02235174447,-187500.02235174447,-187500.02235174447,-187500.02235174447,-187500.02235174447,1730243395.4569223,1730243394.2096872,3000
4945.301108992232,-187500.02235174447,371.3518823804715,-187500.02235174447,-187500.02235174447,-187500.02235174447,-187500.02235174447,-187500.02235174447,1730243395.4609044,1730243394.2096872,3000
5025.588575075695,-187500.02235174447,332.9068819173434,-187500.02235174447,-187500.02235174447,-187500.02235174447,-187500.02235174447,-187500.02235174447,1730243395.4650068,1730243394.2096872,3000
5000.934600941491,-187500.02235174447,366.03216720010846,-187500.02235174447,-187500.02235174447,-187500.02235174447,-187500.02235174447,-187500.02235174447,1730243395.4691737,1730243394.2096872,3000
4958.041603331757,-187500.02235174447,361.5171148201365,-187500.02235174447,-187500.02235174447,-187500.02235174447,-187500.02235174447,-187500.02235174447,1730243395.4730384,1730243394.2096872,3000
4958.645100432051,-187500.02235174447,339.3441843204718,-187500.02235174447,-187500.02235174447,-187500.02235174447,-187500.02235174447,-187500.02235174447,1730243395.4779477,1730243394.2096872,3000
4985.109565867134,-187500.02235174447,300.8097768795225,-187500.02235174447,-187500.02235174447,-187500.02235174447,-187500.02235174447,-187500.02235174447,1730243395.4812062,1730243394.2096872,3000
4968.725737181394,-187500.02235174447,337.6678034863238,-187500.02235174447,-187500.02235174447,-187500.02235174447,-187500.02235174447,-187500.02235174447,1730243395.484892,1730243394.2096872,3000
4892.34982637761,-187500.02235174447,409.8415863325103,-187500.02235174447,-187500.02235174447,-187500.02235174447,-187500.02235174447,-187500.02235174447,1730243395.4889956,1730243394.2096872,3000
4812.33058122761,-187500.02235174447,332.079867372497,-187500.02235174447,-187500.02235174447,-187500.02235174447,-187500.02235174447,-187500.02235174447,1730243395.4928973,1730243394.2096872,3000
4918.657829601506,-187500.02235174447,373.29648414808327,-187500.02235174447,-187500.02235174447,-187500.02235174447,-187500.02235174447,-187500.02235174447,1730243395.496986,1730243394.2096872,3000
5040.676002583027,-187500.02235174447,396.8105193150663,-187500.02235174447,-187500.02235174447,-187500.02235174447,-187500.02235174447,-187500.02235174447,1730243395.5011592,1730243394.2096872,3000
5026.035609964802,-187500.02235174447,332.079867372497,-187500.02235174447,-187500.02235174447,-187500.02235174447,-187500.02235174447,-187500.02235174447,1730243395.504991,1730243394.2096872,3000
4931.68889661895,-187500.02235174447,336.32669881900534,-187500.02235174447,-187500.02235174447,-187500.02235174447,-187500.02235174447,-187500.02235174447,1730243395.508103,1730243394.2096872,3000
5001.515746297329,-187500.02235174447,312.79031190756706,-187500.02235174447,-187500.02235174447,-187500.02235174447,-187500.02235174447,-187500.02235174447,1730243395.511968,1730243394.2096872,3000
5038.32906941522,-187500.02235174447,343.3898500668824,-187500.02235174447,-187500.02235174447,-187500.02235174447,-187500.02235174447,-187500.02235174447,1730243395.516972,1730243394.2096872,3000
4871.7191662453615,-187500.02235174447,399.8950600498986,-187500.02235174447,-187500.02235174447,-187500.02235174447,-187500.02235174447,-187500.02235174447,1730243395.5210695,1730243394.2096872,3000
4906.610239340096,-187500.02235174447,376.6715975608346,-187500.02235174447,-187500.02235174447,-187500.02235174447,-187500.02235174447,-187500.02235174447,1730243395.5251417,1730243394.2096872,3000
4976.705309951939,-187500.02235174447,395.7599873256668,-187500.02235174447,-187500.02235174447,-187500.02235174447,-187500.02235174447,-187500.02235174447,1730243395.5291593,1730243394.2096872,3000
4953.079516062679,-187500.02235174447,388.2945046775943,-187500.02235174447,-187500.02235174447,-187500.02235174447,-187500.02235174447,-187500.02235174447,1730243395.533018,1730243394.2096872,3000
4888.751195520305,-187500.02235174447,300.9885908351649,-187500.02235174447,-187500.02235174447,-187500.02235174447,-187500.02235174447,-187500.02235174447,1730243395.5360887,1730243394.2096872,3000
5001.89572595307,-187500.02235174447,330.91757666082106,-187500.02235174447,-187500.02235174447,-187500.02235174447,-187500.02235174447,-187500.02235174447,1730243395.5401387,1730243394.2096872,3000
4984.751937955849,-187500.02235174447,386.0369784876083,-187500.02235174447,-187500.02235174447,-187500.02235174447,-187500.02235174447,-187500.02235174447,1730243395.545244,1730243394.2096872,3000
4946.329289237176,-187500.02235174447,379.1079377064631,-187500.02235174447,-187500.02235174447,-187500.02235174447,-187500.02235174447,-187500.02235174447,1730243395.5491776,1730243394.2096872,3000
4931.912414063503,-187500.02235174447,298.30638150052806,-187500.02235174447,-187500.02235174447,-187500.02235174447,-187500.02235174447,-187500.02235174447,1730243395.5531373,1730243394.2096872,3000
4993.290304337776,-187500.02235174447,334.62796624040203,-187500.02235174447,-187500.02235174447,-187500.02235174447,-187500.02235174447,-187500.02235174447,1730243395.557227,1730243394.2096872,3000
5017.385484860598,-187500.02235174447,255.4357356352491,-187500.02235174447,-187500.02235174447,-187500.02235174447,-187500.02235174447,-187500.02235174447,1730243395.5600648,1730243394.2096872,3000
4938.014440299802,-187500.02235174447,383.17595519732896,-187500.02235174447,-187500.02235174447,-187500.02235174447,-187500.02235174447,-187500.02235174447,1730243395.564231,1730243394.2096872,3000
4882.090375672624,-187500.02235174447,445.3138047830826,-187500.02235174447,-187500.02235174447,-187500.02235174447,-187500.02235174447,-187500.02235174447,1730243395.5691772,1730243394.2096872,3000
4951.224321272889,-187500.02235174447,349.0895449029857,-187500.02235174447,-187500.02235174447,-187500.02235174447,-187500.02235174447,-187500.02235174447,1730243395.573148,1730243394.2096872,3000
4993.446766548964,-187500.02235174447,376.2469144161838,-187500.02235174447,-187500.02235174447,-187500.02235174447,-187500.02235174447,-187500.02235174447,1730243395.577042,1730243394.2096872,3000
5007.327199855709,-187500.02235174447,367.4850305897034,-187500.02235174447,-187500.02235174447,-187500.02235174447,-187500.02235174447,-187500.02235174447,1730243395.583133,1730243394.2096872,3000
5001.113414897134,-187500.02235174447,385.32172266503846,-187500.02235174447,-187500.02235174447,-187500.02235174447,-187500.02235174447,-187500.02235174447,1730243395.586167,1730243394.2096872,3000
4923.664620359495,-187500.02235174447,356.24210312868394,-187500.02235174447,-187500.02235174447,-187500.02235174447,-187500.02235174447,-187500.02235174447,1730243395.5891924,1730243394.2096872,3000
4939.467303689397,-187500.02235174447,344.0380506560863,-187500.02235174447,-187500.02235174447,-187500.02235174447,-187500.02235174447,-187500.02235174447,1730243395.592183,1730243394.2096872,3000
4920.915355791492,-187500.02235174447,411.4732636777477,-187500.02235174447,-187500.02235174447,-187500.02235174447,-187500.02235174447,-187500.02235174447,1730243395.5963447,1730243394.2096872,3000
4842.684250197917,-187500.02235174447,352.17408563781805,-187500.02235174447,-187500.02235174447,-187500.02235174447,-187500.02235174447,-187500.02235174447,1730243395.6011295,1730243394.2096872,3000
4913.002838254313,-187500.02235174447,361.20419039776215,-187500.02235174447,-187500.02235174447,-187500.02235174447,-187500.02235174447,-187500.02235174447,1730243395.6053195,1730243394.2096872,3000
4993.379711315598,-187500.02235174447,353.5598937940471,-187500.02235174447,-187500.02235174447,-187500.02235174447,-187500.02235174447,-187500.02235174447,1730243395.6091516,1730243394.2096872,3000
4975.990054129369,-187500.02235174447,358.09729791847445,-187500.02235174447,-187500.02235174447,-187500.02235174447,-187500.02235174447,-187500.02235174447,1730243395.6123466,1730243394.2096872,3000
4965.082402835179,-187500.02235174447,320.1216840889077,-187500.02235174447,-187500.02235174447,-187500.02235174447,-187500.02235174447,-187500.02235174447,1730243395.6164207,1730243394.2096872,3000
4946.642213659551,-187500.02235174447,263.0576804945088,-187500.02235174447,-187500.02235174447,-187500.02235174447,-187500.02235174447,-187500.02235174447,1730243395.6203668,1730243394.2096872,3000
5018.592479061184,-187500.02235174447,348.4189925693265,-187500.02235174447,-187500.02235174447,-187500.02235174447,-187500.02235174447,-187500.02235174447,1730243395.624434,1730243394.2096872,3000
5048.566168375751,-187500.02235174447,345.06623090103045,-187500.02235174447,-187500.02235174447,-187500.02235174447,-187500.02235174447,-187500.02235174447,1730243395.6293895,1730243394.2096872,3000
5026.393237876087,-187500.02235174447,375.5540103380693,-187500.02235174447,-187500.02235174447,-187500.02235174447,-187500.02235174447,-187500.02235174447,1730243395.6336992,1730243394.2096872,3000
4854.441267781409,-187500.02235174447,376.3139696495497,-187500.02235174447,-187500.02235174447,-187500.02235174447,-187500.02235174447,-187500.02235174447,1730243395.6377475,1730243394.2096872,3000
4924.044600015235,-187500.02235174447,412.4567404337813,-187500.02235174447,-187500.02235174447,-187500.02235174447,-187500.02235174447,-187500.02235174447,1730243395.6402605,1730243394.2096872,3000
4927.844396572637,-187500.02235174447,416.36829571346,-187500.02235174447,-187500.02235174447,-187500.02235174447,-187500.02235174447,-187500.02235174447,1730243395.64443,1730243394.2096872,3000
4980.326292553698,-187500.02235174447,366.97094046723134,-187500.02235174447,-187500.02235174447,-187500.02235174447,-187500.02235174447,-187500.02235174447,1730243395.6485214,1730243394.2096872,3000
4873.104974401591,-187500.02235174447,297.4570152112264,-187500.02235174447,-187500.02235174447,-187500.02235174447,-187500.02235174447,-187500.02235174447,1730243395.6521933,1730243394.2096872,3000
4915.170957466478,-187500.02235174447,379.62202782893513,-187500.02235174447,-187500.02235174447,-187500.02235174447,-187500.02235174447,-187500.02235174447,1730243395.6574385,1730243394.2096872,3000
4963.5848359566735,-187500.02235174447,412.7920166006109,-187500.02235174447,-187500.02235174447,-187500.02235174447,-187500.02235174447,-187500.02235174447,1730243395.6614065,1730243394.2096872,3000
4949.927920094481,-187500.02235174447,375.91163824935416,-187500.02235174447,-187500.02235174447,-187500.02235174447,-187500.02235174447,-187500.02235174447,1730243395.6655536,1730243394.2096872,3000
4997.89476369557,-187500.02235174447,326.3578207919384,-187500.02235174447,-187500.02235174447,-187500.02235174447,-187500.02235174447,-187500.02235174447,1730243395.6682682,1730243394.2096872,3000
4976.235923318377,-187500.02235174447,288.73983487365666,-187500.02235174447,-187500.02235174447,-187500.02235174447,-187500.02235174447,-187500.02235174447,1730243395.6723497,1730243394.2096872,3000
4882.492707072819,-187500.02235174447,300.51920420160343,-187500.02235174447,-187500.02235174447,-187500.02235174447,-187500.02235174447,-187500.02235174447,1730243395.676242,1730243394.2096872,3000
4946.999841570836,-187500.02235174447,403.0243042736416,-187500.02235174447,-187500.02235174447,-187500.02235174447,-187500.02235174447,-187500.02235174447,1730243395.6807597,1730243394.2096872,3000
4976.302978551743,-187500.02235174447,353.40343158286,-187500.02235174447,-187500.02235174447,-187500.02235174447,-187500.02235174447,-187500.02235174447,1730243395.6842496,1730243394.2096872,3000
4967.36228076962,-187500.02235174447,337.9360244197875,-187500.02235174447,-187500.02235174447,-187500.02235174447,-187500.02235174447,-187500.02235174447,1730243395.689534,1730243394.2096872,3000
5011.730493513405,-187500.02235174447,345.69207974577904,-187500.02235174447,-187500.02235174447,-187500.02235174447,-187500.02235174447,-187500.02235174447,1730243395.6933484,1730243394.2096872,3000
4958.4215829874975,-187500.02235174447,349.6036350254578,-187500.02235174447,-187500.02235174447,-187500.02235174447,-187500.02235174447,-187500.02235174447,1730243395.696587,1730243394.2096872,3000
4978.694615208461,-187500.02235174447,357.627911284913,-187500.02235174447,-187500.02235174447,-187500.02235174447,-187500.02235174447,-187500.02235174447,1730243395.7005055,1730243394.2096872,3000
4982.27089432131,-187500.02235174447,395.7376355812115,-187500.02235174447,-187500.02235174447,-187500.02235174447,-187500.02235174447,-187500.02235174447,1730243395.7044923,1730243394.2096872,3000
4862.420840551954,-187500.02235174447,397.2128507152618,-187500.02235174447,-187500.02235174447,-187500.02235174447,-187500.02235174447,-187500.02235174447,1730243395.708707,1730243394.2096872,3000
4870.981558678336,-187500.02235174447,340.93115817679865,-187500.02235174447,-187500.02235174447,-187500.02235174447,-187500.02235174447,-187500.02235174447,1730243395.7125416,1730243394.2096872,3000
4999.951124185458,-187500.02235174447,409.1933857433064,-187500.02235174447,-187500.02235174447,-187500.02235174447,-187500.02235174447,-187500.02235174447,1730243395.7174735,1730243394.2096872,3000
4964.478905734886,-187500.02235174447,366.38979511139337,-187500.02235174447,-187500.02235174447,-187500.02235174447,-187500.02235174447,-187500.02235174447,1730243395.7204764,1730243394.2096872,3000
4914.366294666087,-187500.02235174447,358.8796089744102,-187500.02235174447,-187500.02235174447,-187500.02235174447,-187500.02235174447,-187500.02235174447,1730243395.7245395,1730243394.2096872,3000
4934.348754209132,-187500.02235174447,332.3257365615054,-187500.02235174447,-187500.02235174447,-187500.02235174447,-187500.02235174447,-187500.02235174447,1730243395.7289698,1730243394.2096872,3000
4942.305975235221,-187500.02235174447,334.5609110070361,-187500.02235174447,-187500.02235174447,-187500.02235174447,-187500.02235174447,-187500.02235174447,1730243395.7323513,1730243394.2096872,3000
4955.739373652861,-187500.02235174447,376.0233969716307,-187500.02235174447,-187500.02235174447,-187500.02235174447,-187500.02235174447,-187500.02235174447,1730243395.7370152,1730243394.2096872,3000
4977.84524891916,-187500.02235174447,329.55412024904734,-187500.02235174447,-187500.02235174447,-187500.02235174447,-187500.02235174447,-187500.02235174447,1730243395.740404,1730243394.2096872,3000
4914.92508827747,-187500.02235174447,334.5832627514914,-187500.02235174447,-187500.02235174447,-187500.02235174447,-187500.02235174447,-187500.02235174447,1730243395.7455592,1730243394.2096872,3000
4898.742425291828,-187500.02235174447,372.3353591365051,-187500.02235174447,-187500.02235174447,-187500.02235174447,-187500.02235174447,-187500.02235174447,1730243395.748904,1730243394.2096872,3000
4977.465269263419,-187500.02235174447,299.1333960453744,-187500.02235174447,-187500.02235174447,-187500.02235174447,-187500.02235174447,-187500.02235174447,1730243395.752319,1730243394.2096872,3000
4966.915245880514,-187500.02235174447,284.15772726031867,-187500.02235174447,-187500.02235174447,-187500.02235174447,-187500.02235174447,-187500.02235174447,1730243395.7565093,1730243394.2096872,3000
4952.274853262288,-187500.02235174447,388.562725611058,-187500.02235174447,-187500.02235174447,-187500.02235174447,-187500.02235174447,-187500.02235174447,1730243395.7603333,1730243394.2096872,3000
4962.824876645193,-187500.02235174447,426.0018975736973,-187500.02235174447,-187500.02235174447,-187500.02235174447,-187500.02235174447,-187500.02235174447,1730243395.7648177,1730243394.2096872,3000
5027.466121609941,-187500.02235174447,288.8739453403885,-187500.02235174447,-187500.02235174447,-187500.02235174447,-187500.02235174447,-187500.02235174447,1730243395.7683923,1730243394.2096872,3000
5010.769368501827,-187500.02235174447,362.3888328538934,-187500.02235174447,-187500.02235174447,-187500.02235174447,-187500.02235174447,-187500.02235174447,1730243395.7740242,1730243394.2096872,3000
4904.464471872387,-187500.02235174447,411.04858053309687,-187500.02235174447,-187500.02235174447,-187500.02235174447,-187500.02235174447,-187500.02235174447,1730243395.7763665,1730243394.2096872,3000
4919.931879035459,-187500.02235174447,396.3187809370496,-187500.02235174447,-187500.02235174447,-187500.02235174447,-187500.02235174447,-187500.02235174447,1730243395.77962,1730243394.2096872,3000
4930.638364629551,-187500.02235174447,371.9106759918542,-187500.02235174447,-187500.02235174447,-187500.02235174447,-187500.02235174447,-187500.02235174447,1730243395.784413,1730243394.2096872,3000
4982.919094910514,-187500.02235174447,346.00500416815333,-187500.02235174447,-187500.02235174447,-187500.02235174447,-187500.02235174447,-187500.02235174447,1730243395.7888856,1730243394.2096872,3000
4933.253518730822,-187500.02235174447,330.17996909379593,-187500.02235174447,-187500.02235174447,-187500.02235174447,-187500.02235174447,-187500.02235174447,1730243395.7923963,1730243394.2096872,3000
4911.214698697889,-187500.02235174447,323.29563180156134,-187500.02235174447,-187500.02235174447,-187500.02235174447,-187500.02235174447,-187500.02235174447,1730243395.796874,1730243394.2096872,3000
4943.401210713531,-187500.02235174447,317.26066079862846,-187500.02235174447,-187500.02235174447,-187500.02235174447,-187500.02235174447,-187500.02235174447,1730243395.8006067,1730243394.2096872,3000
4974.8501151621485,-187500.02235174447,368.49085909019226,-187500.02235174447,-187500.02235174447,-187500.02235174447,-187500.02235174447,-187500.02235174447,1730243395.8047085,1730243394.2096872,3000
4983.857868177637,-187500.02235174447,395.6482286033903,-187500.02235174447,-187500.02235174447,-187500.02235174447,-187500.02235174447,-187500.02235174447,1730243395.808036,1730243394.2096872,3000
4943.244748502344,-187500.02235174447,369.854315501966,-187500.02235174447,-187500.02235174447,-187500.02235174447,-187500.02235174447,-187500.02235174447,1730243395.8127425,1730243394.2096872,3000
4872.143849390012,-187500.02235174447,331.4316667832931,-187500.02235174447,-187500.02235174447,-187500.02235174447,-187500.02235174447,-187500.02235174447,1730243395.8166864,1730243394.2096872,3000
4932.001821041325,-187500.02235174447,357.47144907372586,-187500.02235174447,-187500.02235174447,-187500.02235174447,-187500.02235174447,-187500.02235174447,1730243395.820488,1730243394.2096872,3000
4984.953103655947,-187500.02235174447,327.5424632480697,-187500.02235174447,-187500.02235174447,-187500.02235174447,-187500.02235174447,-187500.02235174447,1730243395.8265123,1730243394.2096872,3000
4954.286510263266,-187500.02235174447,388.4509668887815,-187500.02235174447,-187500.02235174447,-187500.02235174447,-187500.02235174447,-187500.02235174447,1730243395.8295934,1730243394.2096872,3000
4946.239882259355,-187500.02235174447,371.5530480805693,-187500.02235174447,-187500.02235174447,-187500.02235174447,-187500.02235174447,-187500.02235174447,1730243395.83262,1730243394.2096872,3000
4950.5537689392295,-187500.02235174447,291.31028548601694,-187500.02235174447,-187500.02235174447,-187500.02235174447,-187500.02235174447,-187500.02235174447,1730243395.8355837,1730243394.2096872,3000
4991.725682225905,-187500.02235174447,325.73197194718983,-187500.02235174447,-187500.02235174447,-187500.02235174447,-187500.02235174447,-187500.02235174447,1730243395.8406572,1730243394.2096872,3000
5002.454519564452,-187500.02235174447,382.50540286366976,-187500.02235174447,-187500.02235174447,-187500.02235174447,-187500.02235174447,-187500.02235174447,1730243395.8447149,1730243394.2096872,3000
4916.690876089439,-187500.02235174447,398.8892315494098,-187500.02235174447,-187500.02235174447,-187500.02235174447,-187500.02235174447,-187500.02235174447,1730243395.848817,1730243394.2096872,3000
4975.565370984718,-187500.02235174447,312.4103322518268,-187500.02235174447,-187500.02235174447,-187500.02235174447,-187500.02235174447,-187500.02235174447,1730243395.852543,1730243394.2096872,3000
4977.778193685794,-187500.02235174447,297.90405010033254,-187500.02235174447,-187500.02235174447,-187500.02235174447,-187500.02235174447,-187500.02235174447,1730243395.8559363,1730243394.2096872,3000
4901.268172415277,-187500.02235174447,395.4470629032925,-187500.02235174447,-187500.02235174447,-187500.02235174447,-187500.02235174447,-187500.02235174447,1730243395.8595204,1730243394.2096872,3000
4829.273203524734,-187500.02235174447,338.42776279780423,-187500.02235174447,-187500.02235174447,-187500.02235174447,-187500.02235174447,-187500.02235174447,1730243395.8639655,1730243394.2096872,3000
4919.2613267018,-187500.02235174447,311.8291868959888,-187500.02235174447,-187500.02235174447,-187500.02235174447,-187500.02235174447,-187500.02235174447,1730243395.867523,1730243394.2096872,3000
4946.7986758707375,-187500.02235174447,392.0719494905412,-187500.02235174447,-187500.02235174447,-187500.02235174447,-187500.02235174447,-187500.02235174447,1730243395.8729336,1730243394.2096872,3000
4970.223304059899,-187500.02235174447,386.1263854654295,-187500.02235174447,-187500.02235174447,-187500.02235174447,-187500.02235174447,-187500.02235174447,1730243395.8765943,1730243394.2096872,3000
5035.244528680388,-187500.02235174447,362.6347020429018,-187500.02235174447,-187500.02235174447,-187500.02235174447,-187500.02235174447,-187500.02235174447,1730243395.8806448,1730243394.2096872,3000
5006.790757988782,-187500.02235174447,287.3540267174276,-187500.02235174447,-187500.02235174447,-187500.02235174447,-187500.02235174447,-187500.02235174447,1730243395.883716,1730243394.2096872,3000
4878.089413415124,-187500.02235174447,319.0264486105977,-187500.02235174447,-187500.02235174447,-187500.02235174447,-187500.02235174447,-187500.02235174447,1730243395.887702,1730243394.2096872,3000
4934.505216420319,-187500.02235174447,415.3177637240605,-187500.02235174447,-187500.02235174447,-187500.02235174447,-187500.02235174447,-187500.02235174447,1730243395.891713,1730243394.2096872,3000
4916.199137711423,-187500.02235174447,402.0184757731528,-187500.02235174447,-187500.02235174447,-187500.02235174447,-187500.02235174447,-187500.02235174447,1730243395.895744,1730243394.2096872,3000
4944.809370614215,-187500.02235174447,347.8825507023991,-187500.02235174447,-187500.02235174447,-187500.02235174447,-187500.02235174447,-187500.02235174447,1730243395.9005785,1730243394.2096872,3000
4943.803542113727,-187500.02235174447,307.0906170714637,-187500.02235174447,-187500.02235174447,-187500.02235174447,-187500.02235174447,-187500.02235174447,1730243395.9047437,1730243394.2096872,3000
4959.136838810067,-187500.02235174447,330.0011551381535,-187500.02235174447,-187500.02235174447,-187500.02235174447,-187500.02235174447,-187500.02235174447,1730243395.9088173,1730243394.2096872,3000
4937.410943199509,-187500.02235174447,378.8173650285441,-187500.02235174447,-187500.02235174447,-187500.02235174447,-187500.02235174447,-187500.02235174447,1730243395.9117734,1730243394.2096872,3000
4962.623710945095,-187500.02235174447,362.6123502984465,-187500.02235174447,-187500.02235174447,-187500.02235174447,-187500.02235174447,-187500.02235174447,1730243395.9157586,1730243394.2096872,3000
4992.932676426492,-187500.02235174447,324.8379021689776,-187500.02235174447,-187500.02235174447,-187500.02235174447,-187500.02235174447,-187500.02235174447,1730243395.9197617,1730243394.2096872,3000
4979.275760564299,-187500.02235174447,360.6677485308348,-187500.02235174447,-187500.02235174447,-187500.02235174447,-187500.02235174447,-187500.02235174447,1730243395.9238114,1730243394.2096872,3000
4905.7608730507945,-187500.02235174447,371.08366144700784,-187500.02235174447,-187500.02235174447,-187500.02235174447,-187500.02235174447,-187500.02235174447,1730243395.9287777,1730243394.2096872,3000
4918.031980756758,-187500.02235174447,322.2227480677066,-187500.02235174447,-187500.02235174447,-187500.02235174447,-187500.02235174447,-187500.02235174447,1730243395.9327765,1730243394.2096872,3000
4915.729751077861,-187500.02235174447,307.47059672720394,-187500.02235174447,-187500.02235174447,-187500.02235174447,-187500.02235174447,-187500.02235174447,1730243395.9357457,1730243394.2096872,3000
4945.904606092526,-187500.02235174447,340.7299924767009,-187500.02235174447,-187500.02235174447,-187500.02235174447,-187500.02235174447,-187500.02235174447,1730243395.9397688,1730243394.2096872,3000
5028.941336743991,-187500.02235174447,353.93987344978734,-187500.02235174447,-187500.02235174447,-187500.02235174447,-187500.02235174447,-187500.02235174447,1730243395.9436882,1730243394.2096872,3000
4948.698574149439,-187500.02235174447,300.31803850150567,-187500.02235174447,-187500.02235174447,-187500.02235174447,-187500.02235174447,-187500.02235174447,1730243395.948156,1730243394.2096872,3000
4897.513079346786,-187500.02235174447,397.3916646709043,-187500.02235174447,-187500.02235174447,-187500.02235174447,-187500.02235174447,-187500.02235174447,1730243395.951744,1730243394.2096872,3000
4928.269079717288,-187500.02235174447,375.7104725492564,-187500.02235174447,-187500.02235174447,-187500.02235174447,-187500.02235174447,-187500.02235174447,1730243395.9563713,1730243394.2096872,3000
4965.529437724285,-187500.02235174447,363.014681698642,-187500.02235174447,-187500.02235174447,-187500.02235174447,-187500.02235174447,-187500.02235174447,1730243395.9607198,1730243394.2096872,3000
4955.337042252665,-187500.02235174447,335.63379474089083,-187500.02235174447,-187500.02235174447,-187500.02235174447,-187500.02235174447,-187500.02235174447,1730243395.9642117,1730243394.2096872,3000
4960.142667310556,-187500.02235174447,343.8368849559885,-187500.02235174447,-187500.02235174447,-187500.02235174447,-187500.02235174447,-187500.02235174447,1730243395.9676902,1730243394.2096872,3000
4925.11748374909,-187500.02235174447,363.7299375212118,-187500.02235174447,-187500.02235174447,-187500.02235174447,-187500.02235174447,-187500.02235174447,1730243395.9718757,1730243394.2096872,3000
4972.279664549788,-187500.02235174447,359.9301409638096,-187500.02235174447,-187500.02235174447,-187500.02235174447,-187500.02235174447,-187500.02235174447,1730243395.9757185,1730243394.2096872,3000
4934.773437353782,-187500.02235174447,366.5239055781252,-187500.02235174447,-187500.02235174447,-187500.02235174447,-187500.02235174447,-187500.02235174447,1730243395.980131,1730243394.2096872,3000
4912.511099876297,-187500.02235174447,366.2556846446615,-187500.02235174447,-187500.02235174447,-187500.02235174447,-187500.02235174447,-187500.02235174447,1730243395.9839375,1730243394.2096872,3000
4909.203041696911,-187500.02235174447,357.337338606994,-187500.02235174447,-187500.02235174447,-187500.02235174447,-187500.02235174447,-187500.02235174447,1730243395.9892204,1730243394.2096872,3000
4930.951289051925,-187500.02235174447,307.5153002161145,-187500.02235174447,-187500.02235174447,-187500.02235174447,-187500.02235174447,-187500.02235174447,1730243395.9917817,1730243394.2096872,3000
4936.472169932386,-187500.02235174447,337.0419546415752,-187500.02235174447,-187500.02235174447,-187500.02235174447,-187500.02235174447,-187500.02235174447,1730243395.9960685,1730243394.2096872,3000
4932.493559419341,-187500.02235174447,351.10120190396333,-187500.02235174447,-187500.02235174447,-187500.02235174447,-187500.02235174447,-187500.02235174447,1730243396.000303,1730243394.2096872,3000
4938.036792044258,-187500.02235174447,316.6571636983352,-187500.02235174447,-187500.02235174447,-187500.02235174447,-187500.02235174447,-187500.02235174447,1730243396.0039062,1730243394.2096872,3000
4933.789960597749,-187500.02235174447,372.2012486697733,-187500.02235174447,-187500.02235174447,-187500.02235174447,-187500.02235174447,-187500.02235174447,1730243396.0078492,1730243394.2096872,3000
5002.141595142079,-187500.02235174447,368.5802660680135,-187500.02235174447,-187500.02235174447,-187500.02235174447,-187500.02235174447,-187500.02235174447,1730243396.012837,1730243394.2096872,3000
4897.960114235892,-187500.02235174447,347.8154954690332,-187500.02235174447,-187500.02235174447,-187500.02235174447,-187500.02235174447,-187500.02235174447,1730243396.0169313,1730243394.2096872,3000
4875.943645947415,-187500.02235174447,358.11964966292976,-187500.02235174447,-187500.02235174447,-187500.02235174447,-187500.02235174447,-187500.02235174447,1730243396.0198925,1730243394.2096872,3000
4936.181597254467,-187500.02235174447,380.82902202952175,-187500.02235174447,-187500.02235174447,-187500.02235174447,-187500.02235174447,-187500.02235174447,1730243396.023775,1730243394.2096872,3000
4925.273945960277,-187500.02235174447,332.0351638835864,-187500.02235174447,-187500.02235174447,-187500.02235174447,-187500.02235174447,-187500.02235174447,1730243396.0277672,1730243394.2096872,3000
4987.657664735039,-187500.02235174447,357.5832077960024,-187500.02235174447,-187500.02235174447,-187500.02235174447,-187500.02235174447,-187500.02235174447,1730243396.0318463,1730243394.2096872,3000
4981.622693732106,-187500.02235174447,370.50251609116987,-187500.02235174447,-187500.02235174447,-187500.02235174447,-187500.02235174447,-187500.02235174447,1730243396.0359151,1730243394.2096872,3000
4912.108768476101,-187500.02235174447,366.7474230226783,-187500.02235174447,-187500.02235174447,-187500.02235174447,-187500.02235174447,-187500.02235174447,1730243396.0402894,1730243394.2096872,3000
4949.391478227553,-187500.02235174447,390.9990657566864,-187500.02235174447,-187500.02235174447,-187500.02235174447,-187500.02235174447,-187500.02235174447,1730243396.0449352,1730243394.2096872,3000
4907.63841958504,-187500.02235174447,338.09248663097463,-187500.02235174447,-187500.02235174447,-187500.02235174447,-187500.02235174447,-187500.02235174447,1730243396.0489745,1730243394.2096872,3000
4907.012570740291,-187500.02235174447,306.57652694899167,-187500.02235174447,-187500.02235174447,-187500.02235174447,-187500.02235174447,-187500.02235174447,1730243396.0517998,1730243394.2096872,3000
4979.476926264397,-187500.02235174447,359.5501613080694,-187500.02235174447,-187500.02235174447,-187500.02235174447,-187500.02235174447,-187500.02235174447,1730243396.0565355,1730243394.2096872,3000
4991.725682225905,-187500.02235174447,345.982652423698,-187500.02235174447,-187500.02235174447,-187500.02235174447,-187500.02235174447,-187500.02235174447,1730243396.0598643,1730243394.2096872,3000
4952.498370706841,-187500.02235174447,336.46080928573724,-187500.02235174447,-187500.02235174447,-187500.02235174447,-187500.02235174447,-187500.02235174447,1730243396.0641053,1730243394.2096872,3000
4875.63072152504,-187500.02235174447,351.950568193265,-187500.02235174447,-187500.02235174447,-187500.02235174447,-187500.02235174447,-187500.02235174447,1730243396.067832,1730243394.2096872,3000
4918.099035990123,-187500.02235174447,314.01965785260893,-187500.02235174447,-187500.02235174447,-187500.02235174447,-187500.02235174447,-187500.02235174447,1730243396.071988,1730243394.2096872,3000
4963.830705145682,-187500.02235174447,311.7844834070782,-187500.02235174447,-187500.02235174447,-187500.02235174447,-187500.02235174447,-187500.02235174447,1730243396.0753267,1730243394.2096872,3000
4905.000913739314,-187500.02235174447,377.6327225724128,-187500.02235174447,-187500.02235174447,-187500.02235174447,-187500.02235174447,-187500.02235174447,1730243396.0803723,1730243394.2096872,3000
4917.093207489635,-187500.02235174447,424.2361097617281,-187500.02235174447,-187500.02235174447,-187500.02235174447,-187500.02235174447,-187500.02235174447,1730243396.083871,1730243394.2096872,3000
4905.604410839607,-187500.02235174447,352.19643738227336,-187500.02235174447,-187500.02235174447,-187500.02235174447,-187500.02235174447,-187500.02235174447,1730243396.0893557,1730243394.2096872,3000
4929.051390773224,-187500.02235174447,311.4268554957933,-187500.02235174447,-187500.02235174447,-187500.02235174447,-187500.02235174447,-187500.02235174447,1730243396.092942,1730243394.2096872,3000
4985.757766456338,-187500.02235174447,374.8164027710441,-187500.02235174447,-187500.02235174447,-187500.02235174447,-187500.02235174447,-187500.02235174447,1730243396.096145,1730243394.2096872,3000
4994.452595049453,-187500.02235174447,377.8115365280553,-187500.02235174447,-187500.02235174447,-187500.02235174447,-187500.02235174447,-187500.02235174447,1730243396.1002822,1730243394.2096872,3000
4920.535376135752,-187500.02235174447,344.1051058894522,-187500.02235174447,-187500.02235174447,-187500.02235174447,-187500.02235174447,-187500.02235174447,1730243396.1031425,1730243394.2096872,3000
4912.824024298671,-187500.02235174447,357.2032281402622,-187500.02235174447,-187500.02235174447,-187500.02235174447,-187500.02235174447,-187500.02235174447,1730243396.1068716,1730243394.2096872,3000
4905.559707350696,-187500.02235174447,360.6230450419242,-187500.02235174447,-187500.02235174447,-187500.02235174447,-187500.02235174447,-187500.02235174447,1730243396.111854,1730243394.2096872,3000
4956.633443431073,-187500.02235174447,360.01954794163083,-187500.02235174447,-187500.02235174447,-187500.02235174447,-187500.02235174447,-187500.02235174447,1730243396.1165528,1730243394.2096872,3000
4925.050428515724,-187500.02235174447,343.23338785569524,-187500.02235174447,-187500.02235174447,-187500.02235174447,-187500.02235174447,-187500.02235174447,1730243396.120536,1730243394.2096872,3000
4944.541149680752,-187500.02235174447,307.53765196056986,-187500.02235174447,-187500.02235174447,-187500.02235174447,-187500.02235174447,-187500.02235174447,1730243396.1242535,1730243394.2096872,3000
4926.190367482945,-187500.02235174447,365.2498561441727,-187500.02235174447,-187500.02235174447,-187500.02235174447,-187500.02235174447,-187500.02235174447,1730243396.1270037,1730243394.2096872,3000
4887.521849575263,-187500.02235174447,407.4275979313371,-187500.02235174447,-187500.02235174447,-187500.02235174447,-187500.02235174447,-187500.02235174447,1730243396.131482,1730243394.2096872,3000
4912.645210343028,-187500.02235174447,322.2450998121619,-187500.02235174447,-187500.02235174447,-187500.02235174447,-187500.02235174447,-187500.02235174447,1730243396.1349118,1730243394.2096872,3000
4957.50516146483,-187500.02235174447,283.73304411566784,-187500.02235174447,-187500.02235174447,-187500.02235174447,-187500.02235174447,-187500.02235174447,1730243396.1404855,1730243394.2096872,3000
4939.534358922763,-187500.02235174447,366.5015538336699,-187500.02235174447,-187500.02235174447,-187500.02235174447,-187500.02235174447,-187500.02235174447,1730243396.1439323,1730243394.2096872,3000
4940.361373467609,-187500.02235174447,372.6706353033347,-187500.02235174447,-187500.02235174447,-187500.02235174447,-187500.02235174447,-187500.02235174447,1730243396.1484823,1730243394.2096872,3000
4855.536503259719,-187500.02235174447,298.4181402228046,-187500.02235174447,-187500.02235174447,-187500.02235174447,-187500.02235174447,-187500.02235174447,1730243396.151916,1730243394.2096872,3000
4895.702588045906,-187500.02235174447,273.22772422167355,-187500.02235174447,-187500.02235174447,-187500.02235174447,-187500.02235174447,-187500.02235174447,1730243396.155486,1730243394.2096872,3000
4977.018234374313,-187500.02235174447,413.753141612189,-187500.02235174447,-187500.02235174447,-187500.02235174447,-187500.02235174447,-187500.02235174447,1730243396.15894,1730243394.2096872,3000
4935.175768753978,-187500.02235174447,403.851318818488,-187500.02235174447,-187500.02235174447,-187500.02235174447,-187500.02235174447,-187500.02235174447,1730243396.1632266,1730243394.2096872,3000
4907.191384695934,-187500.02235174447,358.2537601296616,-187500.02235174447,-187500.02235174447,-187500.02235174447,-187500.02235174447,-187500.02235174447,1730243396.1679127,1730243394.2096872,3000
4930.861882074104,-187500.02235174447,309.8175298950112,-187500.02235174447,-187500.02235174447,-187500.02235174447,-187500.02235174447,-187500.02235174447,1730243396.172145,1730243394.2096872,3000
4942.350678724132,-187500.02235174447,345.1556378788517,-187500.02235174447,-187500.02235174447,-187500.02235174447,-187500.02235174447,-187500.02235174447,1730243396.176098,1730243394.2096872,3000
4939.646117645039,-187500.02235174447,389.7026645782786,-187500.02235174447,-187500.02235174447,-187500.02235174447,-187500.02235174447,-187500.02235174447,1730243396.179175,1730243394.2096872,3000
4897.7813002802495,-187500.02235174447,349.82715247001084,-187500.02235174447,-187500.02235174447,-187500.02235174447,-187500.02235174447,-187500.02235174447,1730243396.1837485,1730243394.2096872,3000
4894.383835123042,-187500.02235174447,284.6718173827908,-187500.02235174447,-187500.02235174447,-187500.02235174447,-187500.02235174447,-187500.02235174447,1730243396.187437,1730243394.2096872,3000
4959.203894043433,-187500.02235174447,353.64930077186835,-187500.02235174447,-187500.02235174447,-187500.02235174447,-187500.02235174447,-187500.02235174447,1730243396.1910198,1730243394.2096872,3000
5015.37382785962,-187500.02235174447,374.19055392629554,-187500.02235174447,-187500.02235174447,-187500.02235174447,-187500.02235174447,-187500.02235174447,1730243396.1962695,1730243394.2096872,3000
4929.587832640152,-187500.02235174447,372.402414369871,-187500.02235174447,-187500.02235174447,-187500.02235174447,-187500.02235174447,-187500.02235174447,1730243396.200215,1730243394.2096872,3000
4865.930064431437,-187500.02235174447,307.9176316163101,-187500.02235174447,-187500.02235174447,-187500.02235174447,-187500.02235174447,-187500.02235174447,1730243396.2042203,1730243394.2096872,3000
4943.244748502344,-187500.02235174447,322.96035563473174,-187500.02235174447,-187500.02235174447,-187500.02235174447,-187500.02235174447,-187500.02235174447,1730243396.206994,1730243394.2096872,3000
4958.98037659888,-187500.02235174447,378.6385510729016,-187500.02235174447,-187500.02235174447,-187500.02235174447,-187500.02235174447,-187500.02235174447,1730243396.2113008,1730243394.2096872,3000
4899.748253792316,-187500.02235174447,384.65117033137926,-187500.02235174447,-187500.02235174447,-187500.02235174447,-187500.02235174447,-187500.02235174447,1730243396.2155564,1730243394.2096872,3000
4883.610294295585,-187500.02235174447,305.5483467040476,-187500.02235174447,-187500.02235174447,-187500.02235174447,-187500.02235174447,-187500.02235174447,1730243396.219085,1730243394.2096872,3000
4900.821137526172,-187500.02235174447,299.91570710131015,-187500.02235174447,-187500.02235174447,-187500.02235174447,-187500.02235174447,-187500.02235174447,1730243396.2232804,1730243394.2096872,3000
4894.406186867498,-187500.02235174447,353.33637634949406,-187500.02235174447,-187500.02235174447,-187500.02235174447,-187500.02235174447,-187500.02235174447,1730243396.228664,1730243394.2096872,3000
4951.425486972987,-187500.02235174447,424.1467027839069,-187500.02235174447,-187500.02235174447,-187500.02235174447,-187500.02235174447,-187500.02235174447,1730243396.2322068,1730243394.2096872,3000
4935.823969343182,-187500.02235174447,339.6794604873014,-187500.02235174447,-187500.02235174447,-187500.02235174447,-187500.02235174447,-187500.02235174447,1730243396.2350664,1730243394.2096872,3000
4918.948402279425,-187500.02235174447,280.84966908093327,-187500.02235174447,-187500.02235174447,-187500.02235174447,-187500.02235174447,-187500.02235174447,1730243396.2392547,1730243394.2096872,3000
4919.909527291004,-187500.02235174447,330.6046522384468,-187500.02235174447,-187500.02235174447,-187500.02235174447,-187500.02235174447,-187500.02235174447,1730243396.2431023,1730243394.2096872,3000
4925.720980849384,-187500.02235174447,403.06900776255225,-187500.02235174447,-187500.02235174447,-187500.02235174447,-187500.02235174447,-187500.02235174447,1730243396.2472627,1730243394.2096872,3000
4918.143739479035,-187500.02235174447,345.02152741211984,-187500.02235174447,-187500.02235174447,-187500.02235174447,-187500.02235174447,-187500.02235174447,1730243396.2511394,1730243394.2096872,3000
4914.098073732624,-187500.02235174447,339.2771290871059,-187500.02235174447,-187500.02235174447,-187500.02235174447,-187500.02235174447,-187500.02235174447,1730243396.2563083,1730243394.2096872,3000
4910.298277175221,-187500.02235174447,362.2323706427063,-187500.02235174447,-187500.02235174447,-187500.02235174447,-187500.02235174447,-187500.02235174447,1730243396.2601724,1730243394.2096872,3000
4920.200099968923,-187500.02235174447,389.8591267894658,-187500.02235174447,-187500.02235174447,-187500.02235174447,-187500.02235174447,-187500.02235174447,1730243396.2633383,1730243394.2096872,3000
4943.714135135905,-187500.02235174447,361.5171148201365,-187500.02235174447,-187500.02235174447,-187500.02235174447,-187500.02235174447,-187500.02235174447,1730243396.267181,1730243394.2096872,3000
4899.032997969746,-187500.02235174447,305.83891938196655,-187500.02235174447,-187500.02235174447,-187500.02235174447,-187500.02235174447,-187500.02235174447,1730243396.2713363,1730243394.2096872,3000
4851.557892746674,-187500.02235174447,308.61053569442464,-187500.02235174447,-187500.02235174447,-187500.02235174447,-187500.02235174447,-187500.02235174447,1730243396.2753391,1730243394.2096872,3000
4936.248652487833,-187500.02235174447,371.2848271471056,-187500.02235174447,-187500.02235174447,-187500.02235174447,-187500.02235174447,-187500.02235174447,1730243396.2793288,1730243394.2096872,3000
4978.94048439747,-187500.02235174447,372.6706353033347,-187500.02235174447,-187500.02235174447,-187500.02235174447,-187500.02235174447,-187500.02235174447,1730243396.2842565,1730243394.2096872,3000
4969.597455215151,-187500.02235174447,342.22755935520644,-187500.02235174447,-187500.02235174447,-187500.02235174447,-187500.02235174447,-187500.02235174447,1730243396.2873113,1730243394.2096872,3000
4957.862789376115,-187500.02235174447,344.7980099675668,-187500.02235174447,-187500.02235174447,-187500.02235174447,-187500.02235174447,-187500.02235174447,1730243396.2912235,1730243394.2096872,3000
4913.11459697659,-187500.02235174447,308.58818394996933,-187500.02235174447,-187500.02235174447,-187500.02235174447,-187500.02235174447,-187500.02235174447,1730243396.2953165,1730243394.2096872,3000
4916.243841200333,-187500.02235174447,280.9390760587545,-187500.02235174447,-187500.02235174447,-187500.02235174447,-187500.02235174447,-187500.02235174447,1730243396.2993417,1730243394.2096872,3000
4881.598637294607,-187500.02235174447,361.8523909869661,-187500.02235174447,-187500.02235174447,-187500.02235174447,-187500.02235174447,-187500.02235174447,1730243396.3033595,1730243394.2096872,3000
4850.797933435194,-187500.02235174447,367.5520858230693,-187500.02235174447,-187500.02235174447,-187500.02235174447,-187500.02235174447,-187500.02235174447,1730243396.3073494,1730243394.2096872,3000
4886.53837281923,-187500.02235174447,356.8456002289773,-187500.02235174447,-187500.02235174447,-187500.02235174447,-187500.02235174447,-187500.02235174447,1730243396.3123488,1730243394.2096872,3000
4932.515911163797,-187500.02235174447,389.4791471337256,-187500.02235174447,-187500.02235174447,-187500.02235174447,-187500.02235174447,-187500.02235174447,1730243396.316316,1730243394.2096872,3000
4937.857978088615,-187500.02235174447,349.11189664744103,-187500.02235174447,-187500.02235174447,-187500.02235174447,-187500.02235174447,-187500.02235174447,1730243396.319276,1730243394.2096872,3000
4933.655850131017,-187500.02235174447,338.74068722017853,-187500.02235174447,-187500.02235174447,-187500.02235174447,-187500.02235174447,-187500.02235174447,1730243396.3233523,1730243394.2096872,3000
4931.823007085683,-187500.02235174447,370.45781260225925,-187500.02235174447,-187500.02235174447,-187500.02235174447,-187500.02235174447,-187500.02235174447,1730243396.3271952,1730243394.2096872,3000
4920.758893580305,-187500.02235174447,353.4704868162259,-187500.02235174447,-187500.02235174447,-187500.02235174447,-187500.02235174447,-187500.02235174447,1730243396.33142,1730243394.2096872,3000
4906.721998062372,-187500.02235174447,300.4297972237822,-187500.02235174447,-187500.02235174447,-187500.02235174447,-187500.02235174447,-187500.02235174447,1730243396.3352652,1730243394.2096872,3000
4943.378858969076,-187500.02235174447,323.563852735025,-187500.02235174447,-187500.02235174447,-187500.02235174447,-187500.02235174447,-187500.02235174447,1730243396.3393407,1730243394.2096872,3000
4895.099090945612,-187500.02235174447,357.40439384035994,-187500.02235174447,-187500.02235174447,-187500.02235174447,-187500.02235174447,-187500.02235174447,1730243396.3432257,1730243394.2096872,3000
4903.726864305361,-187500.02235174447,373.22942891471735,-187500.02235174447,-187500.02235174447,-187500.02235174447,-187500.02235174447,-187500.02235174447,1730243396.3474016,1730243394.2096872,3000
4886.784242008239,-187500.02235174447,307.694114171757,-187500.02235174447,-187500.02235174447,-187500.02235174447,-187500.02235174447,-187500.02235174447,1730243396.3512363,1730243394.2096872,3000
4922.2117569699,-187500.02235174447,335.72320171871206,-187500.02235174447,-187500.02235174447,-187500.02235174447,-187500.02235174447,-187500.02235174447,1730243396.3554168,1730243394.2096872,3000
4934.348754209132,-187500.02235174447,344.75330647865616,-187500.02235174447,-187500.02235174447,-187500.02235174447,-187500.02235174447,-187500.02235174447,1730243396.3592768,1730243394.2096872,3000
4939.601414156129,-187500.02235174447,362.1206119204297,-187500.02235174447,-187500.02235174447,-187500.02235174447,-187500.02235174447,-187500.02235174447,1730243396.3635328,1730243394.2096872,3000
4957.169885298001,-187500.02235174447,323.02741086809766,-187500.02235174447,-187500.02235174447,-187500.02235174447,-187500.02235174447,-187500.02235174447,1730243396.3672729,1730243394.2096872,3000
4879.899904716004,-187500.02235174447,322.4909690011703,-187500.02235174447,-187500.02235174447,-187500.02235174447,-187500.02235174447,-187500.02235174447,1730243396.371601,1730243394.2096872,3000
4883.29736987321,-187500.02235174447,343.9709954227204,-187500.02235174447,-187500.02235174447,-187500.02235174447,-187500.02235174447,-187500.02235174447,1730243396.3742833,1730243394.2096872,3000
4930.325440207176,-187500.02235174447,354.8786467169102,-187500.02235174447,-187500.02235174447,-187500.02235174447,-187500.02235174447,-187500.02235174447,1730243396.3794615,1730243394.2096872,3000
4923.485806403853,-187500.02235174447,349.53657979209186,-187500.02235174447,-187500.02235174447,-187500.02235174447,-187500.02235174447,-187500.02235174447,1730243396.3843417,1730243394.2096872,3000
4895.4343671124425,-187500.02235174447,350.78827748158903,-187500.02235174447,-187500.02235174447,-187500.02235174447,-187500.02235174447,-187500.02235174447,1730243396.389577,1730243394.2096872,3000
4889.5111548317855,-187500.02235174447,335.29851857406123,-187500.02235174447,-187500.02235174447,-187500.02235174447,-187500.02235174447,-187500.02235174447,1730243396.3922913,1730243394.2096872,3000
4917.294373189732,-187500.02235174447,327.2518905701507,-187500.02235174447,-187500.02235174447,-187500.02235174447,-187500.02235174447,-187500.02235174447,1730243396.3955762,1730243394.2096872,3000
4945.636385159062,-187500.02235174447,346.2955768460723,-187500.02235174447,-187500.02235174447,-187500.02235174447,-187500.02235174447,-187500.02235174447,1730243396.398568,1730243394.2096872,3000
4920.781245324761,-187500.02235174447,358.03024268510853,-187500.02235174447,-187500.02235174447,-187500.02235174447,-187500.02235174447,-187500.02235174447,1730243396.40253,1730243394.2096872,3000
4928.961983795403,-187500.02235174447,338.51716977562546,-187500.02235174447,-187500.02235174447,-187500.02235174447,-187500.02235174447,-187500.02235174447,1730243396.40753,1730243394.2096872,3000
4898.742425291828,-187500.02235174447,330.96228014973167,-187500.02235174447,-187500.02235174447,-187500.02235174447,-187500.02235174447,-187500.02235174447,1730243396.411369,1730243394.2096872,3000
4904.375064894565,-187500.02235174447,287.309323228517,-187500.02235174447,-187500.02235174447,-187500.02235174447,-187500.02235174447,-187500.02235174447,1730243396.4154563,1730243394.2096872,3000
4928.760818095305,-187500.02235174447,312.0750560849972,-187500.02235174447,-187500.02235174447,-187500.02235174447,-187500.02235174447,-187500.02235174447,1730243396.4194648,1730243394.2096872,3000
4877.709433759384,-187500.02235174447,317.21595730971785,-187500.02235174447,-187500.02235174447,-187500.02235174447,-187500.02235174447,-187500.02235174447,1730243396.4224367,1730243394.2096872,3000
4921.988239525347,-187500.02235174447,338.42776279780423,-187500.02235174447,-187500.02235174447,-187500.02235174447,-187500.02235174447,-187500.02235174447,1730243396.4263313,1730243394.2096872,3000
4921.384742425053,-187500.02235174447,407.3381909535159,-187500.02235174447,-187500.02235174447,-187500.02235174447,-187500.02235174447,-187500.02235174447,1730243396.4304647,1730243394.2096872,3000
4903.391588138532,-187500.02235174447,343.1663326223293,-187500.02235174447,-187500.02235174447,-187500.02235174447,-187500.02235174447,-187500.02235174447,1730243396.4343648,1730243394.2096872,3000
4929.409018684509,-187500.02235174447,323.60855622393564,-187500.02235174447,-187500.02235174447,-187500.02235174447,-187500.02235174447,-187500.02235174447,1730243396.4394944,1730243394.2096872,3000
4953.951234096437,-187500.02235174447,295.17713727678506,-187500.02235174447,-187500.02235174447,-187500.02235174447,-187500.02235174447,-187500.02235174447,1730243396.443375,1730243394.2096872,3000
4937.366239710598,-187500.02235174447,355.7056612617566,-187500.02235174447,-187500.02235174447,-187500.02235174447,-187500.02235174447,-187500.02235174447,1730243396.4475105,1730243394.2096872,3000
4858.285767827722,-187500.02235174447,371.3518823804715,-187500.02235174447,-187500.02235174447,-187500.02235174447,-187500.02235174447,-187500.02235174447,1730243396.4503727,1730243394.2096872,3000
4877.508268059286,-187500.02235174447,372.3800626254157,-187500.02235174447,-187500.02235174447,-187500.02235174447,-187500.02235174447,-187500.02235174447,1730243396.45495,1730243394.2096872,3000
4894.0262072117575,-187500.02235174447,348.46369605823713,-187500.02235174447,-187500.02235174447,-187500.02235174447,-187500.02235174447,-187500.02235174447,1730243396.4586124,1730243394.2096872,3000
4908.286620174244,-187500.02235174447,342.9651669222316,-187500.02235174447,-187500.02235174447,-187500.02235174447,-187500.02235174447,-187500.02235174447,1730243396.4625952,1730243394.2096872,3000
4927.799693083727,-187500.02235174447,342.1605041218405,-187500.02235174447,-187500.02235174447,-187500.02235174447,-187500.02235174447,-187500.02235174447,1730243396.467481,1730243394.2096872,3000
4948.989146827358,-187500.02235174447,336.2372918411841,-187500.02235174447,-187500.02235174447,-187500.02235174447,-187500.02235174447,-187500.02235174447,1730243396.4717152,1730243394.2096872,3000
4928.805521584216,-187500.02235174447,310.532785717581,-187500.02235174447,-187500.02235174447,-187500.02235174447,-187500.02235174447,-187500.02235174447,1730243396.47547,1730243394.2096872,3000
4869.886323200027,-187500.02235174447,341.1546756213517,-187500.02235174447,-187500.02235174447,-187500.02235174447,-187500.02235174447,-187500.02235174447,1730243396.4790394,1730243394.2096872,3000
4928.850225073126,-187500.02235174447,323.7873701795781,-187500.02235174447,-187500.02235174447,-187500.02235174447,-187500.02235174447,-187500.02235174447,1730243396.4826777,1730243394.2096872,3000
4960.522646966297,-187500.02235174447,205.16666235526355,-187500.02235174447,-187500.02235174447,-187500.02235174447,-187500.02235174447,-187500.02235174447,1730243396.4869032,1730243394.2096872,3000
4931.085399518657,-187500.02235174447,320.3004980445502,-187500.02235174447,-187500.02235174447,-187500.02235174447,-187500.02235174447,-187500.02235174447,1730243396.4906008,1730243394.2096872,3000
4938.975565311381,-187500.02235174447,416.25653699118345,-187500.02235174447,-187500.02235174447,-187500.02235174447,-187500.02235174447,-187500.02235174447,1730243396.4956396,1730243394.2096872,3000
4919.462492401897,-187500.02235174447,380.49374586269215,-187500.02235174447,-187500.02235174447,-187500.02235174447,-187500.02235174447,-187500.02235174447,1730243396.5000424,1730243394.2096872,3000
4857.212884093868,-187500.02235174447,312.27622178509495,-187500.02235174447,-187500.02235174447,-187500.02235174447,-187500.02235174447,-187500.02235174447,1730243396.504043,1730243394.2096872,3000
4925.8997948050255,-187500.02235174447,277.8768870683774,-187500.02235174447,-187500.02235174447,-187500.02235174447,-187500.02235174447,-187500.02235174447,1730243396.50697,1730243394.2096872,3000
4974.738356439872,-187500.02235174447,331.3869632943825,-187500.02235174447,-187500.02235174447,-187500.02235174447,-187500.02235174447,-187500.02235174447,1730243396.510608,1730243394.2096872,3000
4931.398323941031,-187500.02235174447,438.51887446866925,-187500.02235174447,-187500.02235174447,-187500.02235174447,-187500.02235174447,-187500.02235174447,1730243396.515074,1730243394.2096872,3000
4831.530729714719,-187500.02235174447,355.4821438172035,-187500.02235174447,-187500.02235174447,-187500.02235174447,-187500.02235174447,-187500.02235174447,1730243396.518577,1730243394.2096872,3000
4909.739483563839,-187500.02235174447,305.0566083260308,-187500.02235174447,-187500.02235174447,-187500.02235174447,-187500.02235174447,-187500.02235174447,1730243396.5229044,1730243394.2096872,3000
5017.497243582874,-187500.02235174447,287.0634540395086,-187500.02235174447,-187500.02235174447,-187500.02235174447,-187500.02235174447,-187500.02235174447,1730243396.5276687,1730243394.2096872,3000
5011.283458624299,-187500.02235174447,290.5950296634471,-187500.02235174447,-187500.02235174447,-187500.02235174447,-187500.02235174447,-187500.02235174447,1730243396.5317175,1730243394.2096872,3000
4826.590994190096,-187500.02235174447,367.30621663406095,-187500.02235174447,-187500.02235174447,-187500.02235174447,-187500.02235174447,-187500.02235174447,1730243396.5345476,1730243394.2096872,3000
4777.573618599608,-187500.02235174447,342.89811168886564,-187500.02235174447,-187500.02235174447,-187500.02235174447,-187500.02235174447,-187500.02235174447,1730243396.538952,1730243394.2096872,3000
4820.176043531424,-187500.02235174447,320.8369399114776,-187500.02235174447,-187500.02235174447,-187500.02235174447,-187500.02235174447,-187500.02235174447,1730243396.5425391,1730243394.2096872,3000
4875.317797102666,-187500.02235174447,376.6715975608346,-187500.02235174447,-187500.02235174447,-187500.02235174447,-187500.02235174447,-187500.02235174447,1730243396.5469162,1730243394.2096872,3000
4915.729751077861,-187500.02235174447,321.32867828949435,-187500.02235174447,-187500.02235174447,-187500.02235174447,-187500.02235174447,-187500.02235174447,1730243396.550554,1730243394.2096872,3000
4976.548847740752,-187500.02235174447,289.1198145293969,-187500.02235174447,-187500.02235174447,-187500.02235174447,-187500.02235174447,-187500.02235174447,1730243396.5560732,1730243394.2096872,3000
4939.288489733754,-187500.02235174447,359.3266438635163,-187500.02235174447,-187500.02235174447,-187500.02235174447,-187500.02235174447,-187500.02235174447,1730243396.5588038,1730243394.2096872,3000
4897.423672368965,-187500.02235174447,396.0282082591305,-187500.02235174447,-187500.02235174447,-187500.02235174447,-187500.02235174447,-187500.02235174447,1730243396.5629165,1730243394.2096872,3000
4923.821082570682,-187500.02235174447,347.65903325784603,-187500.02235174447,-187500.02235174447,-187500.02235174447,-187500.02235174447,-187500.02235174447,1730243396.5667691,1730243394.2096872,3000
4867.137058632024,-187500.02235174447,323.38503877938257,-187500.02235174447,-187500.02235174447,-187500.02235174447,-187500.02235174447,-187500.02235174447,1730243396.5708337,1730243394.2096872,3000
4869.707509244384,-187500.02235174447,298.4181402228046,-187500.02235174447,-187500.02235174447,-187500.02235174447,-187500.02235174447,-187500.02235174447,1730243396.575129,1730243394.2096872,3000
4956.633443431073,-187500.02235174447,300.049817568042,-187500.02235174447,-187500.02235174447,-187500.02235174447,-187500.02235174447,-187500.02235174447,1730243396.579049,1730243394.2096872,3000
4948.296242749244,-187500.02235174447,372.4918213476922,-187500.02235174447,-187500.02235174447,-187500.02235174447,-187500.02235174447,-187500.02235174447,1730243396.5838091,1730243394.2096872,3000
4843.980651376325,-187500.02235174447,343.1216291334187,-187500.02235174447,-187500.02235174447,-187500.02235174447,-187500.02235174447,-187500.02235174447,1730243396.5872333,1730243394.2096872,3000
4889.198230409412,-187500.02235174447,304.00607633663134,-187500.02235174447,-187500.02235174447,-187500.02235174447,-187500.02235174447,-187500.02235174447,1730243396.5907412,1730243394.2096872,3000
4929.565480895696,-187500.02235174447,364.3334346215052,-187500.02235174447,-187500.02235174447,-187500.02235174447,-187500.02235174447,-187500.02235174447,1730243396.595357,1730243394.2096872,3000
4891.187535665934,-187500.02235174447,362.9252747208208,-187500.02235174447,-187500.02235174447,-187500.02235174447,-187500.02235174447,-187500.02235174447,1730243396.5990064,1730243394.2096872,3000
4955.091173063657,-187500.02235174447,282.48134642617066,-187500.02235174447,-187500.02235174447,-187500.02235174447,-187500.02235174447,-187500.02235174447,1730243396.602963,1730243394.2096872,3000
5027.823749521226,-187500.02235174447,291.06441629700856,-187500.02235174447,-187500.02235174447,-187500.02235174447,-187500.02235174447,-187500.02235174447,1730243396.6070237,1730243394.2096872,3000
