Fp1,Fp2,C3,C4,P7,P8,O1,O2,time_board,time_marker,marker
-9415.918220987109,-47665.184457920135,6641.910271872315,-187500.02235174447,-187500.02235174447,-187500.02235174447,-187500.02235174447,-187500.02235174447,1730987094.0520673,1730987094.0497618,3000
-9389.409052063114,-47713.73244687706,6644.0113358511135,-187500.02235174447,-187500.02235174447,-187500.02235174447,-187500.02235174447,-187500.02235174447,1730987094.0559304,1730987094.0497618,3000
-9447.00949752444,-47747.34947053784,6635.115341557902,-187500.02235174447,-187500.02235174447,-187500.02235174447,-187500.02235174447,-187500.02235174447,1730987094.058849,1730987094.0497618,3000
-9446.271889957416,-47701.10371125981,6641.619699194396,-187500.02235174447,-187500.02235174447,-187500.02235174447,-187500.02235174447,-187500.02235174447,1730987094.0630052,1730987094.0497618,3000
-9400.62962777968,-47684.406958151696,6642.357306761421,-187500.02235174447,-187500.02235174447,-187500.02235174447,-187500.02235174447,-187500.02235174447,1730987094.0679033,1730987094.0497618,3000
-9411.269058140404,-47702.1095397603,6641.731457916672,-187500.02235174447,-187500.02235174447,-187500.02235174447,-187500.02235174447,-187500.02235174447,1730987094.071942,1730987094.0497618,3000
-9413.5712878193,-47762.86158118983,6638.848082881937,-187500.02235174447,-187500.02235174447,-187500.02235174447,-187500.02235174447,-187500.02235174447,1730987094.0759451,1730987094.0497618,3000
-9432.34675316176,-47711.22905149806,6639.540986960053,-187500.02235174447,-187500.02235174447,-187500.02235174447,-187500.02235174447,-187500.02235174447,1730987094.0799935,1730987094.0497618,3000
-9445.780151579398,-47689.0561209984,6661.691565715261,-187500.02235174447,-187500.02235174447,-187500.02235174447,-187500.02235174447,-187500.02235174447,1730987094.0840037,1730987094.0497618,3000
-9432.123235717208,-47750.36695603931,6661.065716870513,-187500.02235174447,-187500.02235174447,-187500.02235174447,-187500.02235174447,-187500.02235174447,1730987094.086994,1730987094.0497618,3000
-9430.737427560976,-47754.25615957453,6652.616757466407,-187500.02235174447,-187500.02235174447,-187500.02235174447,-187500.02235174447,-187500.02235174447,1730987094.0911312,1730987094.0497618,3000
-9424.188366435572,-47738.766400667,6643.117266072902,-187500.02235174447,-187500.02235174447,-187500.02235174447,-187500.02235174447,-187500.02235174447,1730987094.0959733,1730987094.0497618,3000
-9400.361406846216,-47719.007458568514,6632.433132223265,-187500.02235174447,-187500.02235174447,-187500.02235174447,-187500.02235174447,-187500.02235174447,1730987094.0999856,1730987094.0497618,3000
-9367.861970408198,-47793.41641586023,6643.161969561812,-187500.02235174447,-187500.02235174447,-187500.02235174447,-187500.02235174447,-187500.02235174447,1730987094.1039865,1730987094.0497618,3000
-9368.845447164233,-47786.397968101264,6652.393240021854,-187500.02235174447,-187500.02235174447,-187500.02235174447,-187500.02235174447,-187500.02235174447,1730987094.1080296,1730987094.0497618,3000
-9442.270927699916,-47744.73431643657,6642.491417228153,-187500.02235174447,-187500.02235174447,-187500.02235174447,-187500.02235174447,-187500.02235174447,1730987094.11107,1730987094.0497618,3000
-9485.342739265292,-47733.53609246446,6625.302925742022,-187500.02235174447,-187500.02235174447,-187500.02235174447,-187500.02235174447,-187500.02235174447,1730987094.1150627,1730987094.0497618,3000
-9439.901642787652,-47734.54192096495,6629.460350210709,-187500.02235174447,-187500.02235174447,-187500.02235174447,-187500.02235174447,-187500.02235174447,1730987094.1190844,1730987094.0497618,3000
-9438.717000331522,-47765.007348657535,6638.825731137483,-187500.02235174447,-187500.02235174447,-187500.02235174447,-187500.02235174447,-187500.02235174447,1730987094.1229928,1730987094.0497618,3000
-9445.310764945838,-47786.44267159017,6627.1581205318125,-187500.02235174447,-187500.02235174447,-187500.02235174447,-187500.02235174447,-187500.02235174447,1730987094.1281424,1730987094.0497618,3000
-9427.071741470309,-47732.39615349724,6626.576975175974,-187500.02235174447,-187500.02235174447,-187500.02235174447,-187500.02235174447,-187500.02235174447,1730987094.1320672,1730987094.0497618,3000
-9436.615936352722,-47738.29701403344,6632.433132223265,-187500.02235174447,-187500.02235174447,-187500.02235174447,-187500.02235174447,-187500.02235174447,1730987094.1351187,1730987094.0497618,3000
-9442.092113744273,-47774.95387494015,6635.852949124926,-187500.02235174447,-187500.02235174447,-187500.02235174447,-187500.02235174447,-187500.02235174447,1730987094.139073,1730987094.0497618,3000
-9435.00661075194,-47823.50186389707,6642.960803861714,-187500.02235174447,-187500.02235174447,-187500.02235174447,-187500.02235174447,-187500.02235174447,1730987094.1431108,1730987094.0497618,3000
-9423.33900014627,-47746.63421471527,6627.8063211210165,-187500.02235174447,-187500.02235174447,-187500.02235174447,-187500.02235174447,-187500.02235174447,1730987094.1471834,1730987094.0497618,3000
-9415.851165753742,-47685.74806281902,6628.096893798936,-187500.02235174447,-187500.02235174447,-187500.02235174447,-187500.02235174447,-187500.02235174447,1730987094.1511388,1730987094.0497618,3000
-9407.20104064954,-47738.74404892255,6624.565318174997,-187500.02235174447,-187500.02235174447,-187500.02235174447,-187500.02235174447,-187500.02235174447,1730987094.1560729,1730987094.0497618,3000
-9430.268040927416,-47824.82061681993,6624.744132130639,-187500.02235174447,-187500.02235174447,-187500.02235174447,-187500.02235174447,-187500.02235174447,1730987094.160192,1730987094.0497618,3000
-9435.38659040768,-47798.55731708495,6648.660498697817,-187500.02235174447,-187500.02235174447,-187500.02235174447,-187500.02235174447,-187500.02235174447,1730987094.1631896,1730987094.0497618,3000
-9424.478939113493,-47742.9685286246,6639.071600326491,-187500.02235174447,-187500.02235174447,-187500.02235174447,-187500.02235174447,-187500.02235174447,1730987094.1680949,1730987094.0497618,3000
-9426.647058325656,-47760.53699976648,6643.74311491765,-187500.02235174447,-187500.02235174447,-187500.02235174447,-187500.02235174447,-187500.02235174447,1730987094.1720846,1730987094.0497618,3000
-9425.037732724872,-47838.87986408232,6644.972460862692,-187500.02235174447,-187500.02235174447,-187500.02235174447,-187500.02235174447,-187500.02235174447,1730987094.1751027,1730987094.0497618,3000
-9406.351674360238,-47757.49716252055,6635.450617724731,-187500.02235174447,-187500.02235174447,-187500.02235174447,-187500.02235174447,-187500.02235174447,1730987094.1791215,1730987094.0497618,3000
-9403.356540603228,-47722.9637173371,6626.241699009144,-187500.02235174447,-187500.02235174447,-187500.02235174447,-187500.02235174447,-187500.02235174447,1730987094.183103,1730987094.0497618,3000
-9399.71320625701,-47813.55533761446,6640.770332905095,-187500.02235174447,-187500.02235174447,-187500.02235174447,-187500.02235174447,-187500.02235174447,1730987094.187117,1730987094.0497618,3000
-9436.861805541732,-47863.06445158296,6647.073524841491,-187500.02235174447,-187500.02235174447,-187500.02235174447,-187500.02235174447,-187500.02235174447,1730987094.1911223,1730987094.0497618,3000
-9447.76945683592,-47776.83142147439,6643.631356195374,-187500.02235174447,-187500.02235174447,-187500.02235174447,-187500.02235174447,-187500.02235174447,1730987094.1962664,1730987094.0497618,3000
-9462.320442476326,-47744.26492980301,6630.108550799912,-187500.02235174447,-187500.02235174447,-187500.02235174447,-187500.02235174447,-187500.02235174447,1730987094.2001517,1730987094.0497618,3000
-9443.701439345055,-47749.897569405744,6633.394257234843,-187500.02235174447,-187500.02235174447,-187500.02235174447,-187500.02235174447,-187500.02235174447,1730987094.2031295,1730987094.0497618,3000
-9420.120348944709,-47805.50870961055,6632.500187456631,-187500.02235174447,-187500.02235174447,-187500.02235174447,-187500.02235174447,-187500.02235174447,1730987094.2073495,1730987094.0497618,3000
-9435.923032274608,-47787.85083149085,6633.461312468209,-187500.02235174447,-187500.02235174447,-187500.02235174447,-187500.02235174447,-187500.02235174447,1730987094.211165,1730987094.0497618,3000
-9455.10082901726,-47734.69838317614,6639.116303815402,-187500.02235174447,-187500.02235174447,-187500.02235174447,-187500.02235174447,-187500.02235174447,1730987094.2151446,1730987094.0497618,3000
-9422.444930368058,-47707.339847962845,6639.585690448963,-187500.02235174447,-187500.02235174447,-187500.02235174447,-187500.02235174447,-187500.02235174447,1730987094.2191424,1730987094.0497618,3000
-9384.581075260769,-47779.15600289774,6645.575957962985,-187500.02235174447,-187500.02235174447,-187500.02235174447,-187500.02235174447,-187500.02235174447,1730987094.2231543,1730987094.0497618,3000
-9444.573157378813,-47807.788587544994,6631.337896744954,-187500.02235174447,-187500.02235174447,-187500.02235174447,-187500.02235174447,-187500.02235174447,1730987094.2282543,1730987094.0497618,3000
-9458.6324046412,-47721.9131853477,6637.55168170353,-187500.02235174447,-187500.02235174447,-187500.02235174447,-187500.02235174447,-187500.02235174447,1730987094.2311833,1730987094.0497618,3000
-9413.034845952374,-47716.548766678425,6647.207635308223,-187500.02235174447,-187500.02235174447,-187500.02235174447,-187500.02235174447,-187500.02235174447,1730987094.235264,1730987094.0497618,3000
-9417.996933221451,-47785.95093321216,6642.2455480391445,-187500.02235174447,-187500.02235174447,-187500.02235174447,-187500.02235174447,-187500.02235174447,1730987094.239175,1730987094.0497618,3000
-9448.48471265849,-47791.65062804826,6621.816053606994,-187500.02235174447,-187500.02235174447,-187500.02235174447,-187500.02235174447,-187500.02235174447,1730987094.243241,1730987094.0497618,3000
-9407.893944727652,-47729.37866799578,6625.682905397762,-187500.02235174447,-187500.02235174447,-187500.02235174447,-187500.02235174447,-187500.02235174447,1730987094.2472725,1730987094.0497618,3000
-9396.449851566536,-47724.72950514907,6633.371905490388,-187500.02235174447,-187500.02235174447,-187500.02235174447,-187500.02235174447,-187500.02235174447,1730987094.2513452,1730987094.0497618,3000
-9471.574064680824,-47806.89451776678,6639.809207893516,-187500.02235174447,-187500.02235174447,-187500.02235174447,-187500.02235174447,-187500.02235174447,1730987094.2563777,1730987094.0497618,3000
-9462.29809073187,-47819.52325338402,6645.330088773977,-187500.02235174447,-187500.02235174447,-187500.02235174447,-187500.02235174447,-187500.02235174447,1730987094.259318,1730987094.0497618,3000
-9418.15339543264,-47749.94227289466,6643.117266072902,-187500.02235174447,-187500.02235174447,-187500.02235174447,-187500.02235174447,-187500.02235174447,1730987094.2633393,1730987094.0497618,3000
-9433.263174684427,-47715.49823468903,6632.053152567524,-187500.02235174447,-187500.02235174447,-187500.02235174447,-187500.02235174447,-187500.02235174447,1730987094.2673604,1730987094.0497618,3000
-9467.193122767583,-47772.49518305007,6633.126036301379,-187500.02235174447,-187500.02235174447,-187500.02235174447,-187500.02235174447,-187500.02235174447,1730987094.2712665,1730987094.0497618,3000
-9445.310764945838,-47874.17326857725,6641.731457916672,-187500.02235174447,-187500.02235174447,-187500.02235174447,-187500.02235174447,-187500.02235174447,1730987094.2753155,1730987094.0497618,3000
-9418.265154154917,-47803.31823865393,6627.471044954186,-187500.02235174447,-187500.02235174447,-187500.02235174447,-187500.02235174447,-187500.02235174447,1730987094.2793553,1730987094.0497618,3000
-9404.205906892528,-47742.65560420223,6626.085236797958,-187500.02235174447,-187500.02235174447,-187500.02235174447,-187500.02235174447,-187500.02235174447,1730987094.2842708,1730987094.0497618,3000
-9451.032811526396,-47761.34166256686,6637.529329959075,-187500.02235174447,-187500.02235174447,-187500.02235174447,-187500.02235174447,-187500.02235174447,1730987094.2872908,1730987094.0497618,3000
-9426.91527925912,-47806.3357241554,6650.180417320778,-187500.02235174447,-187500.02235174447,-187500.02235174447,-187500.02235174447,-187500.02235174447,1730987094.2903693,1730987094.0497618,3000
-9441.645078855168,-47857.85649512488,6639.317469515499,-187500.02235174447,-187500.02235174447,-187500.02235174447,-187500.02235174447,-187500.02235174447,1730987094.29537,1730987094.0497618,3000
-9462.186332009594,-47801.68656130869,6622.441902451743,-187500.02235174447,-187500.02235174447,-187500.02235174447,-187500.02235174447,-187500.02235174447,1730987094.2994485,1730987094.0497618,3000
-9430.558613605335,-47775.914999951725,6630.890861855849,-187500.02235174447,-187500.02235174447,-187500.02235174447,-187500.02235174447,-187500.02235174447,1730987094.303392,1730987094.0497618,3000
-9396.874534711187,-47836.55528265897,6642.111437572413,-187500.02235174447,-187500.02235174447,-187500.02235174447,-187500.02235174447,-187500.02235174447,1730987094.307392,1730987094.0497618,3000
-9421.237936167472,-47867.89242838531,6636.45644622522,-187500.02235174447,-187500.02235174447,-187500.02235174447,-187500.02235174447,-187500.02235174447,1730987094.3114035,1730987094.0497618,3000
-9449.289375458882,-47759.73233696608,6625.526443186574,-187500.02235174447,-187500.02235174447,-187500.02235174447,-187500.02235174447,-187500.02235174447,1730987094.3143988,1730987094.0497618,3000
-9438.739352075978,-47779.24540987556,6629.728571144173,-187500.02235174447,-187500.02235174447,-187500.02235174447,-187500.02235174447,-187500.02235174447,1730987094.3193417,1730987094.0497618,3000
-9437.95704102004,-47795.36101762784,6634.802417135527,-187500.02235174447,-187500.02235174447,-187500.02235174447,-187500.02235174447,-187500.02235174447,1730987094.3233645,1730987094.0497618,3000
-9404.295313870349,-47776.94318019667,6646.134751574368,-187500.02235174447,-187500.02235174447,-187500.02235174447,-187500.02235174447,-187500.02235174447,1730987094.327356,1730987094.0497618,3000
-9414.91239248662,-47765.72260448011,6645.017164351602,-187500.02235174447,-187500.02235174447,-187500.02235174447,-187500.02235174447,-187500.02235174447,1730987094.3313365,1730987094.0497618,3000
-9446.830683568798,-47771.31054059393,6629.080370554969,-187500.02235174447,-187500.02235174447,-187500.02235174447,-187500.02235174447,-187500.02235174447,1730987094.3353426,1730987094.0497618,3000
-9425.171843191603,-47768.82949695939,6626.2640507536,-187500.02235174447,-187500.02235174447,-187500.02235174447,-187500.02235174447,-187500.02235174447,1730987094.3383515,1730987094.0497618,3000
-9376.199171090027,-47810.49314862408,6640.055077082525,-187500.02235174447,-187500.02235174447,-187500.02235174447,-187500.02235174447,-187500.02235174447,1730987094.342371,1730987094.0497618,3000
-9438.33702067578,-47808.8391195344,6627.8063211210165,-187500.02235174447,-187500.02235174447,-187500.02235174447,-187500.02235174447,-187500.02235174447,1730987094.3463645,1730987094.0497618,3000
-9469.517704190936,-47735.30188027643,6628.655687410318,-187500.02235174447,-187500.02235174447,-187500.02235174447,-187500.02235174447,-187500.02235174447,1730987094.351412,1730987094.0497618,3000
-9442.069761999815,-47802.334761897895,6643.340783517455,-187500.02235174447,-187500.02235174447,-187500.02235174447,-187500.02235174447,-187500.02235174447,1730987094.355489,1730987094.0497618,3000
-9437.934689275586,-47861.16455330426,6639.943318360248,-187500.02235174447,-187500.02235174447,-187500.02235174447,-187500.02235174447,-187500.02235174447,1730987094.359484,1730987094.0497618,3000
-9448.931747547596,-47764.247389346056,6636.545853203042,-187500.02235174447,-187500.02235174447,-187500.02235174447,-187500.02235174447,-187500.02235174447,1730987094.363538,1730987094.0497618,3000
-9427.831700781788,-47757.89949392075,6636.322335758488,-187500.02235174447,-187500.02235174447,-187500.02235174447,-187500.02235174447,-187500.02235174447,1730987094.367509,1730987094.0497618,3000
-9407.759834260922,-47788.40962510224,6635.607079935919,-187500.02235174447,-187500.02235174447,-187500.02235174447,-187500.02235174447,-187500.02235174447,1730987094.3705225,1730987094.0497618,3000
-9423.42840712409,-47863.1985620497,6640.45740848272,-187500.02235174447,-187500.02235174447,-187500.02235174447,-187500.02235174447,-187500.02235174447,1730987094.3745131,1730987094.0497618,3000
-9421.416750123111,-47816.77398881602,6644.45837074022,-187500.02235174447,-187500.02235174447,-187500.02235174447,-187500.02235174447,-187500.02235174447,1730987094.3795588,1730987094.0497618,3000
-9438.113503231229,-47770.05884290444,6632.343725245443,-187500.02235174447,-187500.02235174447,-187500.02235174447,-187500.02235174447,-187500.02235174447,1730987094.383515,1730987094.0497618,3000
-9434.91720377412,-47807.788587544994,6639.228062537678,-187500.02235174447,-187500.02235174447,-187500.02235174447,-187500.02235174447,-187500.02235174447,1730987094.3875306,1730987094.0497618,3000
-9431.29622117236,-47886.55613500549,6644.123094573391,-187500.02235174447,-187500.02235174447,-187500.02235174447,-187500.02235174447,-187500.02235174447,1730987094.3914192,1730987094.0497618,3000
-9438.717000331522,-47803.05001772047,6632.567242689996,-187500.02235174447,-187500.02235174447,-187500.02235174447,-187500.02235174447,-187500.02235174447,1730987094.3945503,1730987094.0497618,3000
-9415.53824133137,-47744.48844724756,6625.794664120039,-187500.02235174447,-187500.02235174447,-187500.02235174447,-187500.02235174447,-187500.02235174447,1730987094.3984797,1730987094.0497618,3000
-9384.581075260769,-47754.39027004127,6637.0822950699685,-187500.02235174447,-187500.02235174447,-187500.02235174447,-187500.02235174447,-187500.02235174447,1730987094.4024374,1730987094.0497618,3000
-9444.886081801187,-47846.94884383069,6641.865568383404,-187500.02235174447,-187500.02235174447,-187500.02235174447,-187500.02235174447,-187500.02235174447,1730987094.4075685,1730987094.0497618,3000
-9470.970567580527,-47902.872908457866,6647.364097519409,-187500.02235174447,-187500.02235174447,-187500.02235174447,-187500.02235174447,-187500.02235174447,1730987094.4115071,1730987094.0497618,3000
-9405.278790626382,-47822.540738885495,6642.31260327251,-187500.02235174447,-187500.02235174447,-187500.02235174447,-187500.02235174447,-187500.02235174447,1730987094.4155052,1730987094.0497618,3000
-9410.978485462483,-47809.01793349003,6618.105664027413,-187500.02235174447,-187500.02235174447,-187500.02235174447,-187500.02235174447,-187500.02235174447,1730987094.419535,1730987094.0497618,3000
-9475.30680600486,-47881.77286169206,6609.947277301226,-187500.02235174447,-187500.02235174447,-187500.02235174447,-187500.02235174447,-187500.02235174447,1730987094.4224565,1730987094.0497618,3000
-9437.666468342122,-47913.37822835186,6645.240681796156,-187500.02235174447,-187500.02235174447,-187500.02235174447,-187500.02235174447,-187500.02235174447,1730987094.4265893,1730987094.0497618,3000
-9425.328305402792,-47828.97804128863,6652.46029525522,-187500.02235174447,-187500.02235174447,-187500.02235174447,-187500.02235174447,-187500.02235174447,1730987094.4305897,1730987094.0497618,3000
-9420.634439067178,-47803.47470086512,6644.480722484675,-187500.02235174447,-187500.02235174447,-187500.02235174447,-187500.02235174447,-187500.02235174447,1730987094.434608,1730987094.0497618,3000
-9444.327288189805,-47892.56875426397,6648.325222530988,-187500.02235174447,-187500.02235174447,-187500.02235174447,-187500.02235174447,-187500.02235174447,1730987094.439732,1730987094.0497618,3000
-9429.686895571578,-47921.51426333359,6640.725629416183,-187500.02235174447,-187500.02235174447,-187500.02235174447,-187500.02235174447,-187500.02235174447,1730987094.4436731,1730987094.0497618,3000
-9365.157409329106,-47883.8515739264,6637.328164258977,-187500.02235174447,-187500.02235174447,-187500.02235174447,-187500.02235174447,-187500.02235174447,1730987094.4475064,1730987094.0497618,3000
-9377.495572268435,-47855.06252706797,6650.672155698795,-187500.02235174447,-187500.02235174447,-187500.02235174447,-187500.02235174447,-187500.02235174447,1730987094.4506152,1730987094.0497618,3000
-9487.35439626627,-47900.16834737878,6648.79460916455,-187500.02235174447,-187500.02235174447,-187500.02235174447,-187500.02235174447,-187500.02235174447,1730987094.454652,1730987094.0497618,3000
-9489.477811989524,-47917.267431887085,6649.085181842468,-187500.02235174447,-187500.02235174447,-187500.02235174447,-187500.02235174447,-187500.02235174447,1730987094.4586556,1730987094.0497618,3000
-9466.16494252264,-47839.50571292707,6640.658574182818,-187500.02235174447,-187500.02235174447,-187500.02235174447,-187500.02235174447,-187500.02235174447,1730987094.4626467,1730987094.0497618,3000
-9424.545994346858,-47821.534910385,6637.305812514522,-187500.02235174447,-187500.02235174447,-187500.02235174447,-187500.02235174447,-187500.02235174447,1730987094.4676237,1730987094.0497618,3000
-9398.170935889597,-47865.56784696196,6650.091010342957,-187500.02235174447,-187500.02235174447,-187500.02235174447,-187500.02235174447,-187500.02235174447,1730987094.4716575,1730987094.0497618,3000
-9418.734540788477,-47974.53260118159,6645.575957962985,-187500.02235174447,-187500.02235174447,-187500.02235174447,-187500.02235174447,-187500.02235174447,1730987094.474661,1730987094.0497618,3000
-9445.757799834944,-47928.64446981483,6635.249452024634,-187500.02235174447,-187500.02235174447,-187500.02235174447,-187500.02235174447,-187500.02235174447,1730987094.478652,1730987094.0497618,3000
-9473.250445514972,-47834.16364600226,6641.93262361677,-187500.02235174447,-187500.02235174447,-187500.02235174447,-187500.02235174447,-187500.02235174447,1730987094.4826596,1730987094.0497618,3000
-9433.352581662248,-47846.81473336396,6645.084219584968,-187500.02235174447,-187500.02235174447,-187500.02235174447,-187500.02235174447,-187500.02235174447,1730987094.4867,1730987094.0497618,3000
-9421.304991400835,-47926.87868200287,6655.008394123125,-187500.02235174447,-187500.02235174447,-187500.02235174447,-187500.02235174447,-187500.02235174447,1730987094.4907794,1730987094.0497618,3000
-9409.816194750809,-47946.59292061245,6664.08320237198,-187500.02235174447,-187500.02235174447,-187500.02235174447,-187500.02235174447,-187500.02235174447,1730987094.495684,1730987094.0497618,3000
-9331.94271706852,-47840.310375727466,6636.814074136505,-187500.02235174447,-187500.02235174447,-187500.02235174447,-187500.02235174447,-187500.02235174447,1730987094.4997225,1730987094.0497618,3000
-9391.443060808548,-47860.87398062635,6615.043475037036,-187500.02235174447,-187500.02235174447,-187500.02235174447,-187500.02235174447,-187500.02235174447,1730987094.5026996,1730987094.0497618,3000
-9459.21354999704,-47907.72323700467,6623.224213507679,-187500.02235174447,-187500.02235174447,-187500.02235174447,-187500.02235174447,-187500.02235174447,1730987094.5067208,1730987094.0497618,3000
-9467.170771023128,-47916.2616033866,6652.974385377692,-187500.02235174447,-187500.02235174447,-187500.02235174447,-187500.02235174447,-187500.02235174447,1730987094.5107183,1730987094.0497618,3000
-9451.368087693225,-47886.75730070559,6628.9239083437815,-187500.02235174447,-187500.02235174447,-187500.02235174447,-187500.02235174447,-187500.02235174447,1730987094.5146646,1730987094.0497618,3000
-9398.05917716732,-47848.2452450091,6652.527350488585,-187500.02235174447,-187500.02235174447,-187500.02235174447,-187500.02235174447,-187500.02235174447,1730987094.5187528,1730987094.0497618,3000
-9424.367180391217,-47881.19171633622,6666.65365298434,-187500.02235174447,-187500.02235174447,-187500.02235174447,-187500.02235174447,-187500.02235174447,1730987094.5228052,1730987094.0497618,3000
-9465.852018100264,-47946.548217123534,6604.73932084314,-187500.02235174447,-187500.02235174447,-187500.02235174447,-187500.02235174447,-187500.02235174447,1730987094.5278907,1730987094.0497618,3000
-9475.530323449411,-47923.41416161229,6548.412924815765,-187500.02235174447,-187500.02235174447,-187500.02235174447,-187500.02235174447,-187500.02235174447,1730987094.53091,1730987094.0497618,3000
-9380.244836836438,-47851.41919272176,6649.040478353558,-187500.02235174447,-187500.02235174447,-187500.02235174447,-187500.02235174447,-187500.02235174447,1730987094.5349069,1730987094.0497618,3000
-9440.572195121313,-47870.97696912014,6721.258964688655,-187500.02235174447,-187500.02235174447,-187500.02235174447,-187500.02235174447,-187500.02235174447,1730987094.538766,1730987094.0497618,3000
-9526.581707785332,-47913.80291149651,6632.634297923362,-187500.02235174447,-187500.02235174447,-187500.02235174447,-187500.02235174447,-187500.02235174447,1730987094.5428612,1730987094.0497618,3000
-9397.09805215574,-47891.56292576348,6676.309606589032,-187500.02235174447,-187500.02235174447,-187500.02235174447,-187500.02235174447,-187500.02235174447,1730987094.5467076,1730987094.0497618,3000
-9382.971749659986,-47900.637734012336,6659.143466847357,-187500.02235174447,-187500.02235174447,-187500.02235174447,-187500.02235174447,-187500.02235174447,1730987094.5506856,1730987094.0497618,3000
-9431.922070017108,-47940.66970833179,6585.293303167022,-187500.02235174447,-187500.02235174447,-187500.02235174447,-187500.02235174447,-187500.02235174447,1730987094.55481,1730987094.0497618,3000
-9392.694758498044,-47990.13411881139,6623.648896652329,-187500.02235174447,-187500.02235174447,-187500.02235174447,-187500.02235174447,-187500.02235174447,1730987094.5578296,1730987094.0497618,3000
-9347.432475976047,-47897.7543589776,6610.662533123796,-187500.02235174447,-187500.02235174447,-187500.02235174447,-187500.02235174447,-187500.02235174447,1730987094.5626993,1730987094.0497618,3000
-9535.947088712108,-47864.494963228106,6661.825676181994,-187500.02235174447,-187500.02235174447,-187500.02235174447,-187500.02235174447,-187500.02235174447,1730987094.566734,1730987094.0497618,3000
-9520.434978060124,-47896.52501303256,6681.3387490914765,-187500.02235174447,-187500.02235174447,-187500.02235174447,-187500.02235174447,-187500.02235174447,1730987094.5708437,1730987094.0497618,3000
-9254.985660908898,-47932.86894951689,6601.431262663754,-187500.02235174447,-187500.02235174447,-187500.02235174447,-187500.02235174447,-187500.02235174447,1730987094.5750492,1730987094.0497618,3000
-9150.938290469445,-47936.46758037419,6632.902518856826,-187500.02235174447,-187500.02235174447,-187500.02235174447,-187500.02235174447,-187500.02235174447,1730987094.5790243,1730987094.0497618,3000
-9859.510941447132,-47899.69896074521,6749.3104039800655,-187500.02235174447,-187500.02235174447,-187500.02235174447,-187500.02235174447,-187500.02235174447,1730987094.5828507,1730987094.0497618,3000
-9679.735860793098,-47926.4092953693,6732.5242438941295,-187500.02235174447,-187500.02235174447,-187500.02235174447,-187500.02235174447,-187500.02235174447,1730987094.5859096,1730987094.0497618,3000
-9482.615826441745,-48040.44789558029,6527.223471072134,-187500.02235174447,-187500.02235174447,-187500.02235174447,-187500.02235174447,-187500.02235174447,1730987094.5898762,1730987094.0497618,3000
-9344.526749196855,-47976.81247911602,6399.88558291025,-187500.02235174447,-187500.02235174447,-187500.02235174447,-187500.02235174447,-187500.02235174447,1730987094.5949795,1730987094.0497618,3000
-9728.507367194576,-47933.852426272926,6403.014827133993,-187500.02235174447,-187500.02235174447,-187500.02235174447,-187500.02235174447,-187500.02235174447,1730987094.5987537,1730987094.0497618,3000
-9704.501593649578,-47918.1615016653,6560.3040528659885,-187500.02235174447,-187500.02235174447,-187500.02235174447,-187500.02235174447,-187500.02235174447,1730987094.6028285,1730987094.0497618,3000
-9779.245827108123,-47972.02920580259,6816.29858211262,-187500.02235174447,-187500.02235174447,-187500.02235174447,-187500.02235174447,-187500.02235174447,1730987094.6067796,1730987094.0497618,3000
-9510.667265733156,-47990.37998800039,6510.124386563824,-187500.02235174447,-187500.02235174447,-187500.02235174447,-187500.02235174447,-187500.02235174447,1730987094.6108136,1730987094.0497618,3000
-9131.67108674897,-47822.5854423744,7018.917145599979,-187500.02235174447,-187500.02235174447,-187500.02235174447,-187500.02235174447,-187500.02235174447,1730987094.614046,1730987094.0497618,3000
-9326.175966999052,-47881.54934424751,6775.014910103669,-187500.02235174447,-187500.02235174447,-187500.02235174447,-187500.02235174447,-187500.02235174447,1730987094.6180618,1730987094.0497618,3000
-9274.610492540658,-47895.29566708752,6713.480557618208,-187500.02235174447,-187500.02235174447,-187500.02235174447,-187500.02235174447,-187500.02235174447,1730987094.6229365,1730987094.0497618,3000
-9679.177067181716,-47940.78146705407,6924.5257287652175,-187500.02235174447,-187500.02235174447,-187500.02235174447,-187500.02235174447,-187500.02235174447,1730987094.6271808,1730987094.0497618,3000
-9662.368555351324,-47919.90493773281,6755.837113361015,-187500.02235174447,-187500.02235174447,-187500.02235174447,-187500.02235174447,-187500.02235174447,1730987094.6308324,1730987094.0497618,3000
-9583.80217359092,-47912.55121380702,6713.569964596029,-187500.02235174447,-187500.02235174447,-187500.02235174447,-187500.02235174447,-187500.02235174447,1730987094.634859,1730987094.0497618,3000
-9497.63619871571,-47969.10112727894,6812.677599510861,-187500.02235174447,-187500.02235174447,-187500.02235174447,-187500.02235174447,-187500.02235174447,1730987094.6388383,1730987094.0497618,3000
-9377.47322052398,-47951.91263579281,6738.693325363794,-187500.02235174447,-187500.02235174447,-187500.02235174447,-187500.02235174447,-187500.02235174447,1730987094.6418424,1730987094.0497618,3000
-9469.338890235293,-47916.37336210888,6708.13849069339,-187500.02235174447,-187500.02235174447,-187500.02235174447,-187500.02235174447,-187500.02235174447,1730987094.6458683,1730987094.0497618,3000
-9696.3879104123,-47935.797028040535,6572.821029760961,-187500.02235174447,-187500.02235174447,-187500.02235174447,-187500.02235174447,-187500.02235174447,1730987094.6508727,1730987094.0497618,3000
-9713.710512365164,-48000.12534858291,6531.872633918838,-187500.02235174447,-187500.02235174447,-187500.02235174447,-187500.02235174447,-187500.02235174447,1730987094.6548846,1730987094.0497618,3000
-9430.893889772164,-47940.33443216496,6935.813359715147,-187500.02235174447,-187500.02235174447,-187500.02235174447,-187500.02235174447,-187500.02235174447,1730987094.65886,1730987094.0497618,3000
-9401.389587091158,-47946.03412700107,6914.936830393891,-187500.02235174447,-187500.02235174447,-187500.02235174447,-187500.02235174447,-187500.02235174447,1730987094.6628456,1730987094.0497618,3000
-9460.577006408812,-47925.26935640209,6781.586322973529,-187500.02235174447,-187500.02235174447,-187500.02235174447,-187500.02235174447,-187500.02235174447,1730987094.6669323,1730987094.0497618,3000
-9407.737482516466,-47914.540519063536,6869.607492638528,-187500.02235174447,-187500.02235174447,-187500.02235174447,-187500.02235174447,-187500.02235174447,1730987094.6698744,1730987094.0497618,3000
-9580.047080522429,-48019.16903485883,6828.1450066739335,-187500.02235174447,-187500.02235174447,-187500.02235174447,-187500.02235174447,-187500.02235174447,1730987094.6738806,1730987094.0497618,3000
-9514.467062290558,-47978.28769425007,6749.533921424619,-187500.02235174447,-187500.02235174447,-187500.02235174447,-187500.02235174447,-187500.02235174447,1730987094.6789,1730987094.0497618,3000
-9429.441026382568,-47882.06343436998,6806.664980252383,-187500.02235174447,-187500.02235174447,-187500.02235174447,-187500.02235174447,-187500.02235174447,1730987094.6829147,1730987094.0497618,3000
-9490.148364323184,-47893.57458276446,6723.695304834284,-187500.02235174447,-187500.02235174447,-187500.02235174447,-187500.02235174447,-187500.02235174447,1730987094.687029,1730987094.0497618,3000
-9629.265621813014,-47940.55794960952,6738.469807919241,-187500.02235174447,-187500.02235174447,-187500.02235174447,-187500.02235174447,-187500.02235174447,1730987094.689918,1730987094.0497618,3000
-9463.885064588198,-47942.05551648802,7023.6110119355935,-187500.02235174447,-187500.02235174447,-187500.02235174447,-187500.02235174447,-187500.02235174447,1730987094.6939175,1730987094.0497618,3000
-9535.164777656171,-47893.79810020902,6918.915440906935,-187500.02235174447,-187500.02235174447,-187500.02235174447,-187500.02235174447,-187500.02235174447,1730987094.698086,1730987094.0497618,3000
-9564.64672859272,-47905.21984162567,6844.908815015414,-187500.02235174447,-187500.02235174447,-187500.02235174447,-187500.02235174447,-187500.02235174447,1730987094.7019494,1730987094.0497618,3000
-9519.36209432627,-47961.5238859086,6858.543379133151,-187500.02235174447,-187500.02235174447,-187500.02235174447,-187500.02235174447,-187500.02235174447,1730987094.706967,1730987094.0497618,3000
-9453.379744694204,-47956.2712259616,6811.314143099087,-187500.02235174447,-187500.02235174447,-187500.02235174447,-187500.02235174447,-187500.02235174447,1730987094.7109623,1730987094.0497618,3000
-9550.922757497165,-47931.99723148313,6775.327834526042,-187500.02235174447,-187500.02235174447,-187500.02235174447,-187500.02235174447,-187500.02235174447,1730987094.7150433,1730987094.0497618,3000
-9594.933342329665,-47924.28587964605,6879.442260198863,-187500.02235174447,-187500.02235174447,-187500.02235174447,-187500.02235174447,-187500.02235174447,1730987094.718022,1730987094.0497618,3000
-9584.5621329024,-47995.61029620294,6791.756366700693,-187500.02235174447,-187500.02235174447,-187500.02235174447,-187500.02235174447,-187500.02235174447,1730987094.72203,1730987094.0497618,3000
-9483.107564819762,-47989.95530485574,6869.093402516056,-187500.02235174447,-187500.02235174447,-187500.02235174447,-187500.02235174447,-187500.02235174447,1730987094.7262802,1730987094.0497618,3000
-9351.94752835602,-47935.23823442916,6845.758181304715,-187500.02235174447,-187500.02235174447,-187500.02235174447,-187500.02235174447,-187500.02235174447,1730987094.7301638,1730987094.0497618,3000
-9376.959130401508,-47924.24117615714,6871.485039172774,-187500.02235174447,-187500.02235174447,-187500.02235174447,-187500.02235174447,-187500.02235174447,1730987094.734102,1730987094.0497618,3000
-9616.391017006756,-48026.612165762446,6925.375095054519,-187500.02235174447,-187500.02235174447,-187500.02235174447,-187500.02235174447,-187500.02235174447,1730987094.739208,1730987094.0497618,3000
-9602.912915100207,-48021.65007849337,6865.248902469743,-187500.02235174447,-187500.02235174447,-187500.02235174447,-187500.02235174447,-187500.02235174447,1730987094.7429936,1730987094.0497618,3000
-9443.433218411592,-47919.659068543806,6896.541344707173,-187500.02235174447,-187500.02235174447,-187500.02235174447,-187500.02235174447,-187500.02235174447,1730987094.7460992,1730987094.0497618,3000
-9544.731324283042,-47935.57351059598,6873.384937451475,-187500.02235174447,-187500.02235174447,-187500.02235174447,-187500.02235174447,-187500.02235174447,1730987094.7500443,1730987094.0497618,3000
-9676.807782269452,-48007.6802382088,6942.943566196391,-187500.02235174447,-187500.02235174447,-187500.02235174447,-187500.02235174447,-187500.02235174447,1730987094.7540717,1730987094.0497618,3000
-9663.463790829634,-48002.65109570636,6940.239005117298,-187500.02235174447,-187500.02235174447,-187500.02235174447,-187500.02235174447,-187500.02235174447,1730987094.7582495,1730987094.0497618,3000
-9650.186854623182,-47987.675426921305,6840.393762635442,-187500.02235174447,-187500.02235174447,-187500.02235174447,-187500.02235174447,-187500.02235174447,1730987094.7621765,1730987094.0497618,3000
-9519.250335603992,-47949.65510960283,6896.630751684994,-187500.02235174447,-187500.02235174447,-187500.02235174447,-187500.02235174447,-187500.02235174447,1730987094.767136,1730987094.0497618,3000
-9532.326106110348,-48028.75793323016,6864.041908269157,-187500.02235174447,-187500.02235174447,-187500.02235174447,-187500.02235174447,-187500.02235174447,1730987094.7711072,1730987094.0497618,3000
-9516.858698947275,-48087.83359382553,6928.213766600343,-187500.02235174447,-187500.02235174447,-187500.02235174447,-187500.02235174447,-187500.02235174447,1730987094.7741137,1730987094.0497618,3000
-9518.17745187014,-48026.14277912889,6888.941751592369,-187500.02235174447,-187500.02235174447,-187500.02235174447,-187500.02235174447,-187500.02235174447,1730987094.778088,1730987094.0497618,3000
-9507.6944837206,-47933.561853595005,6913.260449559743,-187500.02235174447,-187500.02235174447,-187500.02235174447,-187500.02235174447,-187500.02235174447,1730987094.7821286,1730987094.0497618,3000
-9500.16194583916,-47943.977766511176,6964.0436129622,-187500.02235174447,-187500.02235174447,-187500.02235174447,-187500.02235174447,-187500.02235174447,1730987094.7860963,1730987094.0497618,3000
-9508.007408142974,-47976.67836864929,6936.819188215636,-187500.02235174447,-187500.02235174447,-187500.02235174447,-187500.02235174447,-187500.02235174447,1730987094.7900922,1730987094.0497618,3000
-9454.765552850433,-47995.05150259155,6933.153502124966,-187500.02235174447,-187500.02235174447,-187500.02235174447,-187500.02235174447,-187500.02235174447,1730987094.7950816,1730987094.0497618,3000
-9408.05040693884,-47949.27512994709,6969.676252564937,-187500.02235174447,-187500.02235174447,-187500.02235174447,-187500.02235174447,-187500.02235174447,1730987094.7991104,1730987094.0497618,3000
-9510.913134922164,-47999.70066543826,6937.5567957826615,-187500.02235174447,-187500.02235174447,-187500.02235174447,-187500.02235174447,-187500.02235174447,1730987094.8020835,1730987094.0497618,3000
-9611.7195024156,-48037.22924437872,6898.1730220524105,-187500.02235174447,-187500.02235174447,-187500.02235174447,-187500.02235174447,-187500.02235174447,1730987094.806124,1730987094.0497618,3000
-9502.888858662707,-47996.54906947006,6911.94169663688,-187500.02235174447,-187500.02235174447,-187500.02235174447,-187500.02235174447,-187500.02235174447,1730987094.8101115,1730987094.0497618,3000
-9577.364871187792,-47995.05150259155,6824.0993409275225,-187500.02235174447,-187500.02235174447,-187500.02235174447,-187500.02235174447,-187500.02235174447,1730987094.8141215,1730987094.0497618,3000
-9662.435610584693,-47976.94658958275,6793.276285323655,-187500.02235174447,-187500.02235174447,-187500.02235174447,-187500.02235174447,-187500.02235174447,1730987094.818134,1730987094.0497618,3000
-9492.875277146732,-48010.54126149908,6998.912334312479,-187500.02235174447,-187500.02235174447,-187500.02235174447,-187500.02235174447,-187500.02235174447,1730987094.8231325,1730987094.0497618,3000
-9554.141408698728,-48100.507032931695,6874.301358974142,-187500.02235174447,-187500.02235174447,-187500.02235174447,-187500.02235174447,-187500.02235174447,1730987094.8261263,1730987094.0497618,3000
-9628.170386334705,-48005.780339930105,6823.562899060596,-187500.02235174447,-187500.02235174447,-187500.02235174447,-187500.02235174447,-187500.02235174447,1730987094.8301532,1730987094.0497618,3000
-9659.440476827678,-47971.06808079101,6782.43568926283,-187500.02235174447,-187500.02235174447,-187500.02235174447,-187500.02235174447,-187500.02235174447,1730987094.8341343,1730987094.0497618,3000
-9521.55256528289,-47965.14486851035,6958.098048937089,-187500.02235174447,-187500.02235174447,-187500.02235174447,-187500.02235174447,-187500.02235174447,1730987094.838148,1730987094.0497618,3000
-9519.585611770824,-47989.91060136684,6984.741328327815,-187500.02235174447,-187500.02235174447,-187500.02235174447,-187500.02235174447,-187500.02235174447,1730987094.8421693,1730987094.0497618,3000
-9500.698387706088,-47966.35186271094,6970.391508387507,-187500.02235174447,-187500.02235174447,-187500.02235174447,-187500.02235174447,-187500.02235174447,1730987094.846172,1730987094.0497618,3000
-9496.49625974849,-47944.40244965583,7000.946343057913,-187500.02235174447,-187500.02235174447,-187500.02235174447,-187500.02235174447,-187500.02235174447,1730987094.850154,1730987094.0497618,3000
-9582.394013690237,-48008.417845775824,6853.849512797537,-187500.02235174447,-187500.02235174447,-187500.02235174447,-187500.02235174447,-187500.02235174447,1730987094.8541903,1730987094.0497618,3000
-9501.368940039749,-47979.94172333977,6971.397336887996,-187500.02235174447,-187500.02235174447,-187500.02235174447,-187500.02235174447,-187500.02235174447,1730987094.8572009,1730987094.0497618,3000
-9513.438882045612,-47971.73863312467,6922.089388619589,-187500.02235174447,-187500.02235174447,-187500.02235174447,-187500.02235174447,-187500.02235174447,1730987094.8623035,1730987094.0497618,3000
-9475.955006594064,-47973.01268255862,6945.826941231125,-187500.02235174447,-187500.02235174447,-187500.02235174447,-187500.02235174447,-187500.02235174447,1730987094.8662064,1730987094.0497618,3000
-9494.194030069591,-48022.58885176049,6960.355575127074,-187500.02235174447,-187500.02235174447,-187500.02235174447,-187500.02235174447,-187500.02235174447,1730987094.870238,1730987094.0497618,3000
-9621.263697298014,-48040.53730255811,6913.282801304198,-187500.02235174447,-187500.02235174447,-187500.02235174447,-187500.02235174447,-187500.02235174447,1730987094.8742352,1730987094.0497618,3000
-9674.10322119036,-48040.00086069118,6857.917530288402,-187500.02235174447,-187500.02235174447,-187500.02235174447,-187500.02235174447,-187500.02235174447,1730987094.8792005,1730987094.0497618,3000
-9591.513525428,-48000.50532823865,6887.198315524855,-187500.02235174447,-187500.02235174447,-187500.02235174447,-187500.02235174447,-187500.02235174447,1730987094.882232,1730987094.0497618,3000
-9655.551273292456,-48043.0406979371,6858.4316204108745,-187500.02235174447,-187500.02235174447,-187500.02235174447,-187500.02235174447,-187500.02235174447,1730987094.885217,1730987094.0497618,3000
-9494.194030069591,-48040.89493046939,6956.712240780859,-187500.02235174447,-187500.02235174447,-187500.02235174447,-187500.02235174447,-187500.02235174447,1730987094.890328,1730987094.0497618,3000
-9472.423430970124,-48043.10775317047,6968.066926964156,-187500.02235174447,-187500.02235174447,-187500.02235174447,-187500.02235174447,-187500.02235174447,1730987094.8942325,1730987094.0497618,3000
-9480.090079318295,-47980.41110997333,6868.333443204576,-187500.02235174447,-187500.02235174447,-187500.02235174447,-187500.02235174447,-187500.02235174447,1730987094.8982685,1730987094.0497618,3000
-9550.296908652415,-47964.45196443224,6932.37119106903,-187500.02235174447,-187500.02235174447,-187500.02235174447,-187500.02235174447,-187500.02235174447,1730987094.902308,1730987094.0497618,3000
-9491.869448646245,-48023.37116281643,7005.930782071446,-187500.02235174447,-187500.02235174447,-187500.02235174447,-187500.02235174447,-187500.02235174447,1730987094.906274,1730987094.0497618,3000
-9540.305678880892,-48052.76370677516,6932.997039913779,-187500.02235174447,-187500.02235174447,-187500.02235174447,-187500.02235174447,-187500.02235174447,1730987094.9102795,1730987094.0497618,3000
-9610.780729148477,-47995.54324096957,6929.219595100832,-187500.02235174447,-187500.02235174447,-187500.02235174447,-187500.02235174447,-187500.02235174447,1730987094.9133086,1730987094.0497618,3000
-9587.400804448223,-47977.86301110542,6888.584123681084,-187500.02235174447,-187500.02235174447,-187500.02235174447,-187500.02235174447,-187500.02235174447,1730987094.917326,1730987094.0497618,3000
-9502.26300981796,-47990.64820893386,6908.723045435316,-187500.02235174447,-187500.02235174447,-187500.02235174447,-187500.02235174447,-187500.02235174447,1730987094.9223783,1730987094.0497618,3000
-9495.088099847806,-47999.72301718271,6899.514126719729,-187500.02235174447,-187500.02235174447,-187500.02235174447,-187500.02235174447,-187500.02235174447,1730987094.9263098,1730987094.0497618,3000
-9490.461288745557,-48015.16807260133,6922.715237464337,-187500.02235174447,-187500.02235174447,-187500.02235174447,-187500.02235174447,-187500.02235174447,1730987094.9303017,1730987094.0497618,3000
-9664.916654219229,-48006.89792715287,6784.536753241629,-187500.02235174447,-187500.02235174447,-187500.02235174447,-187500.02235174447,-187500.02235174447,1730987094.933338,1730987094.0497618,3000
-9695.96322726765,-48033.89883445488,6791.689311467328,-187500.02235174447,-187500.02235174447,-187500.02235174447,-187500.02235174447,-187500.02235174447,1730987094.937396,1730987094.0497618,3000
-9552.330917397849,-48025.628689006415,6985.970674272857,-187500.02235174447,-187500.02235174447,-187500.02235174447,-187500.02235174447,-187500.02235174447,1730987094.9413548,1730987094.0497618,3000
-9607.204450035626,-48031.79777047608,6983.064947493666,-187500.02235174447,-187500.02235174447,-187500.02235174447,-187500.02235174447,-187500.02235174447,1730987094.9455123,1730987094.0497618,3000
-9516.389312313711,-47968.81055460103,6945.670479019938,-187500.02235174447,-187500.02235174447,-187500.02235174447,-187500.02235174447,-187500.02235174447,1730987094.9503703,1730987094.0497618,3000
-9529.040399675418,-47995.722054925216,6933.756999225259,-187500.02235174447,-187500.02235174447,-187500.02235174447,-187500.02235174447,-187500.02235174447,1730987094.9543593,1730987094.0497618,3000
-9682.663939316742,-48114.94625984982,6842.383067891964,-187500.02235174447,-187500.02235174447,-187500.02235174447,-187500.02235174447,-187500.02235174447,1730987094.9583693,1730987094.0497618,3000
-9597.816717364398,-48032.69184025429,6919.898917662968,-187500.02235174447,-187500.02235174447,-187500.02235174447,-187500.02235174447,-187500.02235174447,1730987094.9613936,1730987094.0497618,3000
-9596.363853974804,-47966.30715922203,6873.541399662662,-187500.02235174447,-187500.02235174447,-187500.02235174447,-187500.02235174447,-187500.02235174447,1730987094.965464,1730987094.0497618,3000
-9614.736987917066,-47982.95920884123,6936.439208559896,-187500.02235174447,-187500.02235174447,-187500.02235174447,-187500.02235174447,-187500.02235174447,1730987094.9693987,1730987094.0497618,3000
-9561.472780880067,-48064.11839295845,6966.23408391882,-187500.02235174447,-187500.02235174447,-187500.02235174447,-187500.02235174447,-187500.02235174447,1730987094.973452,1730987094.0497618,3000
-9531.40968458768,-48046.05818343857,6874.413117696419,-187500.02235174447,-187500.02235174447,-187500.02235174447,-187500.02235174447,-187500.02235174447,1730987094.9784236,1730987094.0497618,3000
-9494.775175425431,-47991.27405777861,6952.063077934155,-187500.02235174447,-187500.02235174447,-187500.02235174447,-187500.02235174447,-187500.02235174447,1730987094.9824104,1730987094.0497618,3000
-9506.442786031104,-48006.94263064178,6981.388566659519,-187500.02235174447,-187500.02235174447,-187500.02235174447,-187500.02235174447,-187500.02235174447,1730987094.9863887,1730987094.0497618,3000
-9517.059864647374,-48037.60922403446,6923.810472942648,-187500.02235174447,-187500.02235174447,-187500.02235174447,-187500.02235174447,-187500.02235174447,1730987094.9894204,1730987094.0497618,3000
-9542.384391115236,-48069.43810813881,6912.835766415092,-187500.02235174447,-187500.02235174447,-187500.02235174447,-187500.02235174447,-187500.02235174447,1730987094.9934216,1730987094.0497618,3000
-9517.953934425585,-47977.66184540533,6878.637597398472,-187500.02235174447,-187500.02235174447,-187500.02235174447,-187500.02235174447,-187500.02235174447,1730987094.9974587,1730987094.0497618,3000
-9569.765278072988,-47960.965092297214,6882.929132333891,-187500.02235174447,-187500.02235174447,-187500.02235174447,-187500.02235174447,-187500.02235174447,1730987095.001495,1730987094.0497618,3000
-9615.876926884286,-48012.21764233323,6896.764862151726,-187500.02235174447,-187500.02235174447,-187500.02235174447,-187500.02235174447,-187500.02235174447,1730987095.005423,1730987094.0497618,3000
-9591.111194027806,-48040.872578724935,6895.490812717773,-187500.02235174447,-187500.02235174447,-187500.02235174447,-187500.02235174447,-187500.02235174447,1730987095.010419,1730987094.0497618,3000
-9555.974251744065,-47988.68125542179,6945.558720297661,-187500.02235174447,-187500.02235174447,-187500.02235174447,-187500.02235174447,-187500.02235174447,1730987095.0144725,1730987094.0497618,3000
-9547.190016173126,-47980.25464776214,6884.225533512299,-187500.02235174447,-187500.02235174447,-187500.02235174447,-187500.02235174447,-187500.02235174447,1730987095.0175114,1730987094.0497618,3000
-9584.38331894676,-48030.1884448753,6919.720103707326,-187500.02235174447,-187500.02235174447,-187500.02235174447,-187500.02235174447,-187500.02235174447,1730987095.02146,1730987094.0497618,3000
-9594.978045818574,-48075.115451230464,6936.975650426823,-187500.02235174447,-187500.02235174447,-187500.02235174447,-187500.02235174447,-187500.02235174447,1730987095.0255463,1730987094.0497618,3000
-9581.388185189746,-47991.27405777861,6935.768656226237,-187500.02235174447,-187500.02235174447,-187500.02235174447,-187500.02235174447,-187500.02235174447,1730987095.0294404,1730987094.0497618,3000
-9613.909973372218,-47966.06129003302,6911.874641403514,-187500.02235174447,-187500.02235174447,-187500.02235174447,-187500.02235174447,-187500.02235174447,1730987095.0345092,1730987094.0497618,3000
-9706.602657628377,-48033.02711642112,6744.549482411085,-187500.02235174447,-187500.02235174447,-187500.02235174447,-187500.02235174447,-187500.02235174447,1730987095.038458,1730987094.0497618,3000
-9496.943294637596,-48011.45768302175,7016.190232776432,-187500.02235174447,-187500.02235174447,-187500.02235174447,-187500.02235174447,-187500.02235174447,1730987095.0424712,1730987094.0497618,3000
-9555.638975577232,-48034.927014699824,6935.589842270594,-187500.02235174447,-187500.02235174447,-187500.02235174447,-187500.02235174447,-187500.02235174447,1730987095.0454905,1730987094.0497618,3000
-9560.93633901314,-47985.75317689815,6891.668664415916,-187500.02235174447,-187500.02235174447,-187500.02235174447,-187500.02235174447,-187500.02235174447,1730987095.0495217,1730987094.0497618,3000
-9578.169533988184,-48004.70745619624,6848.753315061726,-187500.02235174447,-187500.02235174447,-187500.02235174447,-187500.02235174447,-187500.02235174447,1730987095.053511,1730987094.0497618,3000
-9642.408447552734,-48091.968666549765,6788.805936432593,-187500.02235174447,-187500.02235174447,-187500.02235174447,-187500.02235174447,-187500.02235174447,1730987095.0575097,1730987094.0497618,3000
-9543.211405660082,-48046.90754972787,6884.471402701307,-187500.02235174447,-187500.02235174447,-187500.02235174447,-187500.02235174447,-187500.02235174447,1730987095.061505,1730987094.0497618,3000
-9537.087027679328,-47995.83381364749,6980.695662581404,-187500.02235174447,-187500.02235174447,-187500.02235174447,-187500.02235174447,-187500.02235174447,1730987095.0666337,1730987094.0497618,3000
-9566.636033849243,-47998.89600263787,6991.648017364504,-187500.02235174447,-187500.02235174447,-187500.02235174447,-187500.02235174447,-187500.02235174447,1730987095.0697243,1730987094.0497618,3000
-9565.65255709321,-48061.771459790645,6918.110778106544,-187500.02235174447,-187500.02235174447,-187500.02235174447,-187500.02235174447,-187500.02235174447,1730987095.073526,1730987094.0497618,3000
-9636.887566672274,-48083.67616935685,6868.936940304869,-187500.02235174447,-187500.02235174447,-187500.02235174447,-187500.02235174447,-187500.02235174447,1730987095.0775683,1730987094.0497618,3000
-9540.484492836536,-47977.08070004949,6904.297400033164,-187500.02235174447,-187500.02235174447,-187500.02235174447,-187500.02235174447,-187500.02235174447,1730987095.0815628,1730987094.0497618,3000
-9496.317445792847,-47964.809592343525,6930.404237556963,-187500.02235174447,-187500.02235174447,-187500.02235174447,-187500.02235174447,-187500.02235174447,1730987095.08557,1730987094.0497618,3000
-9560.64576633522,-48019.99604940368,6967.686947308415,-187500.02235174447,-187500.02235174447,-187500.02235174447,-187500.02235174447,-187500.02235174447,1730987095.0896883,1730987094.0497618,3000
-9578.348347943826,-48110.83353887004,6863.281948957676,-187500.02235174447,-187500.02235174447,-187500.02235174447,-187500.02235174447,-187500.02235174447,1730987095.0946176,1730987094.0497618,3000
-9580.5611706449,-48022.92412792732,6912.411083270441,-187500.02235174447,-187500.02235174447,-187500.02235174447,-187500.02235174447,-187500.02235174447,1730987095.097602,1730987094.0497618,3000
-9535.969440456563,-48015.95038365727,6889.522896948207,-187500.02235174447,-187500.02235174447,-187500.02235174447,-187500.02235174447,-187500.02235174447,1730987095.101574,1730987094.0497618,3000
-9391.95715093102,-48028.13208438541,6930.9853829128015,-187500.02235174447,-187500.02235174447,-187500.02235174447,-187500.02235174447,-187500.02235174447,1730987095.1056008,1730987094.0497618,3000
-9549.715763296575,-48092.23688748323,6986.261246950776,-187500.02235174447,-187500.02235174447,-187500.02235174447,-187500.02235174447,-187500.02235174447,1730987095.109644,1730987094.0497618,3000
-9654.344279091869,-48056.27293065464,6946.51984530924,-187500.02235174447,-187500.02235174447,-187500.02235174447,-187500.02235174447,-187500.02235174447,1730987095.113628,1730987094.0497618,3000
-9608.500851214034,-48029.09320939699,6873.139068262466,-187500.02235174447,-187500.02235174447,-187500.02235174447,-187500.02235174447,-187500.02235174447,1730987095.117627,1730987094.0497618,3000
-9581.298778211923,-48084.16790773486,6891.378091737997,-187500.02235174447,-187500.02235174447,-187500.02235174447,-187500.02235174447,-187500.02235174447,1730987095.1226332,1730987094.0497618,3000
-9624.817624666408,-48142.64007122994,6835.901061999925,-187500.02235174447,-187500.02235174447,-187500.02235174447,-187500.02235174447,-187500.02235174447,1730987095.1256683,1730987094.0497618,3000
-9590.84297309434,-48047.10871542797,6930.605403257061,-187500.02235174447,-187500.02235174447,-187500.02235174447,-187500.02235174447,-187500.02235174447,1730987095.1286695,1730987094.0497618,3000
-9570.145257728727,-48023.41586630534,6921.642353730483,-187500.02235174447,-187500.02235174447,-187500.02235174447,-187500.02235174447,-187500.02235174447,1730987095.1336446,1730987094.0497618,3000
-9644.330697575891,-48058.57516033354,6856.621129109994,-187500.02235174447,-187500.02235174447,-187500.02235174447,-187500.02235174447,-187500.02235174447,1730987095.1376655,1730987094.0497618,3000
-9568.714746083588,-48067.6946720713,6951.012545944756,-187500.02235174447,-187500.02235174447,-187500.02235174447,-187500.02235174447,-187500.02235174447,1730987095.1416793,1730987094.0497618,3000
-9571.262844951492,-48064.18544819182,6922.692885719882,-187500.02235174447,-187500.02235174447,-187500.02235174447,-187500.02235174447,-187500.02235174447,1730987095.1456645,1730987094.0497618,3000
-9545.334821383336,-48016.30801156855,6907.180775067899,-187500.02235174447,-187500.02235174447,-187500.02235174447,-187500.02235174447,-187500.02235174447,1730987095.1506848,1730987094.0497618,3000
-9626.494005500555,-48030.76959023113,6886.773632380204,-187500.02235174447,-187500.02235174447,-187500.02235174447,-187500.02235174447,-187500.02235174447,1730987095.1537015,1730987094.0497618,3000
-9589.65833063821,-48065.213628436766,6898.575353452606,-187500.02235174447,-187500.02235174447,-187500.02235174447,-187500.02235174447,-187500.02235174447,1730987095.1576807,1730987094.0497618,3000
-9503.291190062904,-48078.87054429895,6966.547008341195,-187500.02235174447,-187500.02235174447,-187500.02235174447,-187500.02235174447,-187500.02235174447,1730987095.1617253,1730987094.0497618,3000
-9508.812070943364,-48002.22641256171,6929.845443945581,-187500.02235174447,-187500.02235174447,-187500.02235174447,-187500.02235174447,-187500.02235174447,1730987095.165732,1730987094.0497618,3000
-9614.982857106072,-47984.30031350855,6826.513329328696,-187500.02235174447,-187500.02235174447,-187500.02235174447,-187500.02235174447,-187500.02235174447,1730987095.169692,1730987094.0497618,3000
-9529.152158397694,-48047.08636368351,6866.858228070525,-187500.02235174447,-187500.02235174447,-187500.02235174447,-187500.02235174447,-187500.02235174447,1730987095.173736,1730987094.0497618,3000
-9468.802448368366,-48048.7403927732,6954.924101224435,-187500.02235174447,-187500.02235174447,-187500.02235174447,-187500.02235174447,-187500.02235174447,1730987095.1776986,1730987094.0497618,3000
-9548.17349292916,-47986.93781935428,6956.265205891754,-187500.02235174447,-187500.02235174447,-187500.02235174447,-187500.02235174447,-187500.02235174447,1730987095.1806917,1730987094.0497618,3000
-9607.517374458,-47994.02332234661,6946.050458675678,-187500.02235174447,-187500.02235174447,-187500.02235174447,-187500.02235174447,-187500.02235174447,1730987095.1847725,1730987094.0497618,3000
-9623.655333954732,-48085.28549495763,6959.014470459756,-187500.02235174447,-187500.02235174447,-187500.02235174447,-187500.02235174447,-187500.02235174447,1730987095.189746,1730987094.0497618,3000
-9582.84104857934,-48093.48858517272,6881.2080480108325,-187500.02235174447,-187500.02235174447,-187500.02235174447,-187500.02235174447,-187500.02235174447,1730987095.1937437,1730987094.0497618,3000
-9605.52806920148,-48071.136840717416,6823.518195571684,-187500.02235174447,-187500.02235174447,-187500.02235174447,-187500.02235174447,-187500.02235174447,1730987095.1977615,1730987094.0497618,3000
-9526.134672896227,-48040.82787523602,6903.783309910693,-187500.02235174447,-187500.02235174447,-187500.02235174447,-187500.02235174447,-187500.02235174447,1730987095.2017968,1730987094.0497618,3000
-9571.32990018486,-48097.1542712634,6988.563476629673,-187500.02235174447,-187500.02235174447,-187500.02235174447,-187500.02235174447,-187500.02235174447,1730987095.205737,1730987094.0497618,3000
-9644.822435953907,-48088.548849648105,6966.278787407731,-187500.02235174447,-187500.02235174447,-187500.02235174447,-187500.02235174447,-187500.02235174447,1730987095.2087407,1730987094.0497618,3000
-9640.5756045074,-48046.37110786094,6808.922506442369,-187500.02235174447,-187500.02235174447,-187500.02235174447,-187500.02235174447,-187500.02235174447,1730987095.2127311,1730987094.0497618,3000
-9533.734266011032,-48001.35469452795,6911.874641403514,-187500.02235174447,-187500.02235174447,-187500.02235174447,-187500.02235174447,-187500.02235174447,1730987095.216822,1730987094.0497618,3000
-9598.822545864889,-48060.25154116769,6956.667537291949,-187500.02235174447,-187500.02235174447,-187500.02235174447,-187500.02235174447,-187500.02235174447,1730987095.221788,1730987094.0497618,3000
-9643.302517330949,-48081.32923618904,6916.0320658722,-187500.02235174447,-187500.02235174447,-187500.02235174447,-187500.02235174447,-187500.02235174447,1730987095.2258313,1730987094.0497618,3000
-9634.987668393573,-48045.45468633827,6929.621926501028,-187500.02235174447,-187500.02235174447,-187500.02235174447,-187500.02235174447,-187500.02235174447,1730987095.2298076,1730987094.0497618,3000
-9499.424338272136,-48004.99802887416,6985.52363938375,-187500.02235174447,-187500.02235174447,-187500.02235174447,-187500.02235174447,-187500.02235174447,1730987095.2327745,1730987094.0497618,3000
-9477.027890327918,-48037.7880379901,6946.966880198345,-187500.02235174447,-187500.02235174447,-187500.02235174447,-187500.02235174447,-187500.02235174447,1730987095.2367902,1730987094.0497618,3000
-9540.328030625347,-48094.04737878411,6921.687057219393,-187500.02235174447,-187500.02235174447,-187500.02235174447,-187500.02235174447,-187500.02235174447,1730987095.240826,1730987094.0497618,3000
-9582.997510790528,-48115.23683252774,6905.437339000385,-187500.02235174447,-187500.02235174447,-187500.02235174447,-187500.02235174447,-187500.02235174447,1730987095.244835,1730987094.0497618,3000
-9592.966388817596,-48033.18357863231,6896.787213896181,-187500.02235174447,-187500.02235174447,-187500.02235174447,-187500.02235174447,-187500.02235174447,1730987095.2498095,1730987094.0497618,3000
-9550.721591797066,-48044.001822948674,6916.0320658722,-187500.02235174447,-187500.02235174447,-187500.02235174447,-187500.02235174447,-187500.02235174447,1730987095.2538323,1730987094.0497618,3000
-9535.768274756463,-48101.13288177645,6880.336329977075,-187500.02235174447,-187500.02235174447,-187500.02235174447,-187500.02235174447,-187500.02235174447,1730987095.2578335,1730987094.0497618,3000
-9571.821638562877,-48084.905515301885,6868.758126349227,-187500.02235174447,-187500.02235174447,-187500.02235174447,-187500.02235174447,-187500.02235174447,1730987095.2608595,1730987094.0497618,3000
-9541.42326610366,-48024.48875003919,6908.834804157592,-187500.02235174447,-187500.02235174447,-187500.02235174447,-187500.02235174447,-187500.02235174447,1730987095.2648325,1730987094.0497618,3000
-9600.811851121409,-48018.27496508061,6889.478193459296,-187500.02235174447,-187500.02235174447,-187500.02235174447,-187500.02235174447,-187500.02235174447,1730987095.2688527,1730987094.0497618,3000
-9567.641862349732,-48099.300038731104,6936.528615537717,-187500.02235174447,-187500.02235174447,-187500.02235174447,-187500.02235174447,-187500.02235174447,1730987095.272842,1730987094.0497618,3000
-9598.487269698056,-48061.838515024014,6927.386752055497,-187500.02235174447,-187500.02235174447,-187500.02235174447,-187500.02235174447,-187500.02235174447,1730987095.277882,1730987094.0497618,3000
-9582.95280730162,-47994.49270898017,6959.707374537871,-187500.02235174447,-187500.02235174447,-187500.02235174447,-187500.02235174447,-187500.02235174447,1730987095.281877,1730987094.0497618,3000
-9554.096705209817,-47974.53260118159,6950.811380244659,-187500.02235174447,-187500.02235174447,-187500.02235174447,-187500.02235174447,-187500.02235174447,1730987095.2858684,1730987094.0497618,3000
-9500.810146428365,-48003.70162769576,6879.621074154506,-187500.02235174447,-187500.02235174447,-187500.02235174447,-187500.02235174447,-187500.02235174447,1730987095.2888849,1730987094.0497618,3000
-9577.498981654524,-48076.456555897785,6912.187565825888,-187500.02235174447,-187500.02235174447,-187500.02235174447,-187500.02235174447,-187500.02235174447,1730987095.292924,1730987094.0497618,3000
-9637.535767261475,-48006.42854051931,6985.47893589484,-187500.02235174447,-187500.02235174447,-187500.02235174447,-187500.02235174447,-187500.02235174447,1730987095.2968743,1730987094.0497618,3000
-9618.201508307637,-48012.75408420016,6907.896030890469,-187500.02235174447,-187500.02235174447,-187500.02235174447,-187500.02235174447,-187500.02235174447,1730987095.300916,1730987094.0497618,3000
-9546.69827779511,-48083.81027982358,6821.707704270805,-187500.02235174447,-187500.02235174447,-187500.02235174447,-187500.02235174447,-187500.02235174447,1730987095.304957,1730987094.0497618,3000
-9580.449411922624,-48115.5050534612,6905.258525044743,-187500.02235174447,-187500.02235174447,-187500.02235174447,-187500.02235174447,-187500.02235174447,1730987095.3099048,1730987094.0497618,3000
-9586.082051525362,-48056.40704112137,6921.172967096922,-187500.02235174447,-187500.02235174447,-187500.02235174447,-187500.02235174447,-187500.02235174447,1730987095.3129015,1730987094.0497618,3000
-9561.361022157793,-48024.26523259464,6944.105856908066,-187500.02235174447,-187500.02235174447,-187500.02235174447,-187500.02235174447,-187500.02235174447,1730987095.3169415,1730987094.0497618,3000
-9567.03836524944,-48091.94631480531,6929.733685223304,-187500.02235174447,-187500.02235174447,-187500.02235174447,-187500.02235174447,-187500.02235174447,1730987095.3210323,1730987094.0497618,3000
-9481.386480496703,-48129.56430072359,6913.103987348555,-187500.02235174447,-187500.02235174447,-187500.02235174447,-187500.02235174447,-187500.02235174447,1730987095.3249793,1730987094.0497618,3000
-9609.864307625809,-48047.019308450144,6847.523969116684,-187500.02235174447,-187500.02235174447,-187500.02235174447,-187500.02235174447,-187500.02235174447,1730987095.3289647,1730987094.0497618,3000
-9637.91574691722,-48003.52281374011,6901.503431976251,-187500.02235174447,-187500.02235174447,-187500.02235174447,-187500.02235174447,-187500.02235174447,1730987095.3329887,1730987094.0497618,3000
-9554.141408698728,-48024.019363405634,6931.387714312997,-187500.02235174447,-187500.02235174447,-187500.02235174447,-187500.02235174447,-187500.02235174447,1730987095.3379588,1730987094.0497618,3000
-9564.691432081632,-48115.97444009477,6915.875603661014,-187500.02235174447,-187500.02235174447,-187500.02235174447,-187500.02235174447,-187500.02235174447,1730987095.3410015,1730987094.0497618,3000
-9589.90419982722,-48091.208707238286,6930.761865468248,-187500.02235174447,-187500.02235174447,-187500.02235174447,-187500.02235174447,-187500.02235174447,1730987095.3450036,1730987094.0497618,3000
-9599.560153431912,-48038.95032870178,6913.327504793108,-187500.02235174447,-187500.02235174447,-187500.02235174447,-187500.02235174447,-187500.02235174447,1730987095.3490195,1730987094.0497618,3000
-9522.6478007612,-48038.16801764584,6887.824164369603,-187500.02235174447,-187500.02235174447,-187500.02235174447,-187500.02235174447,-187500.02235174447,1730987095.3530097,1730987094.0497618,3000
-9481.5876461968,-48083.85498331249,6947.771542998737,-187500.02235174447,-187500.02235174447,-187500.02235174447,-187500.02235174447,-187500.02235174447,1730987095.3571084,1730987094.0497618,3000
-9578.84008632184,-48047.95808171727,6876.849457842048,-187500.02235174447,-187500.02235174447,-187500.02235174447,-187500.02235174447,-187500.02235174447,1730987095.3610463,1730987094.0497618,3000
-9566.457219893602,-48018.34202031398,6836.750428289227,-187500.02235174447,-187500.02235174447,-187500.02235174447,-187500.02235174447,-187500.02235174447,1730987095.366063,1730987094.0497618,3000
-9582.528124156968,-48052.13785793041,6932.147673624477,-187500.02235174447,-187500.02235174447,-187500.02235174447,-187500.02235174447,-187500.02235174447,1730987095.36909,1730987094.0497618,3000
-9507.381559298225,-48065.16892494785,6984.830735305636,-187500.02235174447,-187500.02235174447,-187500.02235174447,-187500.02235174447,-187500.02235174447,1730987095.3731327,1730987094.0497618,3000
-9486.72854742152,-48101.557564921095,6884.69492014586,-187500.02235174447,-187500.02235174447,-187500.02235174447,-187500.02235174447,-187500.02235174447,1730987095.377124,1730987094.0497618,3000
-9615.519298973,-48058.50810510017,6846.741658060749,-187500.02235174447,-187500.02235174447,-187500.02235174447,-187500.02235174447,-187500.02235174447,1730987095.3810723,1730987094.0497618,3000
-9590.395938205236,-48051.154381174376,6945.983403442312,-187500.02235174447,-187500.02235174447,-187500.02235174447,-187500.02235174447,-187500.02235174447,1730987095.38511,1730987094.0497618,3000
-9540.372734114258,-48148.29506257714,6913.238097815287,-187500.02235174447,-187500.02235174447,-187500.02235174447,-187500.02235174447,-187500.02235174447,1730987095.3892372,1730987094.0497618,3000
-9531.096760165306,-48125.65274544391,6899.849402886558,-187500.02235174447,-187500.02235174447,-187500.02235174447,-187500.02235174447,-187500.02235174447,1730987095.3941233,1730987094.0497618,3000
-9549.380487129749,-48066.13004995943,6903.135109321489,-187500.02235174447,-187500.02235174447,-187500.02235174447,-187500.02235174447,-187500.02235174447,1730987095.397149,1730987094.0497618,3000
-9609.99841809254,-48074.847230297,6858.096344244045,-187500.02235174447,-187500.02235174447,-187500.02235174447,-187500.02235174447,-187500.02235174447,1730987095.401121,1730987094.0497618,3000
-9613.418234994202,-48111.95112609281,6908.454824501851,-187500.02235174447,-187500.02235174447,-187500.02235174447,-187500.02235174447,-187500.02235174447,1730987095.4051406,1730987094.0497618,3000
-9552.375620886758,-48173.73134776728,6931.61123175755,-187500.02235174447,-187500.02235174447,-187500.02235174447,-187500.02235174447,-187500.02235174447,1730987095.4091542,1730987094.0497618,3000
-9509.63908548821,-48113.78396913815,6894.88731561748,-187500.02235174447,-187500.02235174447,-187500.02235174447,-187500.02235174447,-187500.02235174447,1730987095.4131072,1730987094.0497618,3000
-9539.590423058322,-48085.01727402416,6942.876510963025,-187500.02235174447,-187500.02235174447,-187500.02235174447,-187500.02235174447,-187500.02235174447,1730987095.4181952,1730987094.0497618,3000
-9588.250170737529,-48130.25720480171,6860.666794856405,-187500.02235174447,-187500.02235174447,-187500.02235174447,-187500.02235174447,-187500.02235174447,1730987095.4211743,1730987094.0497618,3000
-9595.715653385598,-48143.288271819154,6825.485149083752,-187500.02235174447,-187500.02235174447,-187500.02235174447,-187500.02235174447,-187500.02235174447,1730987095.4241648,1730987094.0497618,3000
-9561.249263435517,-48105.46912020077,6908.007789612746,-187500.02235174447,-187500.02235174447,-187500.02235174447,-187500.02235174447,-187500.02235174447,1730987095.4281352,1730987094.0497618,3000
-9551.772123786464,-48044.65002353788,6888.852344614547,-187500.02235174447,-187500.02235174447,-187500.02235174447,-187500.02235174447,-187500.02235174447,1730987095.4331825,1730987094.0497618,3000
-9524.055960661884,-48094.44971018431,6923.631658987005,-187500.02235174447,-187500.02235174447,-187500.02235174447,-187500.02235174447,-187500.02235174447,1730987095.4372134,1730987094.0497618,3000
-9551.45919936409,-48176.05592919063,6961.003775716278,-187500.02235174447,-187500.02235174447,-187500.02235174447,-187500.02235174447,-187500.02235174447,1730987095.441238,1730987094.0497618,3000
-9613.23942103856,-48129.13961757894,6878.950521820846,-187500.02235174447,-187500.02235174447,-187500.02235174447,-187500.02235174447,-187500.02235174447,1730987095.4452162,1730987094.0497618,3000
-9541.020934703462,-48064.69953831429,6913.975705382312,-187500.02235174447,-187500.02235174447,-187500.02235174447,-187500.02235174447,-187500.02235174447,1730987095.4493155,1730987094.0497618,3000
-9557.94120525613,-48080.32340768855,6985.344825428108,-187500.02235174447,-187500.02235174447,-187500.02235174447,-187500.02235174447,-187500.02235174447,1730987095.452206,1730987094.0497618,3000
-9554.119056954272,-48119.88599537445,6967.798706030692,-187500.02235174447,-187500.02235174447,-187500.02235174447,-187500.02235174447,-187500.02235174447,1730987095.456206,1730987094.0497618,3000
-9602.845859866842,-48154.2182748578,6814.77866348966,-187500.02235174447,-187500.02235174447,-187500.02235174447,-187500.02235174447,-187500.02235174447,1730987095.461266,1730987094.0497618,3000
-9630.76318869152,-48042.6383665369,6870.2333414832765,-187500.02235174447,-187500.02235174447,-187500.02235174447,-187500.02235174447,-187500.02235174447,1730987095.4652147,1730987094.0497618,3000
-9549.358135385291,-48046.102886927474,6874.681338629883,-187500.02235174447,-187500.02235174447,-187500.02235174447,-187500.02235174447,-187500.02235174447,1730987095.4691944,1730987094.0497618,3000
-9470.679994902612,-48091.70044561631,6909.773577424715,-187500.02235174447,-187500.02235174447,-187500.02235174447,-187500.02235174447,-187500.02235174447,1730987095.4732268,1730987094.0497618,3000
-9601.907086599718,-48144.24939683073,6941.758923740259,-187500.02235174447,-187500.02235174447,-187500.02235174447,-187500.02235174447,-187500.02235174447,1730987095.4772515,1730987094.0497618,3000
-9668.381174609802,-48097.75776836369,6842.047791725135,-187500.02235174447,-187500.02235174447,-187500.02235174447,-187500.02235174447,-187500.02235174447,1730987095.480255,1730987094.0497618,3000
-9561.830408791351,-48078.37880592094,6883.175001522899,-187500.02235174447,-187500.02235174447,-187500.02235174447,-187500.02235174447,-187500.02235174447,1730987095.4842343,1730987094.0497618,3000
-9578.03542352145,-48161.23672261676,6937.489740549296,-187500.02235174447,-187500.02235174447,-187500.02235174447,-187500.02235174447,-187500.02235174447,1730987095.4892302,1730987094.0497618,3000
-9560.46695237958,-48149.077373633074,6926.447978788374,-187500.02235174447,-187500.02235174447,-187500.02235174447,-187500.02235174447,-187500.02235174447,1730987095.4932263,1730987094.0497618,3000
-9483.375785753226,-48077.37297742045,6869.339271705065,-187500.02235174447,-187500.02235174447,-187500.02235174447,-187500.02235174447,-187500.02235174447,1730987095.497248,1730987094.0497618,3000
-9566.099591982316,-48050.12620092943,6897.390710996475,-187500.02235174447,-187500.02235174447,-187500.02235174447,-187500.02235174447,-187500.02235174447,1730987095.5012658,1730987094.0497618,3000
-9606.4668424686,-48092.05807352759,6932.505301535762,-187500.02235174447,-187500.02235174447,-187500.02235174447,-187500.02235174447,-187500.02235174447,1730987095.5052695,1730987094.0497618,3000
-9618.402674007735,-48126.90444313341,6941.736571995803,-187500.02235174447,-187500.02235174447,-187500.02235174447,-187500.02235174447,-187500.02235174447,1730987095.508293,1730987094.0497618,3000
-9626.404598522737,-48162.28725460616,6926.693847977383,-187500.02235174447,-187500.02235174447,-187500.02235174447,-187500.02235174447,-187500.02235174447,1730987095.5122955,1730987094.0497618,3000
-9576.7613740875,-48120.7577134082,6890.50637370424,-187500.02235174447,-187500.02235174447,-187500.02235174447,-187500.02235174447,-187500.02235174447,1730987095.5172513,1730987094.0497618,3000
-9561.98687100254,-48136.9627281383,6903.045702343668,-187500.02235174447,-187500.02235174447,-187500.02235174447,-187500.02235174447,-187500.02235174447,1730987095.5212808,1730987094.0497618,3000
-9607.495022713543,-48212.95865928634,6921.1282636080105,-187500.02235174447,-187500.02235174447,-187500.02235174447,-187500.02235174447,-187500.02235174447,1730987095.525268,1730987094.0497618,3000
-9620.23551705307,-48157.70514699283,6892.361568494031,-187500.02235174447,-187500.02235174447,-187500.02235174447,-187500.02235174447,-187500.02235174447,1730987095.5293157,1730987094.0497618,3000
-9599.940133087652,-48109.87241385847,6846.473437127285,-187500.02235174447,-187500.02235174447,-187500.02235174447,-187500.02235174447,-187500.02235174447,1730987095.5323644,1730987094.0497618,3000
-9560.377545401758,-48141.99187064074,6844.886463270958,-187500.02235174447,-187500.02235174447,-187500.02235174447,-187500.02235174447,-187500.02235174447,1730987095.536353,1730987094.0497618,3000
-9573.18509497465,-48223.37457220251,6911.919344892424,-187500.02235174447,-187500.02235174447,-187500.02235174447,-187500.02235174447,-187500.02235174447,1730987095.540359,1730987094.0497618,3000
-9545.088952194328,-48174.64776928995,6981.925008526446,-187500.02235174447,-187500.02235174447,-187500.02235174447,-187500.02235174447,-187500.02235174447,1730987095.545357,1730987094.0497618,3000
-9596.877944097274,-48148.83150444407,6897.837745885581,-187500.02235174447,-187500.02235174447,-187500.02235174447,-187500.02235174447,-187500.02235174447,1730987095.54939,1730987094.0497618,3000
-9633.020714881506,-48187.3212083961,6770.879837379437,-187500.02235174447,-187500.02235174447,-187500.02235174447,-187500.02235174447,-187500.02235174447,1730987095.5533664,1730987094.0497618,3000
-9558.634109334243,-48219.82064483412,6899.871754631014,-187500.02235174447,-187500.02235174447,-187500.02235174447,-187500.02235174447,-187500.02235174447,1730987095.556414,1730987094.0497618,3000
-9520.07735014884,-48195.658409077936,6970.123287454044,-187500.02235174447,-187500.02235174447,-187500.02235174447,-187500.02235174447,-187500.02235174447,1730987095.560384,1730987094.0497618,3000
-9569.966443773084,-48160.34265283855,6925.553909010161,-187500.02235174447,-187500.02235174447,-187500.02235174447,-187500.02235174447,-187500.02235174447,1730987095.56437,1730987094.0497618,3000
-9618.045046096451,-48173.708996022826,6831.430713108864,-187500.02235174447,-187500.02235174447,-187500.02235174447,-187500.02235174447,-187500.02235174447,1730987095.5683844,1730987094.0497618,3000
-9642.922537675207,-48256.41045050746,6912.768711181726,-187500.02235174447,-187500.02235174447,-187500.02235174447,-187500.02235174447,-187500.02235174447,1730987095.5724368,1730987094.0497618,3000
-9551.727420297557,-48183.38730137197,6933.0864468916,-187500.02235174447,-187500.02235174447,-187500.02235174447,-187500.02235174447,-187500.02235174447,1730987095.5774353,1730987094.0497618,3000
-9588.406632948712,-48158.77803072668,6850.563806362607,-187500.02235174447,-187500.02235174447,-187500.02235174447,-187500.02235174447,-187500.02235174447,1730987095.5814388,1730987094.0497618,3000
-9549.827522018852,-48155.22410335828,6916.792025183681,-187500.02235174447,-187500.02235174447,-187500.02235174447,-187500.02235174447,-187500.02235174447,1730987095.584442,1730987094.0497618,3000
-9508.476794776536,-48211.57285113011,6918.937792651391,-187500.02235174447,-187500.02235174447,-187500.02235174447,-187500.02235174447,-187500.02235174447,1730987095.588446,1730987094.0497618,3000
-9579.84591482233,-48195.41253988893,6921.1282636080105,-187500.02235174447,-187500.02235174447,-187500.02235174447,-187500.02235174447,-187500.02235174447,1730987095.5924506,1730987094.0497618,3000
-9659.708697761143,-48161.30377785013,6903.693902932871,-187500.02235174447,-187500.02235174447,-187500.02235174447,-187500.02235174447,-187500.02235174447,1730987095.5965044,1730987094.0497618,3000
-9619.386150763768,-48119.304850018605,6909.304190791153,-187500.02235174447,-187500.02235174447,-187500.02235174447,-187500.02235174447,-187500.02235174447,1730987095.6004243,1730987094.0497618,3000
-9587.445507937136,-48167.15993489742,6850.407344151419,-187500.02235174447,-187500.02235174447,-187500.02235174447,-187500.02235174447,-187500.02235174447,1730987095.605412,1730987094.0497618,3000
-9577.70014735462,-48222.61461289103,6841.824274280581,-187500.02235174447,-187500.02235174447,-187500.02235174447,-187500.02235174447,-187500.02235174447,1730987095.6095805,1730987094.0497618,3000
-9557.807094789398,-48137.700335705325,6884.761975379226,-187500.02235174447,-187500.02235174447,-187500.02235174447,-187500.02235174447,-187500.02235174447,1730987095.612422,1730987094.0497618,3000
-9587.534914914955,-48102.56339342158,6934.315792836642,-187500.02235174447,-187500.02235174447,-187500.02235174447,-187500.02235174447,-187500.02235174447,1730987095.6164644,1730987094.0497618,3000
-9577.789554332445,-48158.46510630431,6908.4995279907625,-187500.02235174447,-187500.02235174447,-187500.02235174447,-187500.02235174447,-187500.02235174447,1730987095.620474,1730987094.0497618,3000
-9647.90697668874,-48253.25885453927,6851.882559285469,-187500.02235174447,-187500.02235174447,-187500.02235174447,-187500.02235174447,-187500.02235174447,1730987095.6244967,1730987094.0497618,3000
-9665.028412941503,-48176.23474314627,6879.285797987676,-187500.02235174447,-187500.02235174447,-187500.02235174447,-187500.02235174447,-187500.02235174447,1730987095.6285264,1730987094.0497618,3000
-9551.615661575275,-48097.98128580824,6951.794857000692,-187500.02235174447,-187500.02235174447,-187500.02235174447,-187500.02235174447,-187500.02235174447,1730987095.6334963,1730987094.0497618,3000
-9574.079164752862,-48141.611890985005,6851.2120069518105,-187500.02235174447,-187500.02235174447,-187500.02235174447,-187500.02235174447,-187500.02235174447,1730987095.6375291,1730987094.0497618,3000
-9646.43176155469,-48222.011115790745,6827.563861318095,-187500.02235174447,-187500.02235174447,-187500.02235174447,-187500.02235174447,-187500.02235174447,1730987095.6406124,1730987094.0497618,3000
-9544.328992882847,-48212.31045869714,6943.032973174211,-187500.02235174447,-187500.02235174447,-187500.02235174447,-187500.02235174447,-187500.02235174447,1730987095.644518,1730987094.0497618,3000
-9500.810146428365,-48132.3135652916,6979.734537569826,-187500.02235174447,-187500.02235174447,-187500.02235174447,-187500.02235174447,-187500.02235174447,1730987095.6485243,1730987094.0497618,3000
-9621.598973464845,-48167.42815583088,6880.537495677173,-187500.02235174447,-187500.02235174447,-187500.02235174447,-187500.02235174447,-187500.02235174447,1730987095.6525495,1730987094.0497618,3000
-9613.351179760835,-48196.10544396704,6845.378201648975,-187500.02235174447,-187500.02235174447,-187500.02235174447,-187500.02235174447,-187500.02235174447,1730987095.6565309,1730987094.0497618,3000
-9483.532247964413,-48166.981120941775,6936.573319026628,-187500.02235174447,-187500.02235174447,-187500.02235174447,-187500.02235174447,-187500.02235174447,1730987095.6605072,1730987094.0497618,3000
-9494.149326580684,-48146.48457127626,6857.850475055036,-187500.02235174447,-187500.02235174447,-187500.02235174447,-187500.02235174447,-187500.02235174447,1730987095.6655676,1730987094.0497618,3000
-9629.980877635584,-48175.13950766796,6810.218907620777,-187500.02235174447,-187500.02235174447,-187500.02235174447,-187500.02235174447,-187500.02235174447,1730987095.6685803,1730987094.0497618,3000
-9692.5881138549,-48204.7779208157,6953.2924238791975,-187500.02235174447,-187500.02235174447,-187500.02235174447,-187500.02235174447,-187500.02235174447,1730987095.672537,1730987094.0497618,3000
-9657.361764593335,-48221.74289485728,7022.068741568178,-187500.02235174447,-187500.02235174447,-187500.02235174447,-187500.02235174447,-187500.02235174447,1730987095.6766064,1730987094.0497618,3000
-9637.6251742393,-48128.91610013439,6942.787103985203,-187500.02235174447,-187500.02235174447,-187500.02235174447,-187500.02235174447,-187500.02235174447,1730987095.6805568,1730987094.0497618,3000
-9545.290117894428,-48118.09785581802,6813.906945455903,-187500.02235174447,-187500.02235174447,-187500.02235174447,-187500.02235174447,-187500.02235174447,1730987095.684549,1730987094.0497618,3000
-9520.12205363775,-48180.30276063714,6826.245108395232,-187500.02235174447,-187500.02235174447,-187500.02235174447,-187500.02235174447,-187500.02235174447,1730987095.6885414,1730987094.0497618,3000
-9599.80602262092,-48265.32879654512,6881.297454988654,-187500.02235174447,-187500.02235174447,-187500.02235174447,-187500.02235174447,-187500.02235174447,1730987095.692577,1730987094.0497618,3000
-9528.146329897205,-48168.14341165345,6914.981533882801,-187500.02235174447,-187500.02235174447,-187500.02235174447,-187500.02235174447,-187500.02235174447,1730987095.6956177,1730987094.0497618,3000
-9555.750734299509,-48118.254318029205,6868.780478093681,-187500.02235174447,-187500.02235174447,-187500.02235174447,-187500.02235174447,-187500.02235174447,1730987095.7005954,1730987094.0497618,3000
-9633.132473603782,-48161.37083308349,6847.099285972034,-187500.02235174447,-187500.02235174447,-187500.02235174447,-187500.02235174447,-187500.02235174447,1730987095.7046344,1730987094.0497618,3000
-9636.149959105249,-48220.84882507907,6947.212749387354,-187500.02235174447,-187500.02235174447,-187500.02235174447,-187500.02235174447,-187500.02235174447,1730987095.708638,1730987094.0497618,3000
-9616.502775729034,-48210.79054007418,6962.2107699168655,-187500.02235174447,-187500.02235174447,-187500.02235174447,-187500.02235174447,-187500.02235174447,1730987095.7126174,1730987094.0497618,3000
-9605.70688315712,-48152.094859134544,6893.345045250064,-187500.02235174447,-187500.02235174447,-187500.02235174447,-187500.02235174447,-187500.02235174447,1730987095.7166457,1730987094.0497618,3000
-9613.686455927666,-48224.89449082548,6887.600646925051,-187500.02235174447,-187500.02235174447,-187500.02235174447,-187500.02235174447,-187500.02235174447,1730987095.7206082,1730987094.0497618,3000
-9578.974196788571,-48263.69711919989,6870.658024627927,-187500.02235174447,-187500.02235174447,-187500.02235174447,-187500.02235174447,-187500.02235174447,1730987095.7236342,1730987094.0497618,3000
-9588.205467248616,-48204.15207197095,6932.505301535762,-187500.02235174447,-187500.02235174447,-187500.02235174447,-187500.02235174447,-187500.02235174447,1730987095.7286088,1730987094.0497618,3000
-9620.839014153364,-48178.08993793606,6858.766896577704,-187500.02235174447,-187500.02235174447,-187500.02235174447,-187500.02235174447,-187500.02235174447,1730987095.731698,1730987094.0497618,3000
-9543.07729519335,-48184.86251650602,6866.9476350483465,-187500.02235174447,-187500.02235174447,-187500.02235174447,-187500.02235174447,-187500.02235174447,1730987095.7356374,1730987094.0497618,3000
-9604.410481978714,-48233.54461592968,6946.341031353597,-187500.02235174447,-187500.02235174447,-187500.02235174447,-187500.02235174447,-187500.02235174447,1730987095.7396634,1730987094.0497618,3000
-9614.200546050137,-48218.32307795562,6931.857100946558,-187500.02235174447,-187500.02235174447,-187500.02235174447,-187500.02235174447,-187500.02235174447,1730987095.7446802,1730987094.0497618,3000
-9557.181245944648,-48149.6138155,6790.43761377783,-187500.02235174447,-187500.02235174447,-187500.02235174447,-187500.02235174447,-187500.02235174447,1730987095.748664,1730987094.0497618,3000
-9522.22311761655,-48225.699153625865,6828.659096796406,-187500.02235174447,-187500.02235174447,-187500.02235174447,-187500.02235174447,-187500.02235174447,1730987095.7526743,1730987094.0497618,3000
-9589.814792849398,-48299.34815160611,6974.995967745301,-187500.02235174447,-187500.02235174447,-187500.02235174447,-187500.02235174447,-187500.02235174447,1730987095.7567208,1730987094.0497618,3000
-9624.86232815532,-48235.57862467512,6912.053455359156,-187500.02235174447,-187500.02235174447,-187500.02235174447,-187500.02235174447,-187500.02235174447,1730987095.7607,1730987094.0497618,3000
-9558.879978523251,-48140.24843457323,6900.296437775664,-187500.02235174447,-187500.02235174447,-187500.02235174447,-187500.02235174447,-187500.02235174447,1730987095.7636986,1730987094.0497618,3000
-9543.233757404538,-48147.3115858211,6881.565675922117,-187500.02235174447,-187500.02235174447,-187500.02235174447,-187500.02235174447,-187500.02235174447,1730987095.7676916,1730987094.0497618,3000
-9579.42123167768,-48210.11998774052,6934.025220158723,-187500.02235174447,-187500.02235174447,-187500.02235174447,-187500.02235174447,-187500.02235174447,1730987095.7726984,1730987094.0497618,3000
-9621.777787420486,-48257.796258663686,6935.254566103765,-187500.02235174447,-187500.02235174447,-187500.02235174447,-187500.02235174447,-187500.02235174447,1730987095.7767365,1730987094.0497618,3000
-9497.12210859324,-48190.36104564203,6876.715347375316,-187500.02235174447,-187500.02235174447,-187500.02235174447,-187500.02235174447,-187500.02235174447,1730987095.7807047,1730987094.0497618,3000
-9544.284289393938,-48158.733327237765,6920.837690930091,-187500.02235174447,-187500.02235174447,-187500.02235174447,-187500.02235174447,-187500.02235174447,1730987095.7847693,1730987094.0497618,3000
-9699.472451147134,-48217.85369132205,6931.857100946558,-187500.02235174447,-187500.02235174447,-187500.02235174447,-187500.02235174447,-187500.02235174447,1730987095.7888243,1730987094.0497618,3000
-9691.738747565598,-48266.200514578886,6911.919344892424,-187500.02235174447,-187500.02235174447,-187500.02235174447,-187500.02235174447,-187500.02235174447,1730987095.791756,1730987094.0497618,3000
-9562.836237291842,-48211.61755461902,6876.581236908583,-187500.02235174447,-187500.02235174447,-187500.02235174447,-187500.02235174447,-187500.02235174447,1730987095.7957215,1730987094.0497618,3000
-9539.07633293585,-48174.6701210344,6831.564823575595,-187500.02235174447,-187500.02235174447,-187500.02235174447,-187500.02235174447,-187500.02235174447,1730987095.8008127,1730987094.0497618,3000
-9554.230815676548,-48166.73525175277,6860.979719278779,-187500.02235174447,-187500.02235174447,-187500.02235174447,-187500.02235174447,-187500.02235174447,1730987095.8047936,1730987094.0497618,3000
-9611.943019860151,-48252.87887488352,6897.256600529743,-187500.02235174447,-187500.02235174447,-187500.02235174447,-187500.02235174447,-187500.02235174447,1730987095.808756,1730987094.0497618,3000
-9624.728217688587,-48234.84101710809,6903.448033743863,-187500.02235174447,-187500.02235174447,-187500.02235174447,-187500.02235174447,-187500.02235174447,1730987095.8127875,1730987094.0497618,3000
-9669.409354854746,-48124.401047754414,6832.727114287271,-187500.02235174447,-187500.02235174447,-187500.02235174447,-187500.02235174447,-187500.02235174447,1730987095.8157988,1730987094.0497618,3000
-9626.158729333729,-48152.40778355692,6821.2159658927885,-187500.02235174447,-187500.02235174447,-187500.02235174447,-187500.02235174447,-187500.02235174447,1730987095.8197892,1730987094.0497618,3000
-9533.376638099748,-48218.85951982255,6928.616098000539,-187500.02235174447,-187500.02235174447,-187500.02235174447,-187500.02235174447,-187500.02235174447,1730987095.8238711,1730987094.0497618,3000
-9529.152158397694,-48233.09758104057,6903.5150889772285,-187500.02235174447,-187500.02235174447,-187500.02235174447,-187500.02235174447,-187500.02235174447,1730987095.8278165,1730987094.0497618,3000
-9582.75164160152,-48170.17742039888,6891.534553949185,-187500.02235174447,-187500.02235174447,-187500.02235174447,-187500.02235174447,-187500.02235174447,1730987095.832847,1730987094.0497618,3000
-9575.84495256483,-48159.82856271608,6938.89790044998,-187500.02235174447,-187500.02235174447,-187500.02235174447,-187500.02235174447,-187500.02235174447,1730987095.8368144,1730987094.0497618,3000
-9468.601282668267,-48209.762359829234,6939.836673717103,-187500.02235174447,-187500.02235174447,-187500.02235174447,-187500.02235174447,-187500.02235174447,1730987095.84087,1730987094.0497618,3000
-9570.726403084564,-48231.26473799524,6926.000943899267,-187500.02235174447,-187500.02235174447,-187500.02235174447,-187500.02235174447,-187500.02235174447,1730987095.8438897,1730987094.0497618,3000
-9714.4928234211,-48190.83043227559,6913.573373982117,-187500.02235174447,-187500.02235174447,-187500.02235174447,-187500.02235174447,-187500.02235174447,1730987095.8478296,1730987094.0497618,3000
-9613.731159416577,-48180.39216761496,6904.766786666726,-187500.02235174447,-187500.02235174447,-187500.02235174447,-187500.02235174447,-187500.02235174447,1730987095.8518853,1730987094.0497618,3000
-9604.030502322972,-48228.89545308298,6926.649144488471,-187500.02235174447,-187500.02235174447,-187500.02235174447,-187500.02235174447,-187500.02235174447,1730987095.8558812,1730987094.0497618,3000
-9638.608650995331,-48236.07036305313,6824.300506627621,-187500.02235174447,-187500.02235174447,-187500.02235174447,-187500.02235174447,-187500.02235174447,1730987095.8608785,1730987094.0497618,3000
-9563.730307070056,-48144.40585904192,6825.596907806028,-187500.02235174447,-187500.02235174447,-187500.02235174447,-187500.02235174447,-187500.02235174447,1730987095.8648446,1730987094.0497618,3000
-9543.569033571368,-48144.607024742014,6915.428568771908,-187500.02235174447,-187500.02235174447,-187500.02235174447,-187500.02235174447,-187500.02235174447,1730987095.867874,1730987094.0497618,3000
-9595.000397563028,-48182.4708798493,6911.98640012579,-187500.02235174447,-187500.02235174447,-187500.02235174447,-187500.02235174447,-187500.02235174447,1730987095.8719068,1730987094.0497618,3000
-9576.537856642944,-48255.58343596261,6845.936995260357,-187500.02235174447,-187500.02235174447,-187500.02235174447,-187500.02235174447,-187500.02235174447,1730987095.875904,1730987094.0497618,3000
-9614.178194305685,-48235.37745897502,6789.476488766252,-187500.02235174447,-187500.02235174447,-187500.02235174447,-187500.02235174447,-187500.02235174447,1730987095.8798852,1730987094.0497618,3000
-9568.401821661211,-48179.7216152813,6995.403110432996,-187500.02235174447,-187500.02235174447,-187500.02235174447,-187500.02235174447,-187500.02235174447,1730987095.8839245,1730987094.0497618,3000
-9579.242417722036,-48233.54461592968,6955.28172913572,-187500.02235174447,-187500.02235174447,-187500.02235174447,-187500.02235174447,-187500.02235174447,1730987095.8888907,1730987094.0497618,3000
-9609.596086692343,-48258.73503193081,6870.278044972187,-187500.02235174447,-187500.02235174447,-187500.02235174447,-187500.02235174447,-187500.02235174447,1730987095.892938,1730987094.0497618,3000
-9629.80206367994,-48206.54370862767,6904.520917477717,-187500.02235174447,-187500.02235174447,-187500.02235174447,-187500.02235174447,-187500.02235174447,1730987095.8959625,1730987094.0497618,3000
-9591.42411845018,-48182.78380427168,6898.597705197061,-187500.02235174447,-187500.02235174447,-187500.02235174447,-187500.02235174447,-187500.02235174447,1730987095.8999417,1730987094.0497618,3000
-9586.909066070208,-48255.24815979578,6858.655137855428,-187500.02235174447,-187500.02235174447,-187500.02235174447,-187500.02235174447,-187500.02235174447,1730987095.90398,1730987094.0497618,3000
-9582.6622346237,-48292.01677942476,6892.473327216307,-187500.02235174447,-187500.02235174447,-187500.02235174447,-187500.02235174447,-187500.02235174447,1730987095.907934,1730987094.0497618,3000
-9626.873985156297,-48227.06261003764,6973.14077295551,-187500.02235174447,-187500.02235174447,-187500.02235174447,-187500.02235174447,-187500.02235174447,1730987095.9119847,1730987094.0497618,3000
-9632.126645103292,-48156.49815279224,6995.29135171072,-187500.02235174447,-187500.02235174447,-187500.02235174447,-187500.02235174447,-187500.02235174447,1730987095.9159431,1730987094.0497618,3000
-9563.395030903224,-48182.13560368247,6880.045757299156,-187500.02235174447,-187500.02235174447,-187500.02235174447,-187500.02235174447,-187500.02235174447,1730987095.9210055,1730987094.0497618,3000
-9543.211405660082,-48246.73214515831,6857.537550632662,-187500.02235174447,-187500.02235174447,-187500.02235174447,-187500.02235174447,-187500.02235174447,1730987095.9240596,1730987094.0497618,3000
-9573.632129863756,-48198.92176376841,6815.4045123344085,-187500.02235174447,-187500.02235174447,-187500.02235174447,-187500.02235174447,-187500.02235174447,1730987095.927991,1730987094.0497618,3000
-9542.69731553761,-48155.380565569474,6893.479155716796,-187500.02235174447,-187500.02235174447,-187500.02235174447,-187500.02235174447,-187500.02235174447,1730987095.9320076,1730987094.0497618,3000
-9523.206594372585,-48198.6758945794,6920.994153141279,-187500.02235174447,-187500.02235174447,-187500.02235174447,-187500.02235174447,-187500.02235174447,1730987095.9359794,1730987094.0497618,3000
-9606.735063402064,-48303.19265165242,6858.096344244045,-187500.02235174447,-187500.02235174447,-187500.02235174447,-187500.02235174447,-187500.02235174447,1730987095.9401112,1730987094.0497618,3000
-9666.6824420312,-48289.13340439003,6792.985712645736,-187500.02235174447,-187500.02235174447,-187500.02235174447,-187500.02235174447,-187500.02235174447,1730987095.9451315,1730987094.0497618,3000
-9615.027560594985,-48198.89941202395,6885.700748646349,-187500.02235174447,-187500.02235174447,-187500.02235174447,-187500.02235174447,-187500.02235174447,1730987095.949048,1730987094.0497618,3000
-9586.506734670013,-48161.68375750587,6956.42166810294,-187500.02235174447,-187500.02235174447,-187500.02235174447,-187500.02235174447,-187500.02235174447,1730987095.95213,1730987094.0497618,3000
-9558.70116456761,-48210.41056041844,6950.4761040778285,-187500.02235174447,-187500.02235174447,-187500.02235174447,-187500.02235174447,-187500.02235174447,1730987095.9560783,1730987094.0497618,3000
-9529.867414220264,-48286.45119505539,6930.2254236013205,-187500.02235174447,-187500.02235174447,-187500.02235174447,-187500.02235174447,-187500.02235174447,1730987095.9601452,1730987094.0497618,3000
-9523.966553684062,-48253.08004058362,6863.349004191042,-187500.02235174447,-187500.02235174447,-187500.02235174447,-187500.02235174447,-187500.02235174447,1730987095.9640656,1730987094.0497618,3000
-9673.589131067887,-48221.89935706847,6838.918547501391,-187500.02235174447,-187500.02235174447,-187500.02235174447,-187500.02235174447,-187500.02235174447,1730987095.9682007,1730987094.0497618,3000
-9654.14311339177,-48285.89240144401,6940.127246395022,-187500.02235174447,-187500.02235174447,-187500.02235174447,-187500.02235174447,-187500.02235174447,1730987095.9720912,1730987094.0497618,3000
-9573.90035079722,-48267.98865413531,7009.663523395482,-187500.02235174447,-187500.02235174447,-187500.02235174447,-187500.02235174447,-187500.02235174447,1730987095.976154,1730987094.0497618,3000
-9601.6165139218,-48219.46301692284,6919.720103707326,-187500.02235174447,-187500.02235174447,-187500.02235174447,-187500.02235174447,-187500.02235174447,1730987095.97916,1730987094.0497618,3000
-9622.694208943154,-48201.49221438077,6927.118531122033,-187500.02235174447,-187500.02235174447,-187500.02235174447,-187500.02235174447,-187500.02235174447,1730987095.9841409,1730987094.0497618,3000
-9485.946236365586,-48254.30938652866,6924.190452598388,-187500.02235174447,-187500.02235174447,-187500.02235174447,-187500.02235174447,-187500.02235174447,1730987095.988246,1730987094.0497618,3000
-9522.513690294469,-48303.66203828598,6845.601719093528,-187500.02235174447,-187500.02235174447,-187500.02235174447,-187500.02235174447,-187500.02235174447,1730987095.9921064,1730987094.0497618,3000
-9660.96039545064,-48214.94796454287,6883.152649778444,-187500.02235174447,-187500.02235174447,-187500.02235174447,-187500.02235174447,-187500.02235174447,1730987095.9961505,1730987094.0497618,3000
-9610.08782507036,-48167.98694944227,6921.79881594167,-187500.02235174447,-187500.02235174447,-187500.02235174447,-187500.02235174447,-187500.02235174447,1730987096.0001116,1730987094.0497618,3000
-9616.770996662495,-48239.95956658835,6856.241149454254,-187500.02235174447,-187500.02235174447,-187500.02235174447,-187500.02235174447,-187500.02235174447,1730987096.0051804,1730987094.0497618,3000
-9635.367648049314,-48242.86529336754,6838.270346912187,-187500.02235174447,-187500.02235174447,-187500.02235174447,-187500.02235174447,-187500.02235174447,1730987096.0081017,1730987094.0497618,3000
-9513.349475067793,-48193.22206893231,6995.067834266167,-187500.02235174447,-187500.02235174447,-187500.02235174447,-187500.02235174447,-187500.02235174447,1730987096.012179,1730987094.0497618,3000
-9576.023766520471,-48189.24345841926,6951.638394789505,-187500.02235174447,-187500.02235174447,-187500.02235174447,-187500.02235174447,-187500.02235174447,1730987096.0161643,1730987094.0497618,3000
-9614.200546050137,-48241.77005788923,6905.973780867313,-187500.02235174447,-187500.02235174447,-187500.02235174447,-187500.02235174447,-187500.02235174447,1730987096.0201435,1730987094.0497618,3000
-9600.543630187944,-48296.71064576038,6887.421832969408,-187500.02235174447,-187500.02235174447,-187500.02235174447,-187500.02235174447,-187500.02235174447,1730987096.0241656,1730987094.0497618,3000
-9603.89639185624,-48298.275267872246,6855.905873287425,-187500.02235174447,-187500.02235174447,-187500.02235174447,-187500.02235174447,-187500.02235174447,1730987096.028348,1730987094.0497618,3000
-9539.99275445852,-48232.44938045137,6828.390875862941,-187500.02235174447,-187500.02235174447,-187500.02235174447,-187500.02235174447,-187500.02235174447,1730987096.0322297,1730987094.0497618,3000
-9575.621435120278,-48229.633060650005,6974.3030636671865,-187500.02235174447,-187500.02235174447,-187500.02235174447,-187500.02235174447,-187500.02235174447,1730987096.0351772,1730987094.0497618,3000
-9605.75158664603,-48281.42205255295,6984.674273094449,-187500.02235174447,-187500.02235174447,-187500.02235174447,-187500.02235174447,-187500.02235174447,1730987096.0391548,1730987094.0497618,3000
-9580.5611706449,-48326.863149030585,6926.671496232927,-187500.02235174447,-187500.02235174447,-187500.02235174447,-187500.02235174447,-187500.02235174447,1730987096.0444152,1730987094.0497618,3000
-9632.685438714676,-48248.96731960384,6846.607547594017,-187500.02235174447,-187500.02235174447,-187500.02235174447,-187500.02235174447,-187500.02235174447,1730987096.048234,1730987094.0497618,3000
-9588.250170737529,-48231.95764207335,6909.505356491251,-187500.02235174447,-187500.02235174447,-187500.02235174447,-187500.02235174447,-187500.02235174447,1730987096.052189,1730987094.0497618,3000
-9547.36883012877,-48259.7408604313,6906.711388434338,-187500.02235174447,-187500.02235174447,-187500.02235174447,-187500.02235174447,-187500.02235174447,1730987096.0562236,1730987094.0497618,3000
-9555.348402899312,-48305.96426796488,6901.659894187438,-187500.02235174447,-187500.02235174447,-187500.02235174447,-187500.02235174447,-187500.02235174447,1730987096.0603924,1730987094.0497618,3000
-9565.406687904202,-48243.87112186803,6858.543379133151,-187500.02235174447,-187500.02235174447,-187500.02235174447,-187500.02235174447,-187500.02235174447,1730987096.0632396,1730987094.0497618,3000
-9561.338670413335,-48203.25800219274,6872.177943250888,-187500.02235174447,-187500.02235174447,-187500.02235174447,-187500.02235174447,-187500.02235174447,1730987096.067257,1730987094.0497618,3000
-9595.17921151867,-48285.11009038807,6897.614228441028,-187500.02235174447,-187500.02235174447,-187500.02235174447,-187500.02235174447,-187500.02235174447,1730987096.0722027,1730987094.0497618,3000
-9628.14803459025,-48302.87972723004,6831.944803231336,-187500.02235174447,-187500.02235174447,-187500.02235174447,-187500.02235174447,-187500.02235174447,1730987096.0762184,1730987094.0497618,3000
-9637.356953305836,-48225.02860129221,6925.576260754617,-187500.02235174447,-187500.02235174447,-187500.02235174447,-187500.02235174447,-187500.02235174447,1730987096.0802395,1730987094.0497618,3000
-9639.368610306814,-48209.74000808478,6986.462412650873,-187500.02235174447,-187500.02235174447,-187500.02235174447,-187500.02235174447,-187500.02235174447,1730987096.0842564,1730987094.0497618,3000
-9566.434868149146,-48232.002345562265,6889.433489970385,-187500.02235174447,-187500.02235174447,-187500.02235174447,-187500.02235174447,-187500.02235174447,1730987096.0882173,1730987094.0497618,3000
-9566.61368210479,-48288.01581716727,6895.311998762131,-187500.02235174447,-187500.02235174447,-187500.02235174447,-187500.02235174447,-187500.02235174447,1730987096.0913029,1730987094.0497618,3000
-9587.713728870598,-48255.38227026252,6894.015597583723,-187500.02235174447,-187500.02235174447,-187500.02235174447,-187500.02235174447,-187500.02235174447,1730987096.0953057,1730987094.0497618,3000
-9644.643621998266,-48223.888662324985,6839.589099835051,-187500.02235174447,-187500.02235174447,-187500.02235174447,-187500.02235174447,-187500.02235174447,1730987096.10026,1730987094.0497618,3000
-9586.730252114565,-48239.40077297697,6829.977849719268,-187500.02235174447,-187500.02235174447,-187500.02235174447,-187500.02235174447,-187500.02235174447,1730987096.1042728,1730987094.0497618,3000
-9528.16868164166,-48274.64947398299,7000.901639569001,-187500.02235174447,-187500.02235174447,-187500.02235174447,-187500.02235174447,-187500.02235174447,1730987096.1082752,1730987094.0497618,3000
-9618.6708949412,-48254.93523537341,6895.289647017676,-187500.02235174447,-187500.02235174447,-187500.02235174447,-187500.02235174447,-187500.02235174447,1730987096.111284,1730987094.0497618,3000
-9557.963557000585,-48191.90331600944,6848.775666806182,-187500.02235174447,-187500.02235174447,-187500.02235174447,-187500.02235174447,-187500.02235174447,1730987096.115311,1730987094.0497618,3000
-9579.063603766395,-48228.7836943607,6903.202164554855,-187500.02235174447,-187500.02235174447,-187500.02235174447,-187500.02235174447,-187500.02235174447,1730987096.1193016,1730987094.0497618,3000
-9595.022749307484,-48297.291791116215,6949.380868599519,-187500.02235174447,-187500.02235174447,-187500.02235174447,-187500.02235174447,-187500.02235174447,1730987096.123297,1730987094.0497618,3000
-9669.185837410192,-48256.65631969647,6797.120785369967,-187500.02235174447,-187500.02235174447,-187500.02235174447,-187500.02235174447,-187500.02235174447,1730987096.128331,1730987094.0497618,3000
-9635.85938642733,-48223.77690360271,6851.703745329827,-187500.02235174447,-187500.02235174447,-187500.02235174447,-187500.02235174447,-187500.02235174447,1730987096.1323087,1730987094.0497618,3000
-9537.31054512388,-48196.23955443377,6988.831697563136,-187500.02235174447,-187500.02235174447,-187500.02235174447,-187500.02235174447,-187500.02235174447,1730987096.1363356,1730987094.0497618,3000
-9570.36877517328,-48278.09164262911,6917.663743217438,-187500.02235174447,-187500.02235174447,-187500.02235174447,-187500.02235174447,-187500.02235174447,1730987096.1393273,1730987094.0497618,3000
-9583.243379979538,-48254.19762780638,6896.966027851824,-187500.02235174447,-187500.02235174447,-187500.02235174447,-187500.02235174447,-187500.02235174447,1730987096.1433077,1730987094.0497618,3000
-9566.680737338154,-48214.50092965376,6883.890257345469,-187500.02235174447,-187500.02235174447,-187500.02235174447,-187500.02235174447,-187500.02235174447,1730987096.1473196,1730987094.0497618,3000
-9573.743888586032,-48200.66519983592,6865.807696081126,-187500.02235174447,-187500.02235174447,-187500.02235174447,-187500.02235174447,-187500.02235174447,1730987096.1513848,1730987094.0497618,3000
-9583.89158056874,-48264.367671533546,6932.974688169324,-187500.02235174447,-187500.02235174447,-187500.02235174447,-187500.02235174447,-187500.02235174447,1730987096.155341,1730987094.0497618,3000
-9536.014143945473,-48281.354997319584,6923.497548520273,-187500.02235174447,-187500.02235174447,-187500.02235174447,-187500.02235174447,-187500.02235174447,1730987096.1603503,1730987094.0497618,3000
-9554.56609184338,-48203.34740917056,6903.425681999408,-187500.02235174447,-187500.02235174447,-187500.02235174447,-187500.02235174447,-187500.02235174447,1730987096.1643722,1730987094.0497618,3000
-9638.027505639497,-48176.212391401816,6900.005865097745,-187500.02235174447,-187500.02235174447,-187500.02235174447,-187500.02235174447,-187500.02235174447,1730987096.167406,1730987094.0497618,3000
-9640.061514384928,-48233.54461592968,6894.909667361935,-187500.02235174447,-187500.02235174447,-187500.02235174447,-187500.02235174447,-187500.02235174447,1730987096.1716816,1730987094.0497618,3000
-9537.914042224174,-48293.53669804773,6952.398354100986,-187500.02235174447,-187500.02235174447,-187500.02235174447,-187500.02235174447,-187500.02235174447,1730987096.1754093,1730987094.0497618,3000
-9595.223915007582,-48241.03245032221,6927.900842177969,-187500.02235174447,-187500.02235174447,-187500.02235174447,-187500.02235174447,-187500.02235174447,1730987096.1794343,1730987094.0497618,3000
-9653.405505824749,-48204.08501673758,6848.440390639352,-187500.02235174447,-187500.02235174447,-187500.02235174447,-187500.02235174447,-187500.02235174447,1730987096.183382,1730987094.0497618,3000
-9576.493153154035,-48230.0353920502,6867.417021681908,-187500.02235174447,-187500.02235174447,-187500.02235174447,-187500.02235174447,-187500.02235174447,1730987096.188439,1730987094.0497618,3000
-9594.285141740458,-48320.85052977211,6895.803737140148,-187500.02235174447,-187500.02235174447,-187500.02235174447,-187500.02235174447,-187500.02235174447,1730987096.192507,1730987094.0497618,3000
-9627.85746191233,-48273.26366582676,6854.2071407088215,-187500.02235174447,-187500.02235174447,-187500.02235174447,-187500.02235174447,-187500.02235174447,1730987096.1954515,1730987094.0497618,3000
-9588.116060270791,-48201.29104868067,6902.732777921293,-187500.02235174447,-187500.02235174447,-187500.02235174447,-187500.02235174447,-187500.02235174447,1730987096.1996033,1730987094.0497618,3000
-9564.602025103812,-48263.183029077416,6861.270291956698,-187500.02235174447,-187500.02235174447,-187500.02235174447,-187500.02235174447,-187500.02235174447,1730987096.2034454,1730987094.0497618,3000
-9524.592402528811,-48343.73871609435,6813.772834989171,-187500.02235174447,-187500.02235174447,-187500.02235174447,-187500.02235174447,-187500.02235174447,1730987096.2074544,1730987094.0497618,3000
-9586.03734803645,-48260.47846799833,6895.379053995497,-187500.02235174447,-187500.02235174447,-187500.02235174447,-187500.02235174447,-187500.02235174447,1730987096.211448,1730987094.0497618,3000
-9586.864362581297,-48193.31147591013,7017.061950810189,-187500.02235174447,-187500.02235174447,-187500.02235174447,-187500.02235174447,-187500.02235174447,1730987096.2164865,1730987094.0497618,3000
-9604.544592445443,-48178.939304225365,6891.780423138192,-187500.02235174447,-187500.02235174447,-187500.02235174447,-187500.02235174447,-187500.02235174447,1730987096.2205105,1730987094.0497618,3000
-9606.355083746324,-48251.06838358264,6907.203126812355,-187500.02235174447,-187500.02235174447,-187500.02235174447,-187500.02235174447,-187500.02235174447,1730987096.223553,1730987094.0497618,3000
-9633.087770114871,-48308.57942206615,6891.93688534938,-187500.02235174447,-187500.02235174447,-187500.02235174447,-187500.02235174447,-187500.02235174447,1730987096.2275603,1730987094.0497618,3000
-9571.5087141405,-48210.96935402982,6880.492792188263,-187500.02235174447,-187500.02235174447,-187500.02235174447,-187500.02235174447,-187500.02235174447,1730987096.2315583,1730987094.0497618,3000
-9576.13552524275,-48180.61568505952,6939.881377206013,-187500.02235174447,-187500.02235174447,-187500.02235174447,-187500.02235174447,-187500.02235174447,1730987096.235507,1730987094.0497618,3000
-9615.698112928643,-48236.7856188757,6976.940569512913,-187500.02235174447,-187500.02235174447,-187500.02235174447,-187500.02235174447,-187500.02235174447,1730987096.2396808,1730987094.0497618,3000
-9608.634961680766,-48274.76123270526,6844.215910937299,-187500.02235174447,-187500.02235174447,-187500.02235174447,-187500.02235174447,-187500.02235174447,1730987096.2444491,1730987094.0497618,3000
-9569.430001906156,-48218.94892680037,6827.2062334068105,-187500.02235174447,-187500.02235174447,-187500.02235174447,-187500.02235174447,-187500.02235174447,1730987096.2474809,1730987094.0497618,3000
-9582.103441012316,-48194.317304410615,6921.955278152857,-187500.02235174447,-187500.02235174447,-187500.02235174447,-187500.02235174447,-187500.02235174447,1730987096.2515163,1730987094.0497618,3000
-9590.03831029395,-48264.88176165602,6884.225533512299,-187500.02235174447,-187500.02235174447,-187500.02235174447,-187500.02235174447,-187500.02235174447,1730987096.2554877,1730987094.0497618,3000
-9585.791478847445,-48316.938974492434,6798.417186548375,-187500.02235174447,-187500.02235174447,-187500.02235174447,-187500.02235174447,-187500.02235174447,1730987096.2596323,1730987094.0497618,3000
-9556.801266288909,-48233.65637465196,6847.881597027969,-187500.02235174447,-187500.02235174447,-187500.02235174447,-187500.02235174447,-187500.02235174447,1730987096.2635517,1730987094.0497618,3000
-9633.199528837147,-48192.93149625439,6985.389528917019,-187500.02235174447,-187500.02235174447,-187500.02235174447,-187500.02235174447,-187500.02235174447,1730987096.267574,1730987094.0497618,3000
-9622.448339754146,-48254.152924317474,6891.065167315623,-187500.02235174447,-187500.02235174447,-187500.02235174447,-187500.02235174447,-187500.02235174447,1730987096.272564,1730987094.0497618,3000
-9545.960670228083,-48288.351093334095,6884.180830023388,-187500.02235174447,-187500.02235174447,-187500.02235174447,-187500.02235174447,-187500.02235174447,1730987096.2755544,1730987094.0497618,3000
-9529.129806653238,-48215.14913024296,6900.609362198039,-187500.02235174447,-187500.02235174447,-187500.02235174447,-187500.02235174447,-187500.02235174447,1730987096.278536,1730987094.0497618,3000
-9504.431129030125,-48180.16865017041,6882.727966633794,-187500.02235174447,-187500.02235174447,-187500.02235174447,-187500.02235174447,-187500.02235174447,1730987096.283564,1730987094.0497618,3000
-9589.032481793462,-48262.04309011019,6895.624923184505,-187500.02235174447,-187500.02235174447,-187500.02235174447,-187500.02235174447,-187500.02235174447,1730987096.2875445,1730987094.0497618,3000
-9632.685438714676,-48300.35398010659,6887.779460880693,-187500.02235174447,-187500.02235174447,-187500.02235174447,-187500.02235174447,-187500.02235174447,1730987096.2916253,1730987094.0497618,3000
-9678.618273570331,-48248.74380215929,6886.438356213374,-187500.02235174447,-187500.02235174447,-187500.02235174447,-187500.02235174447,-187500.02235174447,1730987096.2956123,1730987094.0497618,3000
-9609.484327970067,-48216.89256631048,6906.487870989785,-187500.02235174447,-187500.02235174447,-187500.02235174447,-187500.02235174447,-187500.02235174447,1730987096.300622,1730987094.0497618,3000
-9537.914042224174,-48244.094639312585,6916.479100761307,-187500.02235174447,-187500.02235174447,-187500.02235174447,-187500.02235174447,-187500.02235174447,1730987096.3036528,1730987094.0497618,3000
-9505.191088341606,-48315.48611110284,6848.373335405986,-187500.02235174447,-187500.02235174447,-187500.02235174447,-187500.02235174447,-187500.02235174447,1730987096.3066573,1730987094.0497618,3000
-9590.395938205236,-48253.638834195,6897.74833890776,-187500.02235174447,-187500.02235174447,-187500.02235174447,-187500.02235174447,-187500.02235174447,1730987096.311625,1730987094.0497618,3000
-9665.095468174872,-48220.15592100095,6865.1818472363775,-187500.02235174447,-187500.02235174447,-187500.02235174447,-187500.02235174447,-187500.02235174447,1730987096.315656,1730987094.0497618,3000
-9610.333694259369,-48256.41045050746,6853.35777441952,-187500.02235174447,-187500.02235174447,-187500.02235174447,-187500.02235174447,-187500.02235174447,1730987096.3196676,1730987094.0497618,3000
-9575.666138609187,-48327.22077694188,6907.828975657103,-187500.02235174447,-187500.02235174447,-187500.02235174447,-187500.02235174447,-187500.02235174447,1730987096.3236597,1730987094.0497618,3000
-9576.247283965024,-48287.7475962338,6838.203291678821,-187500.02235174447,-187500.02235174447,-187500.02235174447,-187500.02235174447,-187500.02235174447,1730987096.3286948,1730987094.0497618,3000
-9547.748809784507,-48218.05485702215,6938.383810327508,-187500.02235174447,-187500.02235174447,-187500.02235174447,-187500.02235174447,-187500.02235174447,1730987096.3316803,1730987094.0497618,3000
-9592.228781250573,-48208.801234817656,6883.97966432329,-187500.02235174447,-187500.02235174447,-187500.02235174447,-187500.02235174447,-187500.02235174447,1730987096.3346338,1730987094.0497618,3000
-9532.12494041025,-48277.73401471783,6916.166176338933,-187500.02235174447,-187500.02235174447,-187500.02235174447,-187500.02235174447,-187500.02235174447,1730987096.3396888,1730987094.0497618,3000
-9623.074188598894,-48339.89421604803,6923.832824687103,-187500.02235174447,-187500.02235174447,-187500.02235174447,-187500.02235174447,-187500.02235174447,1730987096.343649,1730987094.0497618,3000
-9601.28123775497,-48222.59226114658,6908.32071403512,-187500.02235174447,-187500.02235174447,-187500.02235174447,-187500.02235174447,-187500.02235174447,1730987096.3477411,1730987094.0497618,3000
-9565.13846697074,-48216.266717465725,6854.453009897829,-187500.02235174447,-187500.02235174447,-187500.02235174447,-187500.02235174447,-187500.02235174447,1730987096.3517044,1730987094.0497618,3000
-9556.600100588812,-48271.11789835905,6885.164306779422,-187500.02235174447,-187500.02235174447,-187500.02235174447,-187500.02235174447,-187500.02235174447,1730987096.3556817,1730987094.0497618,3000
-9608.590258191856,-48316.82721577016,6921.865871175036,-187500.02235174447,-187500.02235174447,-187500.02235174447,-187500.02235174447,-187500.02235174447,1730987096.359691,1730987094.0497618,3000
-9588.831316093365,-48245.50279921327,6879.755184621237,-187500.02235174447,-187500.02235174447,-187500.02235174447,-187500.02235174447,-187500.02235174447,1730987096.3626912,1730987094.0497618,3000
-9541.803245759398,-48220.7817698457,6909.3265425356085,-187500.02235174447,-187500.02235174447,-187500.02235174447,-187500.02235174447,-187500.02235174447,1730987096.3666923,1730987094.0497618,3000
-9559.595234345825,-48298.85641322809,6910.377074525008,-187500.02235174447,-187500.02235174447,-187500.02235174447,-187500.02235174447,-187500.02235174447,1730987096.371784,1730987094.0497618,3000
-9618.76030191902,-48284.48424154332,6846.473437127285,-187500.02235174447,-187500.02235174447,-187500.02235174447,-187500.02235174447,-187500.02235174447,1730987096.3757324,1730987094.0497618,3000
-9557.628280833756,-48245.21222653536,6855.21296920931,-187500.02235174447,-187500.02235174447,-187500.02235174447,-187500.02235174447,-187500.02235174447,1730987096.379733,1730987094.0497618,3000
-9598.219048764591,-48241.14420904448,6886.661873657928,-187500.02235174447,-187500.02235174447,-187500.02235174447,-187500.02235174447,-187500.02235174447,1730987096.3828125,1730987094.0497618,3000
-9636.373476549805,-48304.01966619727,6864.466591413808,-187500.02235174447,-187500.02235174447,-187500.02235174447,-187500.02235174447,-187500.02235174447,1730987096.3868072,1730987094.0497618,3000
-9578.862438066297,-48335.93795727944,6979.913351525468,-187500.02235174447,-187500.02235174447,-187500.02235174447,-187500.02235174447,-187500.02235174447,1730987096.3907433,1730987094.0497618,3000
-9569.340594928335,-48268.1898198354,6942.876510963025,-187500.02235174447,-187500.02235174447,-187500.02235174447,-187500.02235174447,-187500.02235174447,1730987096.3947835,1730987094.0497618,3000
-9481.989977596995,-48201.1792899584,6904.252696544254,-187500.02235174447,-187500.02235174447,-187500.02235174447,-187500.02235174447,-187500.02235174447,1730987096.3997638,1730987094.0497618,3000
-9537.55641431289,-48260.76904067624,6909.46065300234,-187500.02235174447,-187500.02235174447,-187500.02235174447,-187500.02235174447,-187500.02235174447,1730987096.4037983,1730987094.0497618,3000
-9576.403746176213,-48335.49092239034,6897.547173207662,-187500.02235174447,-187500.02235174447,-187500.02235174447,-187500.02235174447,-187500.02235174447,1730987096.4077964,1730987094.0497618,3000
-9587.289045725947,-48261.81957266564,6869.69689961635,-187500.02235174447,-187500.02235174447,-187500.02235174447,-187500.02235174447,-187500.02235174447,1730987096.4108324,1730987094.0497618,3000
-9584.740946858044,-48203.39211265947,6924.950411909868,-187500.02235174447,-187500.02235174447,-187500.02235174447,-187500.02235174447,-187500.02235174447,1730987096.414819,1730987094.0497618,3000
-9548.575824329357,-48238.95373808787,6873.161420006922,-187500.02235174447,-187500.02235174447,-187500.02235174447,-187500.02235174447,-187500.02235174447,1730987096.4188125,1730987094.0497618,3000
-9606.265676768504,-48292.41911082496,6833.174149176378,-187500.02235174447,-187500.02235174447,-187500.02235174447,-187500.02235174447,-187500.02235174447,1730987096.422822,1730987094.0497618,3000
-9632.171348592205,-48296.397721338006,6887.064205058123,-187500.02235174447,-187500.02235174447,-187500.02235174447,-187500.02235174447,-187500.02235174447,1730987096.4278717,1730987094.0497618,3000
-9641.33556381888,-48226.30265072616,6847.814541794603,-187500.02235174447,-187500.02235174447,-187500.02235174447,-187500.02235174447,-187500.02235174447,1730987096.4319866,1730987094.0497618,3000
-9519.920887937653,-48175.29596987915,6958.589787315105,-187500.02235174447,-187500.02235174447,-187500.02235174447,-187500.02235174447,-187500.02235174447,1730987096.4358044,1730987094.0497618,3000
-9578.773031088476,-48284.3948345655,6874.077841529589,-187500.02235174447,-187500.02235174447,-187500.02235174447,-187500.02235174447,-187500.02235174447,1730987096.438804,1730987094.0497618,3000
-9665.944834464171,-48332.20521595541,6904.2750482887095,-187500.02235174447,-187500.02235174447,-187500.02235174447,-187500.02235174447,-187500.02235174447,1730987096.4428604,1730987094.0497618,3000
-9628.438607268168,-48229.007211805256,6872.803792095637,-187500.02235174447,-187500.02235174447,-187500.02235174447,-187500.02235174447,-187500.02235174447,1730987096.446957,1730987094.0497618,3000
-9542.94318472662,-48221.11704601253,6886.639521913472,-187500.02235174447,-187500.02235174447,-187500.02235174447,-187500.02235174447,-187500.02235174447,1730987096.4508564,1730987094.0497618,3000
-9566.32310942687,-48284.23837235432,6855.011803509213,-187500.02235174447,-187500.02235174447,-187500.02235174447,-187500.02235174447,-187500.02235174447,1730987096.4558356,1730987094.0497618,3000
-9514.668227990654,-48305.0031429533,6889.120565548011,-187500.02235174447,-187500.02235174447,-187500.02235174447,-187500.02235174447,-187500.02235174447,1730987096.45985,1730987094.0497618,3000
