Fp1,Fp2,C3,C4,P7,P8,O1,O2,time_board,time_marker,marker
29296.073829659683,-92433.7169448992,23078.489074526915,-185588.67997988223,-187500.02235174447,-187500.02235174447,-187500.02235174447,-187500.02235174447,1730654134.6730442,1730654134.6711574,3000
29297.83961747165,-92440.13189555788,23077.706763470986,-185599.47587245415,-187500.02235174447,-187500.02235174447,-187500.02235174447,-187500.02235174447,1730654134.6773152,1730654134.6711574,3000
29294.33039359217,-92431.70528789822,23080.88071118364,-185592.546831673,-187500.02235174447,-187500.02235174447,-187500.02235174447,-187500.02235174447,1730654134.6824484,1730654134.6711574,3000
29295.470332559387,-92430.54299718657,23075.672754725547,-185593.5079566846,-187500.02235174447,-187500.02235174447,-187500.02235174447,-187500.02235174447,1730654134.686345,1730654134.6711574,3000
29294.62096627009,-92413.44391267824,23076.343307059207,-185577.9064390548,-187500.02235174447,-187500.02235174447,-187500.02235174447,-187500.02235174447,1730654134.690254,1730654134.6711574,3000
29301.482951817867,-92440.824799636,23077.013859392868,-185605.801416135,-187500.02235174447,-187500.02235174447,-187500.02235174447,-187500.02235174447,1730654134.6931148,1730654134.6711574,3000
29317.50915259232,-92447.73148867268,23078.01968789336,-185615.34561101743,-187500.02235174447,-187500.02235174447,-187500.02235174447,-187500.02235174447,1730654134.6971416,1730654134.6711574,3000
29319.341995637657,-92457.25333181064,23078.01968789336,-185627.97434663467,-187500.02235174447,-187500.02235174447,-187500.02235174447,-187500.02235174447,1730654134.7012644,1730654134.6711574,3000
29303.338146607657,-92412.48278766664,23083.85349319619,-185585.327218214,-187500.02235174447,-187500.02235174447,-187500.02235174447,-187500.02235174447,1730654134.7053063,1730654134.6711574,3000
29292.542254035743,-92425.78207561756,23088.14502813161,-185599.8558521099,-187500.02235174447,-187500.02235174447,-187500.02235174447,-187500.02235174447,1730654134.7113693,1730654134.6711574,3000
29285.166178365493,-92430.69945939771,23079.71842047196,-185606.5837271909,-187500.02235174447,-187500.02235174447,-187500.02235174447,-187500.02235174447,1730654134.7141404,1730654134.6711574,3000
29302.108800662616,-92428.93367158576,23075.404533792083,-185607.34368650243,-187500.02235174447,-187500.02235174447,-187500.02235174447,-187500.02235174447,1730654134.7184005,1730654134.6711574,3000
29318.313815392718,-92422.94340407176,23075.248071580896,-185604.1026835564,-187500.02235174447,-187500.02235174447,-187500.02235174447,-187500.02235174447,1730654134.721242,1730654134.6711574,3000
29295.80560872622,-92425.1562267728,23079.83017919424,-185611.54581446003,-187500.02235174447,-187500.02235174447,-187500.02235174447,-187500.02235174447,1730654134.7255957,1730654134.6711574,3000
29308.635510043565,-92448.0667648395,23088.70382174299,-185638.4126112953,-187500.02235174447,-187500.02235174447,-187500.02235174447,-187500.02235174447,1730654134.7297437,1730654134.6711574,3000
29316.436268858462,-92449.13964857336,23081.32774607274,-185643.39705030885,-187500.02235174447,-187500.02235174447,-187500.02235174447,-187500.02235174447,1730654134.7339213,1730654134.6711574,3000
29338.072757491205,-92431.30295649802,23074.242243080407,-185628.5107885016,-187500.02235174447,-187500.02235174447,-187500.02235174447,-187500.02235174447,1730654134.7383249,1730654134.6711574,3000
29331.38958589907,-92438.567273446,23073.392876791106,-185638.4126112953,-187500.02235174447,-187500.02235174447,-187500.02235174447,-187500.02235174447,1730654134.742457,1730654134.6711574,3000
29301.32648960668,-92436.73443040068,23087.027440908845,-185639.50784677363,-187500.02235174447,-187500.02235174447,-187500.02235174447,-187500.02235174447,1730654134.746454,1730654134.6711574,3000
29271.196338080925,-92403.31857243998,23096.079897413245,-185608.1707010473,-187500.02235174447,-187500.02235174447,-187500.02235174447,-187500.02235174447,1730654134.7494197,1730654134.6711574,3000
29271.37515203657,-92407.74421784212,23087.09449614221,-185615.814997651,-187500.02235174447,-187500.02235174447,-187500.02235174447,-187500.02235174447,1730654134.7534733,1730654134.6711574,3000
29314.78223976877,-92427.30199424052,23079.15962686057,-185640.80424795204,-187500.02235174447,-187500.02235174447,-187500.02235174447,-187500.02235174447,1730654134.7574344,1730654134.6711574,3000
29366.973563071915,-92439.70721241322,23077.90792917108,-185657.79157373807,-187500.02235174447,-187500.02235174447,-187500.02235174447,-187500.02235174447,1730654134.7614825,1730654134.6711574,3000
29338.631551102582,-92460.60609347894,23097.465705569477,-185681.79734728305,-187500.02235174447,-187500.02235174447,-187500.02235174447,-187500.02235174447,1730654134.7653065,1730654134.6711574,3000
29240.015654565774,-92486.46706181372,23100.594949793216,-185713.42506568733,-187500.02235174447,-187500.02235174447,-187500.02235174447,-187500.02235174447,1730654134.7704964,1730654134.6711574,3000
29219.519104900257,-92466.30578831505,23085.015783907867,-185699.76814982516,-187500.02235174447,-187500.02235174447,-187500.02235174447,-187500.02235174447,1730654134.7744312,1730654134.6711574,3000
29288.47423654488,-92426.13970352884,23124.57837159376,-185664.09476567447,-187500.02235174447,-187500.02235174447,-187500.02235174447,-187500.02235174447,1730654134.7775695,1730654134.6711574,3000
29334.87645803409,-92429.98420357516,23085.976908919445,-185673.2813326456,-187500.02235174447,-187500.02235174447,-187500.02235174447,-187500.02235174447,1730654134.7812471,1730654134.6711574,3000
29299.001908183327,-92454.25819805363,23084.61345250767,-185702.36095218197,-187500.02235174447,-187500.02235174447,-187500.02235174447,-187500.02235174447,1730654134.7855053,1730654134.6711574,3000
29258.679361185958,-92456.2698550546,23068.028458121837,-185707.4795016622,-187500.02235174447,-187500.02235174447,-187500.02235174447,-187500.02235174447,1730654134.789384,1730654134.6711574,3000
29310.60246355563,-92443.46230548172,23079.494903027404,-185698.4941003912,-187500.02235174447,-187500.02235174447,-187500.02235174447,-187500.02235174447,1730654134.793538,1730654134.6711574,3000
29289.413009812,-92458.79560217806,23079.316089071763,-185717.49308317815,-187500.02235174447,-187500.02235174447,-187500.02235174447,-187500.02235174447,1730654134.798364,1730654134.6711574,3000
29231.678453883946,-92487.71875950324,23072.96819364645,-185747.77969691512,-187500.02235174447,-187500.02235174447,-187500.02235174447,-187500.02235174447,1730654134.8015137,1730654134.6711574,3000
29276.337239305645,-92482.5331547896,23106.942845218524,-185745.36570851397,-187500.02235174447,-187500.02235174447,-187500.02235174447,-187500.02235174447,1730654134.8052626,1730654134.6711574,3000
29300.52182680629,-92463.04243362456,23102.137220160632,-185728.22192051672,-187500.02235174447,-187500.02235174447,-187500.02235174447,-187500.02235174447,1730654134.8095193,1730654134.6711574,3000
29296.923195948984,-92471.67020698432,23100.61730153767,-185736.87204562093,-187500.02235174447,-187500.02235174447,-187500.02235174447,-187500.02235174447,1730654134.8135464,1730654134.6711574,3000
29266.703637445407,-92494.96072470676,23086.625109508648,-185760.31902555452,-187500.02235174447,-187500.02235174447,-187500.02235174447,-187500.02235174447,1730654134.817599,1730654134.6711574,3000
29292.67636450248,-92472.65368374034,23082.37827806214,-185739.35308925548,-187500.02235174447,-187500.02235174447,-187500.02235174447,-187500.02235174447,1730654134.8215945,1730654134.6711574,3000
29277.83480618415,-92486.75763449165,23101.75724050489,-185755.6251592189,-187500.02235174447,-187500.02235174447,-187500.02235174447,-187500.02235174447,1730654134.8266172,1730654134.6711574,3000
29305.88624547556,-92491.49620431616,23108.552170819305,-185763.20240058927,-187500.02235174447,-187500.02235174447,-187500.02235174447,-187500.02235174447,1730654134.8295832,1730654134.6711574,3000
29359.3292664682,-92502.582669566,23100.952577704506,-185777.52986878515,-187500.02235174447,-187500.02235174447,-187500.02235174447,-187500.02235174447,1730654134.8335984,1730654134.6711574,3000
29295.336222092657,-92501.37567536542,23102.941882961022,-185781.352017087,-187500.02235174447,-187500.02235174447,-187500.02235174447,-187500.02235174447,1730654134.8375711,1730654134.6711574,3000
29245.31301800168,-92485.46123331324,23091.877769455645,-185770.80199370408,-187500.02235174447,-187500.02235174447,-187500.02235174447,-187500.02235174447,1730654134.8416264,1730654134.6711574,3000
29336.731652823884,-92475.06767214152,23063.692219697503,-185763.60473198947,-187500.02235174447,-187500.02235174447,-187500.02235174447,-187500.02235174447,1730654134.845413,1730654134.6711574,3000
29345.04650176126,-92467.4233755378,23094.04588866781,-185758.88851390945,-187500.02235174447,-187500.02235174447,-187500.02235174447,-187500.02235174447,1730654134.8495555,1730654134.6711574,3000
29299.47129481689,-92477.74988147616,23088.70382174299,-185771.94193267133,-187500.02235174447,-187500.02235174447,-187500.02235174447,-187500.02235174447,1730654134.8545792,1730654134.6711574,3000
29309.4178210995,-92463.8247446805,23089.016746165365,-185760.9001709104,-187500.02235174447,-187500.02235174447,-187500.02235174447,-187500.02235174447,1730654134.8573864,1730654134.6711574,3000
29279.5111870183,-92467.95981740471,23128.042891984333,-185767.8962669249,-187500.02235174447,-187500.02235174447,-187500.02235174447,-187500.02235174447,1730654134.8605072,1730654134.6711574,3000
29173.76508400024,-92484.12012864593,23112.039042954333,-185789.353941602,-187500.02235174447,-187500.02235174447,-187500.02235174447,-187500.02235174447,1730654134.8654544,1730654134.6711574,3000
29198.93314825692,-92496.34653286295,23112.19550516552,-185806.0506947101,-187500.02235174447,-187500.02235174447,-187500.02235174447,-187500.02235174447,1730654134.869458,1730654134.6711574,3000
29300.477123317374,-92490.11039615994,23130.68039783006,-185803.39083711992,-187500.02235174447,-187500.02235174447,-187500.02235174447,-187500.02235174447,1730654134.8735013,1730654134.6711574,3000
29335.90463827904,-92497.15119566336,23109.021557452867,-185814.38789539196,-187500.02235174447,-187500.02235174447,-187500.02235174447,-187500.02235174447,1730654134.8776848,1730654134.6711574,3000
29311.27301588929,-92513.42326562684,23067.447312765995,-185834.14683749044,-187500.02235174447,-187500.02235174447,-187500.02235174447,-187500.02235174447,1730654134.8814552,1730654134.6711574,3000
29358.03286528979,-92483.44957631224,23092.458914811483,-185808.4423313668,-187500.02235174447,-187500.02235174447,-187500.02235174447,-187500.02235174447,1730654134.8855276,1730654134.6711574,3000
29345.694702350465,-92488.4787188147,23101.265502126877,-185818.4112093939,-187500.02235174447,-187500.02235174447,-187500.02235174447,-187500.02235174447,1730654134.8886971,1730654134.6711574,3000
29371.66742940753,-92485.26006761314,23105.3558713622,-185819.64055533893,-187500.02235174447,-187500.02235174447,-187500.02235174447,-187500.02235174447,1730654134.8936672,1730654134.6711574,3000
29355.19419374397,-92488.21049788124,23140.068130501288,-185824.98262226372,-187500.02235174447,-187500.02235174447,-187500.02235174447,-187500.02235174447,1730654134.8975737,1730654134.6711574,3000
29143.322008052117,-92514.74201854967,23122.61141808169,-185853.12346853295,-187500.02235174447,-187500.02235174447,-187500.02235174447,-187500.02235174447,1730654134.9017272,1730654134.6711574,3000
29230.851439339094,-92494.22311713971,23091.497789799905,-185835.21972122428,-187500.02235174447,-187500.02235174447,-187500.02235174447,-187500.02235174447,1730654134.9054177,1730654134.6711574,3000
29291.357611579613,-92486.62352402492,23105.57938880675,-185830.77172407767,-187500.02235174447,-187500.02235174447,-187500.02235174447,-187500.02235174447,1730654134.9086516,1730654134.6711574,3000
29245.35772149059,-92504.90725098936,23075.76216170337,-185854.3304627336,-187500.02235174447,-187500.02235174447,-187500.02235174447,-187500.02235174447,1730654134.9126835,1730654134.6711574,3000
29310.04366994425,-92475.84998319746,23117.582275579247,-185829.22945371023,-187500.02235174447,-187500.02235174447,-187500.02235174447,-187500.02235174447,1730654134.916669,1730654134.6711574,3000
29369.320496239725,-92476.74405297569,23088.77087697636,-185834.6609276129,-187500.02235174447,-187500.02235174447,-187500.02235174447,-187500.02235174447,1730654134.9206502,1730654134.6711574,3000
29370.639249162585,-92493.01612293914,23117.42581336806,-185856.87856160148,-187500.02235174447,-187500.02235174447,-187500.02235174447,-187500.02235174447,1730654134.9258,1730654134.6711574,3000
29286.999021410826,-92487.3834833364,23205.40227954415,-185854.53162843367,-187500.02235174447,-187500.02235174447,-187500.02235174447,-187500.02235174447,1730654134.9297187,1730654134.6711574,3000
29230.560866661177,-92506.96361147924,23147.220688726982,-185873.9329426209,-187500.02235174447,-187500.02235174447,-187500.02235174447,-187500.02235174447,1730654134.9337351,1730654134.6711574,3000
29259.729893175358,-92529.65063210136,23080.2995658278,-185894.29538181963,-187500.02235174447,-187500.02235174447,-187500.02235174447,-187500.02235174447,1730654134.936698,1730654134.6711574,3000
29186.4385231064,-92522.00633549766,23098.270368369864,-185885.24292531525,-187500.02235174447,-187500.02235174447,-187500.02235174447,-187500.02235174447,1730654134.940725,1730654134.6711574,3000
29264.78138742225,-92501.7780067656,23097.37629859165,-185867.2944745177,-187500.02235174447,-187500.02235174447,-187500.02235174447,-187500.02235174447,1730654134.9447162,1730654134.6711574,3000
29403.161037345057,-92492.77025375012,23077.349135559696,-185863.0476430712,-187500.02235174447,-187500.02235174447,-187500.02235174447,-187500.02235174447,1730654134.949716,1730654134.6711574,3000
29448.98211347844,-92471.42433779532,23148.62884862767,-185846.35088996304,-187500.02235174447,-187500.02235174447,-187500.02235174447,-187500.02235174447,1730654134.9537616,1730654134.6711574,3000
29344.443004660967,-92488.99280893718,23164.319773235296,-185867.9203233624,-187500.02235174447,-187500.02235174447,-187500.02235174447,-187500.02235174447,1730654134.957768,1730654134.6711574,3000
29216.859247310076,-92505.86837600092,23126.14299370563,-185890.09325386203,-187500.02235174447,-187500.02235174447,-187500.02235174447,-187500.02235174447,1730654134.9618084,1730654134.6711574,3000
29245.380073235046,-92512.19391968178,23108.149839419108,-185899.99507665576,-187500.02235174447,-187500.02235174447,-187500.02235174447,-187500.02235174447,1730654134.964547,1730654134.6711574,3000
29259.729893175358,-92487.0258554251,23137.25181069992,-185876.1234135775,-187500.02235174447,-187500.02235174447,-187500.02235174447,-187500.02235174447,1730654134.9687784,1730654134.6711574,3000
29357.876403078608,-92482.1755268783,23114.05069995531,-185874.2235152988,-187500.02235174447,-187500.02235174447,-187500.02235174447,-187500.02235174447,1730654134.9725444,1730654134.6711574,3000
29385.25729003636,-92486.95880019174,23157.502491176427,-185881.30901829115,-187500.02235174447,-187500.02235174447,-187500.02235174447,-187500.02235174447,1730654134.9766147,1730654134.6711574,3000
29313.351728123635,-92481.03558791109,23132.73675831995,-185874.7152536768,-187500.02235174447,-187500.02235174447,-187500.02235174447,-187500.02235174447,1730654134.981592,1730654134.6711574,3000
29300.65593727302,-92479.8732971994,23145.87958405967,-185876.0787100886,-187500.02235174447,-187500.02235174447,-187500.02235174447,-187500.02235174447,1730654134.9857922,1730654134.6711574,3000
29254.812509395186,-92477.2804948426,23172.34404949475,-185875.9669513663,-187500.02235174447,-187500.02235174447,-187500.02235174447,-187500.02235174447,1730654134.9895675,1730654134.6711574,3000
29203.627014592534,-92507.85768125746,23048.02364683433,-185908.0640564041,-187500.02235174447,-187500.02235174447,-187500.02235174447,-187500.02235174447,1730654134.9926128,1730654134.6711574,3000
29239.54626793221,-92487.6293525254,23049.744731157392,-185891.367303296,-187500.02235174447,-187500.02235174447,-187500.02235174447,-187500.02235174447,1730654134.996682,1730654134.6711574,3000
29290.195320867937,-92464.56235224752,23102.96423470548,-185871.7871751532,-187500.02235174447,-187500.02235174447,-187500.02235174447,-187500.02235174447,1730654135.0007057,1730654134.6711574,3000
29384.67614468052,-92445.58572120496,23189.77841016989,-185854.8222011116,-187500.02235174447,-187500.02235174447,-187500.02235174447,-187500.02235174447,1730654135.0047927,1730654134.6711574,3000
29469.16573872158,-92463.35535804696,23181.150636810144,-185874.5587914656,-187500.02235174447,-187500.02235174447,-187500.02235174447,-187500.02235174447,1730654135.0097115,1730654134.6711574,3000
29373.29910675277,-92480.36503557744,23141.96802877999,-185894.45184403085,-187500.02235174447,-187500.02235174447,-187500.02235174447,-187500.02235174447,1730654135.0136256,1730654134.6711574,3000
29220.614340378565,-92481.7284919892,23110.96615922048,-185898.4304545439,-187500.02235174447,-187500.02235174447,-187500.02235174447,-187500.02235174447,1730654135.0168183,1730654134.6711574,3000
29212.478305396835,-92476.74405297569,23109.222723152965,-185896.50820452077,-187500.02235174447,-187500.02235174447,-187500.02235174447,-187500.02235174447,1730654135.0207613,1730654134.6711574,3000
29273.945602648928,-92463.31065455802,23108.9545022195,-185885.75701543773,-187500.02235174447,-187500.02235174447,-187500.02235174447,-187500.02235174447,1730654135.0246797,1730654134.6711574,3000
29570.3297341263,-92452.8723898974,23078.399667549096,-185877.1962973113,-187500.02235174447,-187500.02235174447,-187500.02235174447,-187500.02235174447,1730654135.0286767,1730654134.6711574,3000
29497.2618815019,-92470.39615755036,23204.172933599108,-185895.94941090932,-187500.02235174447,-187500.02235174447,-187500.02235174447,-187500.02235174447,1730654135.0327532,1730654134.6711574,3000
29044.32613185956,-92496.41358809634,23246.21656491954,-185923.129132167,-187500.02235174447,-187500.02235174447,-187500.02235174447,-187500.02235174447,1730654135.037806,1730654134.6711574,3000
29050.18228890685,-92471.67020698432,23087.29566184231,-185900.0844836336,-187500.02235174447,-187500.02235174447,-187500.02235174447,-187500.02235174447,1730654135.0417497,1730654134.6711574,3000
29389.66058369405,-92454.079384098,23028.26470473584,-185886.04758811565,-187500.02235174447,-187500.02235174447,-187500.02235174447,-187500.02235174447,1730654135.0447528,1730654134.6711574,3000
29451.463157112976,-92442.5682357035,23214.387680815184,-185874.5364397212,-187500.02235174447,-187500.02235174447,-187500.02235174447,-187500.02235174447,1730654135.0487115,1730654134.6711574,3000
29357.36231295613,-92492.6361432834,23183.94460486705,-185921.7433240108,-187500.02235174447,-187500.02235174447,-187500.02235174447,-187500.02235174447,1730654135.052729,1730654134.6711574,3000
29353.33899895418,-92495.40775959584,23086.178074619544,-185924.8725682345,-187500.02235174447,-187500.02235174447,-187500.02235174447,-187500.02235174447,1730654135.0566912,1730654134.6711574,3000
28990.41372423336,-92499.1852044088,23221.249666362964,-185930.05817294816,-187500.02235174447,-187500.02235174447,-187500.02235174447,-187500.02235174447,1730654135.0607307,1730654134.6711574,3000
29040.45928006879,-92514.63025982742,23209.805573201844,-185945.4361731334,-187500.02235174447,-187500.02235174447,-187500.02235174447,-187500.02235174447,1730654135.0647478,1730654134.6711574,3000
29393.035697106803,-92533.5398356366,23098.60564453669,-185963.76460358675,-187500.02235174447,-187500.02235174447,-187500.02235174447,-187500.02235174447,1730654135.0698752,1730654134.6711574,3000
29382.64213593509,-92506.56128007904,23087.85445545369,-185939.2000364304,-187500.02235174447,-187500.02235174447,-187500.02235174447,-187500.02235174447,1730654135.0727117,1730654134.6711574,3000
29109.88379834697,-92513.44561737128,23151.82514808478,-185950.55472261368,-187500.02235174447,-187500.02235174447,-187500.02235174447,-187500.02235174447,1730654135.0768175,1730654134.6711574,3000
29101.61365289851,-92517.82655928451,23098.404478836597,-185958.8919232955,-187500.02235174447,-187500.02235174447,-187500.02235174447,-187500.02235174447,1730654135.0807364,1730654134.6711574,3000
29366.593583416176,-92522.85570178696,23042.100434553675,-185968.39141468905,-187500.02235174447,-187500.02235174447,-187500.02235174447,-187500.02235174447,1730654135.0849042,1730654134.6711574,3000
29407.094944369197,-92510.56224233654,23160.229403999976,-185959.9424552849,-187500.02235174447,-187500.02235174447,-187500.02235174447,-187500.02235174447,1730654135.088725,1730654134.6711574,3000
29297.414934327,-92488.76929149262,23212.68894823658,-185940.5411410977,-187500.02235174447,-187500.02235174447,-187500.02235174447,-187500.02235174447,1730654135.093979,1730654134.6711574,3000
29095.84690282904,-92509.44465511378,23224.55772454235,-185965.2398187208,-187500.02235174447,-187500.02235174447,-187500.02235174447,-187500.02235174447,1730654135.0969694,1730654134.6711574,3000
28941.39634864287,-92563.62528367343,23162.419874956595,-186023.1531886045,-187500.02235174447,-187500.02235174447,-187500.02235174447,-187500.02235174447,1730654135.0998304,1730654134.6711574,3000
29076.04325724164,-92557.83618185951,23091.34132758872,-186019.84513042512,-187500.02235174447,-187500.02235174447,-187500.02235174447,-187500.02235174447,1730654135.1048496,1730654134.6711574,3000
29279.824111440677,-92532.8916350474,23080.0984001277,-185997.2922202697,-187500.02235174447,-187500.02235174447,-187500.02235174447,-187500.02235174447,1730654135.1089034,1730654134.6711574,3000
29314.245797901847,-92510.15991093636,23069.97305988945,-185978.22618224932,-187500.02235174447,-187500.02235174447,-187500.02235174447,-187500.02235174447,1730654135.11299,1730654134.6711574,3000
29360.893888580074,-92493.46315782824,23056.18203356052,-185965.68685360992,-187500.02235174447,-187500.02235174447,-187500.02235174447,-187500.02235174447,1730654135.116976,1730654134.6711574,3000
29617.827191093827,-92465.07644237,23168.09721804824,-185943.2457021768,-187500.02235174447,-187500.02235174447,-187500.02235174447,-187500.02235174447,1730654135.1209617,1730654134.6711574,3000
29391.493426739387,-92491.6750182718,23251.7374458,-185974.9628275589,-187500.02235174447,-187500.02235174447,-187500.02235174447,-187500.02235174447,1730654135.124982,1730654134.6711574,3000
28875.95044087773,-92530.96938502423,23215.68408199359,-186019.57690949165,-187500.02235174447,-187500.02235174447,-187500.02235174447,-187500.02235174447,1730654135.1279795,1730654134.6711574,3000
28879.414961268303,-92526.65549834436,23108.596874308216,-186018.97341239135,-187500.02235174447,-187500.02235174447,-187500.02235174447,-187500.02235174447,1730654135.1330063,1730654134.6711574,3000
29101.39013545396,-92499.54283232008,23107.702804530003,-185994.76647314627,-187500.02235174447,-187500.02235174447,-187500.02235174447,-187500.02235174447,1730654135.1368446,1730654134.6711574,3000
29299.404239583524,-92481.16969837782,23086.22277810845,-185979.47787993884,-187500.02235174447,-187500.02235174447,-187500.02235174447,-187500.02235174447,1730654135.1408925,1730654134.6711574,3000
29235.99234056382,-92499.0287421976,23144.471424158983,-186001.87432788307,-187500.02235174447,-187500.02235174447,-187500.02235174447,-187500.02235174447,1730654135.1449337,1730654134.6711574,3000
29174.837967734096,-92512.8868237599,23134.077862987266,-186019.08517111363,-187500.02235174447,-187500.02235174447,-187500.02235174447,-187500.02235174447,1730654135.1489167,1730654134.6711574,3000
29255.952448362405,-92505.68956204529,23083.60762400718,-186013.3631245331,-187500.02235174447,-187500.02235174447,-187500.02235174447,-187500.02235174447,1730654135.1528869,1730654134.6711574,3000
29344.934743038983,-92495.40775959584,23200.842523675263,-186006.2552697963,-187500.02235174447,-187500.02235174447,-187500.02235174447,-187500.02235174447,1730654135.1558485,1730654134.6711574,3000
29072.7128473178,-92506.91890799032,23202.518904509416,-186022.1026566151,-187500.02235174447,-187500.02235174447,-187500.02235174447,-187500.02235174447,1730654135.1608305,1730654134.6711574,3000
28938.02123523012,-92526.45433264428,23112.441374354526,-186046.46605807135,-187500.02235174447,-187500.02235174447,-187500.02235174447,-187500.02235174447,1730654135.1649573,1730654134.6711574,3000
29233.421889951456,-92478.75570997664,23107.121659174165,-186003.7518744173,-187500.02235174447,-187500.02235174447,-187500.02235174447,-187500.02235174447,1730654135.1688907,1730654134.6711574,3000
29358.323437967712,-92451.03954685206,23117.51522034588,-185980.28254273924,-187500.02235174447,-187500.02235174447,-187500.02235174447,-187500.02235174447,1730654135.1749556,1730654134.6711574,3000
29138.15875508294,-92490.3786170934,23194.78520092788,-186022.6167467376,-187500.02235174447,-187500.02235174447,-187500.02235174447,-187500.02235174447,1730654135.1780567,1730654134.6711574,3000
28981.07069505104,-92480.72266348872,23199.97080564151,-186015.1065606006,-187500.02235174447,-187500.02235174447,-187500.02235174447,-187500.02235174447,1730654135.1809154,1730654134.6711574,3000
29185.70091553937,-92498.29113463058,23058.976001617437,-186034.79844746573,-187500.02235174447,-187500.02235174447,-187500.02235174447,-187500.02235174447,1730654135.18408,1730654134.6711574,3000
29390.95698487246,-92484.20953562374,23087.206254864486,-186021.9685461484,-187500.02235174447,-187500.02235174447,-187500.02235174447,-187500.02235174447,1730654135.190158,1730654134.6711574,3000
29282.551024264223,-92482.6225617674,23123.23726692644,-186022.3485258041,-187500.02235174447,-187500.02235174447,-187500.02235174447,-187500.02235174447,1730654135.1928844,1730654134.6711574,3000
29250.61038143759,-92493.7313787617,23174.13218905117,-186034.23965385437,-187500.02235174447,-187500.02235174447,-187500.02235174447,-187500.02235174447,1730654135.1969385,1730654134.6711574,3000
29248.73283490334,-92506.91890799032,23143.80087182532,-186048.74593600584,-187500.02235174447,-187500.02235174447,-187500.02235174447,-187500.02235174447,1730654135.201049,1730654134.6711574,3000
28999.108552826478,-92520.21819594124,23167.58312792577,-186066.9626077369,-187500.02235174447,-187500.02235174447,-187500.02235174447,-187500.02235174447,1730654135.2039948,1730654134.6711574,3000
28976.443883948792,-92512.95387899328,23193.06411660482,-186065.80031702525,-187500.02235174447,-187500.02235174447,-187500.02235174447,-187500.02235174447,1730654135.208094,1730654134.6711574,3000
29043.78968999263,-92514.1832249383,23198.517942251918,-186071.2094391834,-187500.02235174447,-187500.02235174447,-187500.02235174447,-187500.02235174447,1730654135.2118976,1730654134.6711574,3000
29087.08501900256,-92519.27942267412,23062.194652819,-186078.0714247312,-187500.02235174447,-187500.02235174447,-187500.02235174447,-187500.02235174447,1730654135.2160149,1730654134.6711574,3000
29311.250664144834,-92479.98505592169,23022.095623266177,-186041.61572952455,-187500.02235174447,-187500.02235174447,-187500.02235174447,-187500.02235174447,1730654135.2210047,1730654134.6711574,3000
29454.54769784781,-92481.25910535564,23145.924287548576,-186044.72262200387,-187500.02235174447,-187500.02235174447,-187500.02235174447,-187500.02235174447,1730654135.225013,1730654134.6711574,3000
29226.649311381498,-92493.99959969516,23238.84048924929,-186060.14532567805,-187500.02235174447,-187500.02235174447,-187500.02235174447,-187500.02235174447,1730654135.2290592,1730654134.6711574,3000
28995.4428667358,-92514.80907378304,23187.565587468816,-186086.34157017968,-187500.02235174447,-187500.02235174447,-187500.02235174447,-187500.02235174447,1730654135.2319715,1730654134.6711574,3000
29100.76428660921,-92492.94906770576,23099.834990481733,-186067.655511815,-187500.02235174447,-187500.02235174447,-187500.02235174447,-187500.02235174447,1730654135.2358837,1730654134.6711574,3000
29108.453286701835,-92451.12895382987,23149.411159683605,-186030.03752589677,-187500.02235174447,-187500.02235174447,-187500.02235174447,-187500.02235174447,1730654135.2399328,1730654134.6711574,3000
29140.684502206383,-92456.9180556438,23138.50350838941,-186039.6040725236,-187500.02235174447,-187500.02235174447,-187500.02235174447,-187500.02235174447,1730654135.2440305,1730654134.6711574,3000
29199.491941868306,-92496.74886426317,23094.24705436791,-186081.11126197712,-187500.02235174447,-187500.02235174447,-187500.02235174447,-187500.02235174447,1730654135.248983,1730654134.6711574,3000
29232.103137028596,-92486.5341170471,23118.05166221281,-186071.50001186127,-187500.02235174447,-187500.02235174447,-187500.02235174447,-187500.02235174447,1730654135.2529898,1730654134.6711574,3000
29315.22927465788,-92478.576896021,23136.715368832996,-186063.05105245725,-187500.02235174447,-187500.02235174447,-187500.02235174447,-187500.02235174447,1730654135.256997,1730654134.6711574,3000
29205.5939681046,-92506.42716961232,23181.44120948806,-186089.31435219225,-187500.02235174447,-187500.02235174447,-187500.02235174447,-187500.02235174447,1730654135.2600029,1730654134.6711574,3000
29027.78584096263,-92537.83137057202,23182.961128111023,-186117.58930892817,-187500.02235174447,-187500.02235174447,-187500.02235174447,-187500.02235174447,1730654135.2639697,1730654134.6711574,3000
29102.44066744336,-92533.3833734254,23061.81467316326,-186111.82255885872,-187500.02235174447,-187500.02235174447,-187500.02235174447,-187500.02235174447,1730654135.268008,1730654134.6711574,3000
29245.62594242405,-92495.1395386624,23138.48115664496,-186072.50584036185,-187500.02235174447,-187500.02235174447,-187500.02235174447,-187500.02235174447,1730654135.2719927,1730654134.6711574,3000
29182.214043404347,-92506.58363182352,23271.339925687305,-186081.9606282664,-187500.02235174447,-187500.02235174447,-187500.02235174447,-187500.02235174447,1730654135.2770848,1730654134.6711574,3000
29350.03094077479,-92488.61282928144,23087.31801358676,-186062.04522395675,-187500.02235174447,-187500.02235174447,-187500.02235174447,-187500.02235174447,1730654135.2810855,1730654134.6711574,3000
29225.44231718091,-92494.96072470676,23104.171228906063,-186067.8119740262,-187500.02235174447,-187500.02235174447,-187500.02235174447,-187500.02235174447,1730654135.285159,1730654134.6711574,3000
29057.31249538809,-92522.27455643112,23204.664671977123,-186094.74582609485,-187500.02235174447,-187500.02235174447,-187500.02235174447,-187500.02235174447,1730654135.2881155,1730654134.6711574,3000
29054.45147209781,-92540.78180084012,23157.94952606553,-186113.56599492623,-187500.02235174447,-187500.02235174447,-187500.02235174447,-187500.02235174447,1730654135.2921584,1730654134.6711574,3000
29164.42205481792,-92531.21525421324,23116.263522656387,-186105.13938726656,-187500.02235174447,-187500.02235174447,-187500.02235174447,-187500.02235174447,1730654135.2960253,1730654134.6711574,3000
29235.92528533045,-92541.67587061832,23140.62692411267,-186116.96346008344,-187500.02235174447,-187500.02235174447,-187500.02235174447,-187500.02235174447,1730654135.3001497,1730654134.6711574,3000
29256.220669295868,-92536.26674846016,23093.42003982306,-186113.72245713745,-187500.02235174447,-187500.02235174447,-187500.02235174447,-187500.02235174447,1730654135.3041613,1730654134.6711574,3000
29195.088648210603,-92544.02280378614,23157.1672150096,-186123.51252120885,-187500.02235174447,-187500.02235174447,-187500.02235174447,-187500.02235174447,1730654135.3092003,1730654134.6711574,3000
29128.81572590062,-92534.32214669252,23180.72595366549,-186114.1247885376,-187500.02235174447,-187500.02235174447,-187500.02235174447,-187500.02235174447,1730654135.3122268,1730654134.6711574,3000
29277.186605594947,-92510.20461442528,23075.56099600327,-186089.9849045259,-187500.02235174447,-187500.02235174447,-187500.02235174447,-187500.02235174447,1730654135.3162584,1730654134.6711574,3000
29135.185973070384,-92514.80907378304,23119.884505258146,-186095.8634133176,-187500.02235174447,-187500.02235174447,-187500.02235174447,-187500.02235174447,1730654135.3202584,1730654134.6711574,3000
29160.77872047171,-92493.79843399506,23164.29742149084,-186078.49610787584,-187500.02235174447,-187500.02235174447,-187500.02235174447,-187500.02235174447,1730654135.3243203,1730654134.6711574,3000
29199.491941868306,-92498.31348637505,23190.426610759096,-186083.99463701184,-187500.02235174447,-187500.02235174447,-187500.02235174447,-187500.02235174447,1730654135.3283005,1730654134.6711574,3000
29035.94422768882,-92543.28519621912,23159.894127833144,-186127.71464916645,-187500.02235174447,-187500.02235174447,-187500.02235174447,-187500.02235174447,1730654135.3323224,1730654134.6711574,3000
29143.791394685675,-92527.81778905603,23096.01284217988,-186111.21906175843,-187500.02235174447,-187500.02235174447,-187500.02235174447,-187500.02235174447,1730654135.3371737,1730654134.6711574,3000
29269.6093642246,-92530.07531524602,23090.491961299416,-186113.20836701491,-187500.02235174447,-187500.02235174447,-187500.02235174447,-187500.02235174447,1730654135.3401964,1730654134.6711574,3000
29150.16164185544,-92545.60977764249,23161.972840067487,-186130.01687884532,-187500.02235174447,-187500.02235174447,-187500.02235174447,-187500.02235174447,1730654135.344335,1730654134.6711574,3000
29155.950743669364,-92542.54758865209,23180.41302924312,-186129.1451608116,-187500.02235174447,-187500.02235174447,-187500.02235174447,-187500.02235174447,1730654135.3481584,1730654134.6711574,3000
29191.065334208648,-92542.7934578411,23129.473403629472,-186132.74379166888,-187500.02235174447,-187500.02235174447,-187500.02235174447,-187500.02235174447,1730654135.354174,1730654134.6711574,3000
29103.938234321864,-92546.63795788742,23126.52297336137,-186139.7175359389,-187500.02235174447,-187500.02235174447,-187500.02235174447,-187500.02235174447,1730654135.3572145,1730654134.6711574,3000
29240.015654565774,-92528.6448036009,23101.265502126877,-186125.4794747209,-187500.02235174447,-187500.02235174447,-187500.02235174447,-187500.02235174447,1730654135.3602023,1730654134.6711574,3000
29270.88341365855,-92534.00922227016,23151.981610295967,-186132.8779021356,-187500.02235174447,-187500.02235174447,-187500.02235174447,-187500.02235174447,1730654135.3652928,1730654134.6711574,3000
29216.7474885878,-92533.6962978478,23153.90386031912,-186135.91773938155,-187500.02235174447,-187500.02235174447,-187500.02235174447,-187500.02235174447,1730654135.3682983,1730654134.6711574,3000
29151.50274652276,-92535.26091995966,23136.38009266616,-186138.8905213941,-187500.02235174447,-187500.02235174447,-187500.02235174447,-187500.02235174447,1730654135.3722374,1730654134.6711574,3000
29182.14698817098,-92528.10836173396,23133.228496697964,-186131.6038527017,-187500.02235174447,-187500.02235174447,-187500.02235174447,-187500.02235174447,1730654135.3763323,1730654134.6711574,3000
29161.270458849725,-92535.57384438204,23137.43062465556,-186142.3326900402,-187500.02235174447,-187500.02235174447,-187500.02235174447,-187500.02235174447,1730654135.3802097,1730654134.6711574,3000
29178.61541254704,-92505.80132076755,23118.76691803538,-186117.0305153168,-187500.02235174447,-187500.02235174447,-187500.02235174447,-187500.02235174447,1730654135.3842075,1730654134.6711574,3000
29291.156445879515,-92511.3892568814,23115.078880200253,-186126.46295147692,-187500.02235174447,-187500.02235174447,-187500.02235174447,-187500.02235174447,1730654135.3883228,1730654134.6711574,3000
29196.899139511486,-92528.77891406762,23224.669483264624,-186147.80886743177,-187500.02235174447,-187500.02235174447,-187500.02235174447,-187500.02235174447,1730654135.3933375,1730654134.6711574,3000
29127.407565999936,-92575.71757742375,23217.11459363873,-186197.92147850056,-187500.02235174447,-187500.02235174447,-187500.02235174447,-187500.02235174447,1730654135.3963675,1730654134.6711574,3000
29178.34719161358,-92553.96933006876,23002.806067801248,-186180.57652480324,-187500.02235174447,-187500.02235174447,-187500.02235174447,-187500.02235174447,1730654135.399393,1730654134.6711574,3000
29193.904005754477,-92503.56614632205,23132.66970308658,-186133.74962016937,-187500.02235174447,-187500.02235174447,-187500.02235174447,-187500.02235174447,1730654135.404358,1730654134.6711574,3000
29155.079025635605,-92539.17247523932,23212.756003469945,-186170.00414967583,-187500.02235174447,-187500.02235174447,-187500.02235174447,-187500.02235174447,1730654135.40839,1730654134.6711574,3000
29174.815615989643,-92547.06264103208,23165.59382266925,-186178.69897826895,-187500.02235174447,-187500.02235174447,-187500.02235174447,-187500.02235174447,1730654135.4124548,1730654134.6711574,3000
29125.68648167688,-92524.77795181012,23119.124545946663,-186159.2976640818,-187500.02235174447,-187500.02235174447,-187500.02235174447,-187500.02235174447,1730654135.4163337,1730654134.6711574,3000
29296.453809315422,-92514.85377727196,23069.90600465608,-186154.3579285572,-187500.02235174447,-187500.02235174447,-187500.02235174447,-187500.02235174447,1730654135.4204242,1730654134.6711574,3000
29398.020136120336,-92521.22402444172,23084.90402518559,-186163.61155076165,-187500.02235174447,-187500.02235174447,-187500.02235174447,-187500.02235174447,1730654135.4232416,1730654134.6711574,3000
29179.889461980994,-92515.81490228354,23180.43538098757,-186160.92934142705,-187500.02235174447,-187500.02235174447,-187500.02235174447,-187500.02235174447,1730654135.4284084,1730654134.6711574,3000
29217.619206621555,-92525.9402425218,23182.469389733003,-186171.90404795457,-187500.02235174447,-187500.02235174447,-187500.02235174447,-187500.02235174447,1730654135.4322834,1730654134.6711574,3000
29177.877804980017,-92576.16461231287,23108.44041209703,-186223.5142259019,-187500.02235174447,-187500.02235174447,-187500.02235174447,-187500.02235174447,1730654135.436286,1730654134.6711574,3000
29216.099287998597,-92552.87409459044,23091.00605142189,-186203.08473146972,-187500.02235174447,-187500.02235174447,-187500.02235174447,-187500.02235174447,1730654135.44027,1730654134.6711574,3000
29248.397558736517,-92543.01697528566,23181.8211891438,-186196.8932982556,-187500.02235174447,-187500.02235174447,-187500.02235174447,-187500.02235174447,1730654135.4464068,1730654134.6711574,3000
29213.282968197225,-92545.29685322008,23174.26629951791,-186202.7941587918,-187500.02235174447,-187500.02235174447,-187500.02235174447,-187500.02235174447,1730654135.4493794,1730654134.6711574,3000
29286.037896399248,-92522.11809421994,23149.20999398351,-186183.86223123816,-187500.02235174447,-187500.02235174447,-187500.02235174447,-187500.02235174447,1730654135.4523077,1730654134.6711574,3000
29210.779572818232,-92519.92762326331,23113.8048307663,-186187.37145511765,-187500.02235174447,-187500.02235174447,-187500.02235174447,-187500.02235174447,1730654135.4563537,1730654134.6711574,3000
29182.839892249096,-92530.3882396684,23100.751412004403,-186202.07890296925,-187500.02235174447,-187500.02235174447,-187500.02235174447,-187500.02235174447,1730654135.4604192,1730654134.6711574,3000
29071.37174265048,-92550.46010618928,23224.7812419869,-186223.02248752388,-187500.02235174447,-187500.02235174447,-187500.02235174447,-187500.02235174447,1730654135.4642713,1730654134.6711574,3000
29006.77520117464,-92532.7351728362,23162.79985461233,-186204.87287102616,-187500.02235174447,-187500.02235174447,-187500.02235174447,-187500.02235174447,1730654135.468429,1730654134.6711574,3000
29146.495955764767,-92562.3512342395,23074.733981458427,-186235.9641475635,-187500.02235174447,-187500.02235174447,-187500.02235174447,-187500.02235174447,1730654135.4723475,1730654134.6711574,3000
29284.89795743203,-92555.42219345836,23121.96321749249,-186231.49379867245,-187500.02235174447,-187500.02235174447,-187500.02235174447,-187500.02235174447,1730654135.476454,1730654134.6711574,3000
29358.993990301373,-92523.25803318716,23133.831993798256,-186203.7552838034,-187500.02235174447,-187500.02235174447,-187500.02235174447,-187500.02235174447,1730654135.479426,1730654134.6711574,3000
29189.947746985883,-92544.71570786426,23180.99417459896,-186229.8174178383,-187500.02235174447,-187500.02235174447,-187500.02235174447,-187500.02235174447,1730654135.4836009,1730654134.6711574,3000
29050.98695170724,-92565.65929241887,23125.62890358316,-186253.89024661665,-187500.02235174447,-187500.02235174447,-187500.02235174447,-187500.02235174447,1730654135.4885724,1730654134.6711574,3000
29135.610656215034,-92523.45919888726,23087.116847886664,-186214.685286842,-187500.02235174447,-187500.02235174447,-187500.02235174447,-187500.02235174447,1730654135.4926028,1730654134.6711574,3000
29228.437450937923,-92501.7333032767,23060.115940584656,-186197.3179814003,-187500.02235174447,-187500.02235174447,-187500.02235174447,-187500.02235174447,1730654135.49658,1730654134.6711574,3000
29162.96919142833,-92515.45727437224,23103.34421436122,-186216.1157984872,-187500.02235174447,-187500.02235174447,-187500.02235174447,-187500.02235174447,1730654135.4993954,1730654134.6711574,3000
29087.39794342493,-92530.7905710686,23135.687188588046,-186235.09242952973,-187500.02235174447,-187500.02235174447,-187500.02235174447,-187500.02235174447,1730654135.5044365,1730654134.6711574,3000
29287.35664932211,-92501.26391664312,23117.224647667965,-186208.4938536279,-187500.02235174447,-187500.02235174447,-187500.02235174447,-187500.02235174447,1730654135.508376,1730654134.6711574,3000
29363.106711281147,-92480.45444255524,23141.565697379792,-186192.75822553135,-187500.02235174447,-187500.02235174447,-187500.02235174447,-187500.02235174447,1730654135.5116873,1730654134.6711574,3000
29241.69203539992,-92480.05211115503,23195.76867768391,-186195.32867614372,-187500.02235174447,-187500.02235174447,-187500.02235174447,-187500.02235174447,1730654135.5155015,1730654134.6711574,3000
29296.386754082057,-92501.33097187652,23151.62398238468,-186217.32279268777,-187500.02235174447,-187500.02235174447,-187500.02235174447,-187500.02235174447,1730654135.520675,1730654134.6711574,3000
29201.570654102645,-92532.35519318048,23115.280045900352,-186250.4257262261,-187500.02235174447,-187500.02235174447,-187500.02235174447,-187500.02235174447,1730654135.5247242,1730654134.6711574,3000
29151.21217384484,-92542.72640260772,23129.04872048482,-186261.6015984537,-187500.02235174447,-187500.02235174447,-187500.02235174447,-187500.02235174447,1730654135.5276797,1730654134.6711574,3000
29154.38612155749,-92531.01408851316,23167.98545932597,-186251.8115343823,-187500.02235174447,-187500.02235174447,-187500.02235174447,-187500.02235174447,1730654135.5314507,1730654134.6711574,3000
29116.455211216835,-92531.2376059577,23138.570563622783,-186255.45486872853,-187500.02235174447,-187500.02235174447,-187500.02235174447,-187500.02235174447,1730654135.5357156,1730654134.6711574,3000
29156.844813447573,-92568.58737094252,23130.6580460856,-186294.1680901251,-187500.02235174447,-187500.02235174447,-187500.02235174447,-187500.02235174447,1730654135.539472,1730654134.6711574,3000
29225.68818636992,-92568.9449988538,23100.371432348664,-186295.978581426,-187500.02235174447,-187500.02235174447,-187500.02235174447,-187500.02235174447,1730654135.543728,1730654134.6711574,3000
29277.812454439696,-92531.14819897988,23077.41619079306,-186255.99131059545,-187500.02235174447,-187500.02235174447,-187500.02235174447,-187500.02235174447,1730654135.5485485,1730654134.6711574,3000
29258.23232629685,-92543.86634157496,23138.749377578424,-186268.12830783468,-187500.02235174447,-187500.02235174447,-187500.02235174447,-187500.02235174447,1730654135.552683,1730654134.6711574,3000
29155.928391924903,-92567.2015627863,23143.24207821394,-186291.64234300164,-187500.02235174447,-187500.02235174447,-187500.02235174447,-187500.02235174447,1730654135.5556116,1730654134.6711574,3000
29209.05848849517,-92568.16268779789,23120.063319213787,-186294.14573838064,-187500.02235174447,-187500.02235174447,-187500.02235174447,-187500.02235174447,1730654135.5596278,1730654134.6711574,3000
29184.046886449683,-92549.76720211116,23148.226517227475,-186278.3430550508,-187500.02235174447,-187500.02235174447,-187500.02235174447,-187500.02235174447,1730654135.563457,1730654134.6711574,3000
29152.799147701164,-92553.65640564638,23163.246889501443,-186284.44508128703,-187500.02235174447,-187500.02235174447,-187500.02235174447,-187500.02235174447,1730654135.567522,1730654134.6711574,3000
29269.542308991236,-92547.77789685463,23145.8125288263,-186278.6783312176,-187500.02235174447,-187500.02235174447,-187500.02235174447,-187500.02235174447,1730654135.5715575,1730654134.6711574,3000
29284.31681207619,-92578.71271118078,23112.7542987769,-186309.9260699661,-187500.02235174447,-187500.02235174447,-187500.02235174447,-187500.02235174447,1730654135.5765269,1730654134.6711574,3000
29161.33751408309,-92586.2005455733,23154.93204056407,-186315.98339271348,-187500.02235174447,-187500.02235174447,-187500.02235174447,-187500.02235174447,1730654135.580732,1730654134.6711574,3000
29136.90705739344,-92580.85847864849,23137.20710721101,-186308.0932269208,-187500.02235174447,-187500.02235174447,-187500.02235174447,-187500.02235174447,1730654135.5836868,1730654134.6711574,3000
29268.000038623817,-92570.8001936436,23088.18973162052,-186296.00093317044,-187500.02235174447,-187500.02235174447,-187500.02235174447,-187500.02235174447,1730654135.5876913,1730654134.6711574,3000
29238.294570242717,-92599.11985386848,23082.445333295505,-186323.2924131504,-187500.02235174447,-187500.02235174447,-187500.02235174447,-187500.02235174447,1730654135.59152,1730654134.6711574,3000
29157.00127565876,-92621.65041227944,23156.38490395366,-186344.973605272,-187500.02235174447,-187500.02235174447,-187500.02235174447,-187500.02235174447,1730654135.595723,1730654134.6711574,3000
29281.254623085813,-92604.84190044904,23186.269186290407,-186330.3332126538,-187500.02235174447,-187500.02235174447,-187500.02235174447,-187500.02235174447,1730654135.5996597,1730654134.6711574,3000
29274.146768349023,-92598.89633642392,23125.785365794345,-186324.41000037317,-187500.02235174447,-187500.02235174447,-187500.02235174447,-187500.02235174447,1730654135.6046636,1730654134.6711574,3000
29221.575465390142,-92612.41914181938,23110.96615922048,-186339.36331741372,-187500.02235174447,-187500.02235174447,-187500.02235174447,-187500.02235174447,1730654135.607679,1730654134.6711574,3000
29272.17981483696,-92638.50362759872,23143.57735438077,-186371.12514628476,-187500.02235174447,-187500.02235174447,-187500.02235174447,-187500.02235174447,1730654135.611688,1730654134.6711574,3000
29011.11143959897,-92671.24893322575,23149.63467712816,-186406.77617869093,-187500.02235174447,-187500.02235174447,-187500.02235174447,-187500.02235174447,1730654135.6158023,1730654134.6711574,3000
29084.402809667925,-92621.53865355716,23107.47928708545,-186359.09990776776,-187500.02235174447,-187500.02235174447,-187500.02235174447,-187500.02235174447,1730654135.6198134,1730654134.6711574,3000
29232.907799828983,-92627.10423792653,23139.263467700897,-186365.31369272637,-187500.02235174447,-187500.02235174447,-187500.02235174447,-187500.02235174447,1730654135.6236265,1730654134.6711574,3000
29199.98368024632,-92642.88456951197,23141.96802877999,-186383.35155050177,-187500.02235174447,-187500.02235174447,-187500.02235174447,-187500.02235174447,1730654135.6277535,1730654134.6711574,3000
29200.38601164651,-92623.37149660249,23088.636766509622,-186365.3807479597,-187500.02235174447,-187500.02235174447,-187500.02235174447,-187500.02235174447,1730654135.6315992,1730654134.6711574,3000
29256.17596580696,-92630.34524087254,23097.085725913734,-186372.0192160629,-187500.02235174447,-187500.02235174447,-187500.02235174447,-187500.02235174447,1730654135.6357684,1730654134.6711574,3000
29257.494718729824,-92628.9147292274,23143.979685780967,-186371.81805036284,-187500.02235174447,-187500.02235174447,-187500.02235174447,-187500.02235174447,1730654135.6385777,1730654134.6711574,3000
29283.132169620058,-92627.43951409336,23140.783386323856,-186370.85692535125,-187500.02235174447,-187500.02235174447,-187500.02235174447,-187500.02235174447,1730654135.6438096,1730654134.6711574,3000
29179.82240674763,-92643.64452882344,23143.46559565849,-186387.59838194828,-187500.02235174447,-187500.02235174447,-187500.02235174447,-187500.02235174447,1730654135.6476257,1730654134.6711574,3000
29176.82727299062,-92653.88162778398,23116.844668012225,-186399.17658557612,-187500.02235174447,-187500.02235174447,-187500.02235174447,-187500.02235174447,1730654135.6517963,1730654134.6711574,3000
29180.403552103468,-92655.2674359402,23144.404368925618,-186403.244603067,-187500.02235174447,-187500.02235174447,-187500.02235174447,-187500.02235174447,1730654135.6556642,1730654134.6711574,3000
29215.45108740939,-92653.8145725506,23128.37816815116,-186404.58570773437,-187500.02235174447,-187500.02235174447,-187500.02235174447,-187500.02235174447,1730654135.6598363,1730654134.6711574,3000
29246.050625568703,-92666.2197907233,23097.085725913734,-186419.27080384147,-187500.02235174447,-187500.02235174447,-187500.02235174447,-187500.02235174447,1730654135.6636517,1730654134.6711574,3000
29222.536590401724,-92667.91852330192,23137.587086866748,-186425.5516440334,-187500.02235174447,-187500.02235174447,-187500.02235174447,-187500.02235174447,1730654135.666823,1730654134.6711574,3000
29156.978923914307,-92652.98755800576,23205.558741755336,-186414.6216409948,-187500.02235174447,-187500.02235174447,-187500.02235174447,-187500.02235174447,1730654135.6708248,1730654134.6711574,3000
29103.312385477115,-92660.87772379848,23133.74258682044,-186423.8082079659,-187500.02235174447,-187500.02235174447,-187500.02235174447,-187500.02235174447,1730654135.675747,1730654134.6711574,3000
29194.462799365858,-92646.95258700284,23078.578481504737,-186412.0064868935,-187500.02235174447,-187500.02235174447,-187500.02235174447,-187500.02235174447,1730654135.6798608,1730654134.6711574,3000
29229.44327943841,-92632.04397345116,23118.655159313104,-186398.26016405347,-187500.02235174447,-187500.02235174447,-187500.02235174447,-187500.02235174447,1730654135.6836622,1730654134.6711574,3000
29249.023407581262,-92633.58624381856,23182.514093221915,-186400.0930070988,-187500.02235174447,-187500.02235174447,-187500.02235174447,-187500.02235174447,1730654135.6886415,1730654134.6711574,3000
29187.086723695604,-92670.55602914764,23148.91942130559,-186438.64976628424,-187500.02235174447,-187500.02235174447,-187500.02235174447,-187500.02235174447,1730654135.6917784,1730654134.6711574,3000
29231.90197132849,-92658.46373539732,23077.46089428197,-186431.78778073643,-187500.02235174447,-187500.02235174447,-187500.02235174447,-187500.02235174447,1730654135.6947515,1730654134.6711574,3000
29301.70646926242,-92670.35486344752,23089.441429310016,-186447.8139815109,-187500.02235174447,-187500.02235174447,-187500.02235174447,-187500.02235174447,1730654135.6998067,1730654134.6711574,3000
29229.77855560524,-92650.93119751588,23111.502601087406,-186431.47485631405,-187500.02235174447,-187500.02235174447,-187500.02235174447,-187500.02235174447,1730654135.704056,1730654134.6711574,3000
29215.80871532068,-92619.4599413228,23185.10689557873,-186400.58474547684,-187500.02235174447,-187500.02235174447,-187500.02235174447,-187500.02235174447,1730654135.707825,1730654134.6711574,3000
29140.19276382837,-92627.19364490434,23155.401427197627,-186408.63137348075,-187500.02235174447,-187500.02235174447,-187500.02235174447,-187500.02235174447,1730654135.711718,1730654134.6711574,3000
29103.111219777016,-92632.13338042896,23132.91557227559,-186413.72757121656,-187500.02235174447,-187500.02235174447,-187500.02235174447,-187500.02235174447,1730654135.714688,1730654134.6711574,3000
29198.84374127909,-92618.72233375578,23150.34993295073,-186400.0706553544,-187500.02235174447,-187500.02235174447,-187500.02235174447,-187500.02235174447,1730654135.71884,1730654134.6711574,3000
29294.86683545909,-92634.50266534122,23097.57746429175,-186416.76740846247,-187500.02235174447,-187500.02235174447,-187500.02235174447,-187500.02235174447,1730654135.7227435,1730654134.6711574,3000
29350.254458219348,-92653.1663719614,23115.54826683381,-186437.28630987243,-187500.02235174447,-187500.02235174447,-187500.02235174447,-187500.02235174447,1730654135.7269893,1730654134.6711574,3000
29204.83400879312,-92627.88654898244,23172.00877332792,-186412.7440944605,-187500.02235174447,-187500.02235174447,-187500.02235174447,-187500.02235174447,1730654135.7317672,1730654134.6711574,3000
29044.05791092609,-92647.15375270291,23158.24009874345,-186431.2513388695,-187500.02235174447,-187500.02235174447,-187500.02235174447,-187500.02235174447,1730654135.7359002,1730654134.6711574,3000
29202.88940702551,-92628.33358387156,23118.52104884637,-186412.2970595714,-187500.02235174447,-187500.02235174447,-187500.02235174447,-187500.02235174447,1730654135.7397733,1730654134.6711574,3000
29304.343975108142,-92653.74751731724,23098.2033131365,-186438.001565695,-187500.02235174447,-187500.02235174447,-187500.02235174447,-187500.02235174447,1730654135.7428715,1730654134.6711574,3000
29201.950633758384,-92668.20909597982,23090.670775255057,-186452.01610946847,-187500.02235174447,-187500.02235174447,-187500.02235174447,-187500.02235174447,1730654135.7467563,1730654134.6711574,3000
29101.054859287127,-92637.94483398736,23184.10106707824,-186420.276632342,-187500.02235174447,-187500.02235174447,-187500.02235174447,-187500.02235174447,1730654135.7508788,1730654134.6711574,3000
29098.931443563877,-92636.33550838656,23142.079787502265,-186418.6896584856,-187500.02235174447,-187500.02235174447,-187500.02235174447,-187500.02235174447,1730654135.7549577,1730654134.6711574,3000
29242.809622622684,-92651.42293589388,23073.90696691358,-186434.8052662379,-187500.02235174447,-187500.02235174447,-187500.02235174447,-187500.02235174447,1730654135.7597775,1730654134.6711574,3000
29215.58519787612,-92640.33647064406,23141.76686307989,-186423.62939401023,-187500.02235174447,-187500.02235174447,-187500.02235174447,-187500.02235174447,1730654135.7637837,1730654134.6711574,3000
29145.02074063072,-92649.45598238184,23167.471369203493,-186432.97242319252,-187500.02235174447,-187500.02235174447,-187500.02235174447,-187500.02235174447,1730654135.7679582,1730654134.6711574,3000
29214.042927508704,-92659.53661913116,23131.86504028619,-186442.42721109715,-187500.02235174447,-187500.02235174447,-187500.02235174447,-187500.02235174447,1730654135.7709675,1730654134.6711574,3000
29268.000038623817,-92673.14883150446,23113.938941233035,-186457.00054848203,-187500.02235174447,-187500.02235174447,-187500.02235174447,-187500.02235174447,1730654135.77484,1730654134.6711574,3000
29175.95555495686,-92674.91461931642,23092.302452600296,-186461.9626357511,-187500.02235174447,-187500.02235174447,-187500.02235174447,-187500.02235174447,1730654135.7789533,1730654134.6711574,3000
29230.806735850187,-92635.8214182641,23101.28785387133,-186425.775161478,-187500.02235174447,-187500.02235174447,-187500.02235174447,-187500.02235174447,1730654135.7829568,1730654134.6711574,3000
29303.74047800785,-92630.88168273946,23159.44709294404,-186421.93066143163,-187500.02235174447,-187500.02235174447,-187500.02235174447,-187500.02235174447,1730654135.7879536,1730654134.6711574,3000
29192.071162709137,-92635.77671477516,23177.03791583037,-186428.03268766796,-187500.02235174447,-187500.02235174447,-187500.02235174447,-187500.02235174447,1730654135.7918458,1730654134.6711574,3000
29146.6300662315,-92683.16241302044,23108.328653374752,-186477.29593244745,-187500.02235174447,-187500.02235174447,-187500.02235174447,-187500.02235174447,1730654135.7959025,1730654134.6711574,3000
29175.374409601023,-92667.2256192238,23123.885467515644,-186461.515600862,-187500.02235174447,-187500.02235174447,-187500.02235174447,-187500.02235174447,1730654135.798952,1730654134.6711574,3000
29155.81663320263,-92654.2169039508,23118.47634535746,-186450.026804212,-187500.02235174447,-187500.02235174447,-187500.02235174447,-187500.02235174447,1730654135.80288,1730654134.6711574,3000
29242.4519947114,-92638.83890376556,23104.640615539625,-186436.2134261386,-187500.02235174447,-187500.02235174447,-187500.02235174447,-187500.02235174447,1730654135.80698,1730654134.6711574,3000
29313.75405952383,-92627.43951409336,23119.45982211349,-186426.1551411337,-187500.02235174447,-187500.02235174447,-187500.02235174447,-187500.02235174447,1730654135.8110416,1730654134.6711574,3000
29295.38092558157,-92636.62608106447,23128.981665251456,-186437.7109930171,-187500.02235174447,-187500.02235174447,-187500.02235174447,-187500.02235174447,1730654135.8159437,1730654134.6711574,3000
29175.6873340234,-92657.72612783028,23157.547194665334,-186462.07439447337,-187500.02235174447,-187500.02235174447,-187500.02235174447,-187500.02235174447,1730654135.820034,1730654134.6711574,3000
29129.30746427864,-92652.24995043874,23094.51527530137,-186459.39218513877,-187500.02235174447,-187500.02235174447,-187500.02235174447,-187500.02235174447,1730654135.822878,1730654134.6711574,3000
29285.79202721024,-92647.64549108094,23078.176150104544,-186457.1570106932,-187500.02235174447,-187500.02235174447,-187500.02235174447,-187500.02235174447,1730654135.8270414,1730654134.6711574,3000
29253.6055151946,-92649.00894749272,23158.44126444355,-186458.02872872696,-187500.02235174447,-187500.02235174447,-187500.02235174447,-187500.02235174447,1730654135.8308797,1730654134.6711574,3000
29177.83310149111,-92664.54340988916,23161.43639820056,-186471.77505156695,-187500.02235174447,-187500.02235174447,-187500.02235174447,-187500.02235174447,1730654135.835143,1730654134.6711574,3000
29162.879784450502,-92636.15669443092,23148.00299978292,-186444.03653669797,-187500.02235174447,-187500.02235174447,-187500.02235174447,-187500.02235174447,1730654135.8389204,1730654134.6711574,3000
29271.59866948112,-92643.51041835672,23119.39276688013,-186452.41844086867,-187500.02235174447,-187500.02235174447,-187500.02235174447,-187500.02235174447,1730654135.8432584,1730654134.6711574,3000
29308.970786210397,-92623.32679311358,23148.315924205297,-186434.2017691376,-187500.02235174447,-187500.02235174447,-187500.02235174447,-187500.02235174447,1730654135.8479314,1730654134.6711574,3000
29094.215225483804,-92649.34422365954,23151.69103761805,-186463.9072375187,-187500.02235174447,-187500.02235174447,-187500.02235174447,-187500.02235174447,1730654135.851104,1730654134.6711574,3000
29089.521359148188,-92682.73772987578,23132.379130408663,-186500.85467110333,-187500.02235174447,-187500.02235174447,-187500.02235174447,-187500.02235174447,1730654135.854974,1730654134.6711574,3000
29172.96042119985,-92665.54923838963,23079.65136523859,-186484.0238075285,-187500.02235174447,-187500.02235174447,-187500.02235174447,-187500.02235174447,1730654135.8590744,1730654134.6711574,3000
29223.430660179933,-92636.04493570865,23073.1470076021,-186455.16770543667,-187500.02235174447,-187500.02235174447,-187500.02235174447,-187500.02235174447,1730654135.8629484,1730654134.6711574,3000
29269.69877120242,-92611.79329297465,23144.180851481065,-186434.4029348377,-187500.02235174447,-187500.02235174447,-187500.02235174447,-187500.02235174447,1730654135.8672245,1730654134.6711574,3000
29165.763159485243,-92622.94681345783,23160.00588655542,-186447.74692627756,-187500.02235174447,-187500.02235174447,-187500.02235174447,-187500.02235174447,1730654135.8712063,1730654134.6711574,3000
29214.311148442168,-92683.69885488736,23115.324749389263,-186508.8342438739,-187500.02235174447,-187500.02235174447,-187500.02235174447,-187500.02235174447,1730654135.8762355,1730654134.6711574,3000
29229.13035501604,-92673.618218138,23104.953539962,-186499.9158978362,-187500.02235174447,-187500.02235174447,-187500.02235174447,-187500.02235174447,1730654135.8789556,1730654134.6711574,3000
29207.672680338943,-92663.8281540666,23125.29362741633,-186490.8634413318,-187500.02235174447,-187500.02235174447,-187500.02235174447,-187500.02235174447,1730654135.883077,1730654134.6711574,3000
29204.699898326387,-92666.3762529345,23110.161496420085,-186495.4679006896,-187500.02235174447,-187500.02235174447,-187500.02235174447,-187500.02235174447,1730654135.887082,1730654134.6711574,3000
29283.89212893154,-92663.09054649956,23117.04583371232,-186493.29978147743,-187500.02235174447,-187500.02235174447,-187500.02235174447,-187500.02235174447,1730654135.8911045,1730654134.6711574,3000
29261.719198431874,-92644.22567417928,23136.916534533088,-186475.39603416875,-187500.02235174447,-187500.02235174447,-187500.02235174447,-187500.02235174447,1730654135.8949838,1730654134.6711574,3000
29211.628939107533,-92631.75340077322,23150.52874690637,-186463.37079565175,-187500.02235174447,-187500.02235174447,-187500.02235174447,-187500.02235174447,1730654135.898996,1730654134.6711574,3000
29198.441409878906,-92624.1091041695,23140.224592712475,-186457.6263973268,-187500.02235174447,-187500.02235174447,-187500.02235174447,-187500.02235174447,1730654135.903221,1730654134.6711574,3000
29238.62984640954,-92603.83607194856,23095.968138690965,-186438.62741453972,-187500.02235174447,-187500.02235174447,-187500.02235174447,-187500.02235174447,1730654135.906036,1730654134.6711574,3000
29276.60546023911,-92625.98665070377,23131.59681935273,-186461.91793226215,-187500.02235174447,-187500.02235174447,-187500.02235174447,-187500.02235174447,1730654135.9110332,1730654134.6711574,3000
29163.080950150605,-92662.39764242143,23123.28197041535,-186497.7254268796,-187500.02235174447,-187500.02235174447,-187500.02235174447,-187500.02235174447,1730654135.915128,1730654134.6711574,3000
29158.141214625983,-92657.01087200773,23142.43741541355,-186494.5738309114,-187500.02235174447,-187500.02235174447,-187500.02235174447,-187500.02235174447,1730654135.9192612,1730654134.6711574,3000
29213.752354830787,-92644.33743290156,23148.047703271837,-186486.013112785,-187500.02235174447,-187500.02235174447,-187500.02235174447,-187500.02235174447,1730654135.9230747,1730654134.6711574,3000
29367.66646715003,-92658.30727318612,23085.753391474893,-186504.60976417185,-187500.02235174447,-187500.02235174447,-187500.02235174447,-187500.02235174447,1730654135.927179,1730654134.6711574,3000
29292.87753020257,-92668.45496516884,23138.61526711169,-186517.41731374472,-187500.02235174447,-187500.02235174447,-187500.02235174447,-187500.02235174447,1730654135.9310465,1730654134.6711574,3000
29110.66610940291,-92680.94959031936,23184.50339847844,-186531.3424505404,-187500.02235174447,-187500.02235174447,-187500.02235174447,-187500.02235174447,1730654135.934136,1730654134.6711574,3000
29172.37927584401,-92656.00504350723,23142.616229369192,-186509.14716829624,-187500.02235174447,-187500.02235174447,-187500.02235174447,-187500.02235174447,1730654135.9391365,1730654134.6711574,3000
29137.73407193829,-92651.71350857182,23087.83210370924,-186505.012095572,-187500.02235174447,-187500.02235174447,-187500.02235174447,-187500.02235174447,1730654135.9433143,1730654134.6711574,3000
29170.926412454417,-92646.30438641364,23081.551263517293,-186498.95477282465,-187500.02235174447,-187500.02235174447,-187500.02235174447,-187500.02235174447,1730654135.947042,1730654134.6711574,3000
29293.70454474742,-92635.95552873082,23114.341272633228,-186491.24342098756,-187500.02235174447,-187500.02235174447,-187500.02235174447,-187500.02235174447,1730654135.9512873,1730654134.6711574,3000
29259.752244919808,-92668.119689002,23137.54238337784,-186523.273470792,-187500.02235174447,-187500.02235174447,-187500.02235174447,-187500.02235174447,1730654135.955102,1730654134.6711574,3000
29230.82908759464,-92663.71639534432,23132.513240875396,-186517.8867003783,-187500.02235174447,-187500.02235174447,-187500.02235174447,-187500.02235174447,1730654135.959201,1730654134.6711574,3000
29245.08950055713,-92632.04397345116,23124.53366810485,-186483.88969706176,-187500.02235174447,-187500.02235174447,-187500.02235174447,-187500.02235174447,1730654135.9622128,1730654134.6711574,3000
29193.74754354329,-92619.616403534,23156.67547663158,-186471.4174236557,-187500.02235174447,-187500.02235174447,-187500.02235174447,-187500.02235174447,1730654135.9663672,1730654134.6711574,3000
29133.62135095851,-92667.11386050151,23131.507412374904,-186519.65248819024,-187500.02235174447,-187500.02235174447,-187500.02235174447,-187500.02235174447,1730654135.9712012,1730654134.6711574,3000
29257.22649779636,-92663.71639534432,23101.66783352707,-186516.90322362224,-187500.02235174447,-187500.02235174447,-187500.02235174447,-187500.02235174447,1730654135.9753406,1730654134.6711574,3000
29268.22355606837,-92651.57939810508,23132.28972343084,-186507.4707874621,-187500.02235174447,-187500.02235174447,-187500.02235174447,-187500.02235174447,1730654135.9792533,1730654134.6711574,3000
29164.17618562892,-92675.40635769445,23115.123583689165,-186533.4435145192,-187500.02235174447,-187500.02235174447,-187500.02235174447,-187500.02235174447,1730654135.9833455,1730654134.6711574,3000
29291.312908090706,-92662.19647672136,23100.61730153767,-186521.19475855769,-187500.02235174447,-187500.02235174447,-187500.02235174447,-187500.02235174447,1730654135.9862988,1730654134.6711574,3000
29282.863948686598,-92638.50362759872,23156.071979531287,-186498.55244142443,-187500.02235174447,-187500.02235174447,-187500.02235174447,-187500.02235174447,1730654135.9901748,1730654134.6711574,3000
29140.37157778401,-92651.42293589388,23139.263467700897,-186512.9693165981,-187500.02235174447,-187500.02235174447,-187500.02235174447,-187500.02235174447,1730654135.994182,1730654134.6711574,3000
29114.577664682587,-92654.619235351,23093.531798545337,-186519.63013644575,-187500.02235174447,-187500.02235174447,-187500.02235174447,-187500.02235174447,1730654135.999384,1730654134.6711574,3000
29244.10602380109,-92626.59014780405,23126.746490805923,-186494.90910707825,-187500.02235174447,-187500.02235174447,-187500.02235174447,-187500.02235174447,1730654136.003805,1730654134.6711574,3000
29256.19831755141,-92608.44053130632,23192.34886078225,-186479.1287754928,-187500.02235174447,-187500.02235174447,-187500.02235174447,-187500.02235174447,1730654136.0072916,1730654134.6711574,3000
29218.982663033326,-92636.29080489764,23113.737775532936,-186509.2365752741,-187500.02235174447,-187500.02235174447,-187500.02235174447,-187500.02235174447,1730654136.01028,1730654134.6711574,3000
29293.056344158216,-92635.35203163052,23113.022519710365,-186509.25892701853,-187500.02235174447,-187500.02235174447,-187500.02235174447,-187500.02235174447,1730654136.0141766,1730654134.6711574,3000
29249.403387237,-92614.94488894285,23116.39763312312,-186489.23176398655,-187500.02235174447,-187500.02235174447,-187500.02235174447,-187500.02235174447,1730654136.0183609,1730654134.6711574,3000
29189.992450474798,-92652.47346788328,23135.843650799237,-186527.96733712763,-187500.02235174447,-187500.02235174447,-187500.02235174447,-187500.02235174447,1730654136.022159,1730654134.6711574,3000
29199.938976757407,-92640.02354622168,23167.650183159138,-186515.91974686625,-187500.02235174447,-187500.02235174447,-187500.02235174447,-187500.02235174447,1730654136.026352,1730654134.6711574,3000
29176.804921246163,-92666.06332851211,23143.130319491665,-186544.28411058,-187500.02235174447,-187500.02235174447,-187500.02235174447,-187500.02235174447,1730654136.0312023,1730654134.6711574,3000
29226.246979981304,-92679.11674727402,23076.96915590396,-186558.56687528687,-187500.02235174447,-187500.02235174447,-187500.02235174447,-187500.02235174447,1730654136.0353737,1730654134.6711574,3000
29312.05532694523,-92648.49485737024,23077.41619079306,-186529.68842145067,-187500.02235174447,-187500.02235174447,-187500.02235174447,-187500.02235174447,1730654136.0381985,1730654134.6711574,3000
29246.430605224446,-92652.24995043874,23190.20309331454,-186535.41046803124,-187500.02235174447,-187500.02235174447,-187500.02235174447,-187500.02235174447,1730654136.0423892,1730654134.6711574,3000
29122.445478730857,-92653.47929638378,23191.812418915324,-186536.7292209541,-187500.02235174447,-187500.02235174447,-187500.02235174447,-187500.02235174447,1730654136.0464952,1730654134.6711574,3000
29199.44723837939,-92649.18776144835,23103.545380061318,-186532.9964796301,-187500.02235174447,-187500.02235174447,-187500.02235174447,-187500.02235174447,1730654136.050485,1730654134.6711574,3000
29218.08859325512,-92643.59982533452,23113.20133366601,-186528.19085457217,-187500.02235174447,-187500.02235174447,-187500.02235174447,-187500.02235174447,1730654136.0543256,1730654134.6711574,3000
29196.65327032248,-92639.39769737692,23125.91947626108,-186526.5591772269,-187500.02235174447,-187500.02235174447,-187500.02235174447,-187500.02235174447,1730654136.0594835,1730654134.6711574,3000
29204.65519483748,-92645.00798523522,23139.509336889903,-186534.8740261643,-187500.02235174447,-187500.02235174447,-187500.02235174447,-187500.02235174447,1730654136.063341,1730654134.6711574,3000
29240.596799921608,-92645.05268872411,23131.775633308367,-186537.89151166577,-187500.02235174447,-187500.02235174447,-187500.02235174447,-187500.02235174447,1730654136.0665605,1730654134.6711574,3000
29277.43247478396,-92633.3180228851,23106.98754870743,-186529.42020051723,-187500.02235174447,-187500.02235174447,-187500.02235174447,-187500.02235174447,1730654136.071569,1730654134.6711574,3000
29270.07875085816,-92650.68532832689,23153.657991130112,-186548.2850728375,-187500.02235174447,-187500.02235174447,-187500.02235174447,-187500.02235174447,1730654136.0753458,1730654134.6711574,3000
29226.626959637044,-92650.64062483796,23117.135240690142,-186551.59313101688,-187500.02235174447,-187500.02235174447,-187500.02235174447,-187500.02235174447,1730654136.078518,1730654134.6711574,3000
29189.50071209678,-92650.30534867111,23111.16732492057,-186553.56008452896,-187500.02235174447,-187500.02235174447,-187500.02235174447,-187500.02235174447,1730654136.082515,1730654134.6711574,3000
29157.381255314504,-92659.51426738672,23171.24881401644,-186562.5454858,-187500.02235174447,-187500.02235174447,-187500.02235174447,-187500.02235174447,1730654136.087607,1730654134.6711574,3000
29184.695087038886,-92659.13428773098,23123.416080882085,-186560.19855263215,-187500.02235174447,-187500.02235174447,-187500.02235174447,-187500.02235174447,1730654136.0914893,1730654134.6711574,3000
29252.152651805005,-92650.48416262676,23089.32967058774,-186553.0012909176,-187500.02235174447,-187500.02235174447,-187500.02235174447,-187500.02235174447,1730654136.094487,1730654134.6711574,3000
29255.93009661795,-92624.82435999208,23132.781461808856,-186529.15197958372,-187500.02235174447,-187500.02235174447,-187500.02235174447,-187500.02235174447,1730654136.0983243,1730654134.6711574,3000
29279.80175969622,-92613.53672904214,23100.66200502658,-186521.35122076885,-187500.02235174447,-187500.02235174447,-187500.02235174447,-187500.02235174447,1730654136.1024337,1730654134.6711574,3000
29334.764699311814,-92608.66404875088,23140.828089812767,-186519.31721202345,-187500.02235174447,-187500.02235174447,-187500.02235174447,-187500.02235174447,1730654136.1063273,1730654134.6711574,3000
29145.02074063072,-92641.72227880028,23213.806535459345,-186553.7388984846,-187500.02235174447,-187500.02235174447,-187500.02235174447,-187500.02235174447,1730654136.1103702,1730654134.6711574,3000
29085.22982421277,-92651.80291554963,23131.59681935273,-186563.55131430048,-187500.02235174447,-187500.02235174447,-187500.02235174447,-187500.02235174447,1730654136.1153817,1730654134.6711574,3000
29230.113831772072,-92650.8641422825,23085.37341181915,-186562.09845091088,-187500.02235174447,-187500.02235174447,-187500.02235174447,-187500.02235174447,1730654136.1186247,1730654134.6711574,3000
29310.04366994425,-92651.95937776082,23113.8048307663,-186560.4891253101,-187500.02235174447,-187500.02235174447,-187500.02235174447,-187500.02235174447,1730654136.1223907,1730654134.6711574,3000
29184.76214227225,-92641.58816833356,23148.33827594975,-186548.6650524932,-187500.02235174447,-187500.02235174447,-187500.02235174447,-187500.02235174447,1730654136.126593,1730654134.6711574,3000
29184.58332831661,-92640.11295319952,23144.136147992154,-186547.16748561471,-187500.02235174447,-187500.02235174447,-187500.02235174447,-187500.02235174447,1730654136.1303496,1730654134.6711574,3000
29272.69390495943,-92639.4647526103,23164.1186075352,-186547.25689259256,-187500.02235174447,-187500.02235174447,-187500.02235174447,-187500.02235174447,1730654136.1345077,1730654134.6711574,3000
29239.16628827647,-92667.3150262016,23114.341272633228,-186575.62125630636,-187500.02235174447,-187500.02235174447,-187500.02235174447,-187500.02235174447,1730654136.1383944,1730654134.6711574,3000
29215.98752927632,-92658.73195633078,23104.350042861708,-186570.70387252615,-187500.02235174447,-187500.02235174447,-187500.02235174447,-187500.02235174447,1730654136.1435149,1730654134.6711574,3000
29150.698083722364,-92664.5657616336,23135.284857187853,-186580.3821778753,-187500.02235174447,-187500.02235174447,-187500.02235174447,-187500.02235174447,1730654136.1464849,1730654134.6711574,3000
29200.69893606889,-92662.71056684382,23125.830069283256,-186582.5950005764,-187500.02235174447,-187500.02235174447,-187500.02235174447,-187500.02235174447,1730654136.149647,1730654134.6711574,3000
29235.679416141444,-92651.9146742719,23149.612325383703,-186575.5318493285,-187500.02235174447,-187500.02235174447,-187500.02235174447,-187500.02235174447,1730654136.1545596,1730654134.6711574,3000
29187.846683007087,-92659.11193598653,23140.91749679059,-186584.0925674549,-187500.02235174447,-187500.02235174447,-187500.02235174447,-187500.02235174447,1730654136.1586487,1730654134.6711574,3000
29234.718291129862,-92654.14984871744,23103.09834517221,-186579.6892737972,-187500.02235174447,-187500.02235174447,-187500.02235174447,-187500.02235174447,1730654136.1624637,1730654134.6711574,3000
29249.805718637195,-92683.34122697607,23136.648313599624,-186610.37821893435,-187500.02235174447,-187500.02235174447,-187500.02235174447,-187500.02235174447,1730654136.1666975,1730654134.6711574,3000
29225.419965436457,-92651.53469461616,23148.20416548302,-186580.9856749756,-187500.02235174447,-187500.02235174447,-187500.02235174447,-187500.02235174447,1730654136.172479,1730654134.6711574,3000
29308.65786178802,-92629.45117109432,23110.54147607583,-186561.60671253287,-187500.02235174447,-187500.02235174447,-187500.02235174447,-187500.02235174447,1730654136.1757245,1730654134.6711574,3000
29313.84346650165,-92642.0128514782,23108.753336519403,-186578.6387418078,-187500.02235174447,-187500.02235174447,-187500.02235174447,-187500.02235174447,1730654136.179864,1730654134.6711574,3000
29164.69027575139,-92651.31117717162,23122.723176803967,-186593.23443093715,-187500.02235174447,-187500.02235174447,-187500.02235174447,-187500.02235174447,1730654136.1827717,1730654134.6711574,3000
29165.62904901851,-92643.55512184562,23136.24598219943,-186588.38410239032,-187500.02235174447,-187500.02235174447,-187500.02235174447,-187500.02235174447,1730654136.186725,1730654134.6711574,3000
29241.848497611107,-92630.59111006156,23181.731782165974,-186578.05759645195,-187500.02235174447,-187500.02235174447,-187500.02235174447,-187500.02235174447,1730654136.1908455,1730654134.6711574,3000
29166.389008329992,-92612.41914181938,23150.551098650827,-186562.81370673343,-187500.02235174447,-187500.02235174447,-187500.02235174447,-187500.02235174447,1730654136.1946356,1730654134.6711574,3000
29195.20040693288,-92624.7126012698,23114.63184531115,-186576.6270848068,-187500.02235174447,-187500.02235174447,-187500.02235174447,-187500.02235174447,1730654136.2003098,1730654134.6711574,3000
29284.786198709757,-92626.38898210396,23120.48800235844,-186577.7893755185,-187500.02235174447,-187500.02235174447,-187500.02235174447,-187500.02235174447,1730654136.2030213,1730654134.6711574,3000
29337.08928073517,-92593.37545554346,23126.43356638355,-186544.55233151343,-187500.02235174447,-187500.02235174447,-187500.02235174447,-187500.02235174447,1730654136.2055137,1730654134.6711574,3000
29186.170302172937,-92608.0605516506,23126.41121463909,-186560.15384914327,-187500.02235174447,-187500.02235174447,-187500.02235174447,-187500.02235174447,1730654136.2107153,1730654134.6711574,3000
29149.96047615534,-92639.06242121012,23117.202295923507,-186591.46864312515,-187500.02235174447,-187500.02235174447,-187500.02235174447,-187500.02235174447,1730654136.214568,1730654134.6711574,3000
29265.83191941165,-92626.3666303595,23116.19646742302,-186577.4317476072,-187500.02235174447,-187500.02235174447,-187500.02235174447,-187500.02235174447,1730654136.21868,1730654134.6711574,3000
29230.002073049796,-92637.29663339812,23166.420837214093,-186587.19945993417,-187500.02235174447,-187500.02235174447,-187500.02235174447,-187500.02235174447,1730654136.2225437,1730654134.6711574,3000
29181.61054630405,-92646.57260734709,23169.795950626845,-186596.1625094608,-187500.02235174447,-187500.02235174447,-187500.02235174447,-187500.02235174447,1730654136.2265873,1730654134.6711574,3000
29215.02640426474,-92634.5697205746,23125.807717538803,-186581.9915034761,-187500.02235174447,-187500.02235174447,-187500.02235174447,-187500.02235174447,1730654136.2298045,1730654134.6711574,3000
29246.49766045781,-92626.3219268706,23122.8572872707,-186572.2908463825,-187500.02235174447,-187500.02235174447,-187500.02235174447,-187500.02235174447,1730654136.233624,1730654134.6711574,3000
29200.430715135422,-92662.0176627657,23137.72119733348,-186609.1041695004,-187500.02235174447,-187500.02235174447,-187500.02235174447,-187500.02235174447,1730654136.2385087,1730654134.6711574,3000
29307.026184442784,-92632.6698222959,23111.837877254235,-186579.95749473065,-187500.02235174447,-187500.02235174447,-187500.02235174447,-187500.02235174447,1730654136.242684,1730654134.6711574,3000
29331.501344621345,-92627.68538328235,23137.922363033576,-186573.27432313847,-187500.02235174447,-187500.02235174447,-187500.02235174447,-187500.02235174447,1730654136.2464786,1730654134.6711574,3000
29156.040150647183,-92654.90980802893,23158.910651077116,-186601.52692813004,-187500.02235174447,-187500.02235174447,-187500.02235174447,-187500.02235174447,1730654136.250661,1730654134.6711574,3000
29183.197520160385,-92626.12076117047,23129.04872048482,-186574.50366908355,-187500.02235174447,-187500.02235174447,-187500.02235174447,-187500.02235174447,1730654136.2535684,1730654134.6711574,3000
29152.888554678982,-92622.85740648,23124.846592527225,-186570.1450789148,-187500.02235174447,-187500.02235174447,-187500.02235174447,-187500.02235174447,1730654136.25765,1730654134.6711574,3000
29230.02442479425,-92652.7640405612,23110.027385953355,-186598.48709088413,-187500.02235174447,-187500.02235174447,-187500.02235174447,-187500.02235174447,1730654136.261588,1730654134.6711574,3000
29259.84165189763,-92683.00595080924,23138.6599706006,-186628.93016683223,-187500.02235174447,-187500.02235174447,-187500.02235174447,-187500.02235174447,1730654136.2666368,1730654134.6711574,3000
29237.73577663133,-92711.34796277856,23126.38886289464,-186658.59093172444,-187500.02235174447,-187500.02235174447,-187500.02235174447,-187500.02235174447,1730654136.2706168,1730654134.6711574,3000
29239.658026654488,-92697.08754981607,23149.09823526123,-186646.1186583184,-187500.02235174447,-187500.02235174447,-187500.02235174447,-187500.02235174447,1730654136.2746131,1730654134.6711574,3000
29261.674494942963,-92669.95253204736,23129.45105188502,-186617.97781204915,-187500.02235174447,-187500.02235174447,-187500.02235174447,-187500.02235174447,1730654136.278674,1730654134.6711574,3000
29315.609254313626,-92650.46181088232,23149.031180027865,-186596.8777652833,-187500.02235174447,-187500.02235174447,-187500.02235174447,-187500.02235174447,1730654136.281672,1730654134.6711574,3000
29228.683320126933,-92652.58522660556,23142.39271192464,-186597.86124203936,-187500.02235174447,-187500.02235174447,-187500.02235174447,-187500.02235174447,1730654136.2856803,1730654134.6711574,3000
29189.50071209678,-92683.16241302044,23103.52302831686,-186630.74065813312,-187500.02235174447,-187500.02235174447,-187500.02235174447,-187500.02235174447,1730654136.289868,1730654134.6711574,3000
29181.5881945596,-92649.7689068042,23144.51612764789,-186599.04588449548,-187500.02235174447,-187500.02235174447,-187500.02235174447,-187500.02235174447,1730654136.2948115,1730654134.6711574,3000
29161.24810710527,-92663.44817441083,23153.30036321883,-186615.6979341147,-187500.02235174447,-187500.02235174447,-187500.02235174447,-187500.02235174447,1730654136.2988052,1730654134.6711574,3000
29241.423814466456,-92660.98948252076,23134.279028687364,-186615.9885067926,-187500.02235174447,-187500.02235174447,-187500.02235174447,-187500.02235174447,1730654136.3026855,1730654134.6711574,3000
29296.61027152661,-92658.68725284186,23114.274217399863,-186614.7591608476,-187500.02235174447,-187500.02235174447,-187500.02235174447,-187500.02235174447,1730654136.306909,1730654134.6711574,3000
29262.009771109795,-92662.59880812156,23143.75616833641,-186619.36362020535,-187500.02235174447,-187500.02235174447,-187500.02235174447,-187500.02235174447,1730654136.3108125,1730654134.6711574,3000
29226.87282882605,-92667.20326747934,23158.329505721274,-186624.43746619672,-187500.02235174447,-187500.02235174447,-187500.02235174447,-187500.02235174447,1730654136.313586,1730654134.6711574,3000
29246.117680802072,-92653.03226149468,23141.856270057717,-186610.62408812332,-187500.02235174447,-187500.02235174447,-187500.02235174447,-187500.02235174447,1730654136.317845,1730654134.6711574,3000
29230.426756194447,-92660.58715112056,23111.212028409485,-186617.6872393712,-187500.02235174447,-187500.02235174447,-187500.02235174447,-187500.02235174447,1730654136.3217027,1730654134.6711574,3000
29167.998333930773,-92646.88553176948,23144.62788637017,-186604.18678572023,-187500.02235174447,-187500.02235174447,-187500.02235174447,-187500.02235174447,1730654136.326853,1730654134.6711574,3000
29208.343232672603,-92639.39769737692,23140.67162760158,-186597.72713157264,-187500.02235174447,-187500.02235174447,-187500.02235174447,-187500.02235174447,1730654136.3306491,1730654134.6711574,3000
29215.62990136503,-92626.99247920424,23101.399612593606,-186586.55125934497,-187500.02235174447,-187500.02235174447,-187500.02235174447,-187500.02235174447,1730654136.3337636,1730654134.6711574,3000
29248.21874478087,-92630.52405482816,23131.462708885992,-186592.3403611589,-187500.02235174447,-187500.02235174447,-187500.02235174447,-187500.02235174447,1730654136.337772,1730654134.6711574,3000
29194.77572378823,-92669.30433145814,23162.28576448986,-186632.1488180338,-187500.02235174447,-187500.02235174447,-187500.02235174447,-187500.02235174447,1730654136.341932,1730654134.6711574,3000
29236.17115451946,-92667.80676457964,23102.606606794197,-186631.3441552334,-187500.02235174447,-187500.02235174447,-187500.02235174447,-187500.02235174447,1730654136.3459415,1730654134.6711574,3000
29364.738388626385,-92631.77575251769,23101.779592249342,-186596.09545422735,-187500.02235174447,-187500.02235174447,-187500.02235174447,-187500.02235174447,1730654136.3498769,1730654134.6711574,3000
29232.59487540661,-92630.30053738362,23161.704619134023,-186597.86124203936,-187500.02235174447,-187500.02235174447,-187500.02235174447,-187500.02235174447,1730654136.3548367,1730654134.6711574,3000
29150.206345344348,-92666.28684595668,23156.563717909303,-186639.3907832373,-187500.02235174447,-187500.02235174447,-187500.02235174447,-187500.02235174447,1730654136.3589444,1730654134.6711574,3000
29248.88929711453,-92666.33154944556,23153.032142285367,-186644.53168446204,-187500.02235174447,-187500.02235174447,-187500.02235174447,-187500.02235174447,1730654136.3619218,1730654134.6711574,3000
29240.909724343983,-92685.12936653248,23148.382979438666,-186666.21287658368,-187500.02235174447,-187500.02235174447,-187500.02235174447,-187500.02235174447,1730654136.3659325,1730654134.6711574,3000
29182.95165097137,-92671.98654079276,23122.566714592784,-186655.9981293676,-187500.02235174447,-187500.02235174447,-187500.02235174447,-187500.02235174447,1730654136.3699212,1730654134.6711574,3000
29217.373337432546,-92662.95643603284,23103.545380061318,-186649.09144033093,-187500.02235174447,-187500.02235174447,-187500.02235174447,-187500.02235174447,1730654136.3738685,1730654134.6711574,3000
29283.735666720357,-92632.49100834024,23143.353836936218,-186620.280041728,-187500.02235174447,-187500.02235174447,-187500.02235174447,-187500.02235174447,1730654136.377966,1730654134.6711574,3000
29232.371357962056,-92631.9098629844,23141.74451133544,-186622.7387336181,-187500.02235174447,-187500.02235174447,-187500.02235174447,-187500.02235174447,1730654136.381897,1730654134.6711574,3000
29187.31024114016,-92622.83505473557,23121.44912737001,-186614.78151259205,-187500.02235174447,-187500.02235174447,-187500.02235174447,-187500.02235174447,1730654136.3869908,1730654134.6711574,3000
29250.02923608175,-92645.90205501344,23095.789324735324,-186640.44131522672,-187500.02235174447,-187500.02235174447,-187500.02235174447,-187500.02235174447,1730654136.389806,1730654134.6711574,3000
29332.23895218837,-92638.369517132,23124.04192972683,-186636.82033262495,-187500.02235174447,-187500.02235174447,-187500.02235174447,-187500.02235174447,1730654136.393898,1730654134.6711574,3000
29285.99319291034,-92607.76997897268,23147.935944549557,-186606.4890153991,-187500.02235174447,-187500.02235174447,-187500.02235174447,-187500.02235174447,1730654136.3977504,1730654134.6711574,3000
29114.309443749124,-92648.67367132589,23162.73279937897,-186647.83974264143,-187500.02235174447,-187500.02235174447,-187500.02235174447,-187500.02235174447,1730654136.4019675,1730654134.6711574,3000
29139.455156261345,-92617.18006338835,23147.64537187164,-186618.313088216,-187500.02235174447,-187500.02235174447,-187500.02235174447,-187500.02235174447,1730654136.405778,1730654134.6711574,3000
29229.532686416234,-92590.62619097544,23130.948618763523,-186596.02839899404,-187500.02235174447,-187500.02235174447,-187500.02235174447,-187500.02235174447,1730654136.4110482,1730654134.6711574,3000
29321.443059616457,-92593.06253112108,23104.99824345091,-186602.0410182525,-187500.02235174447,-187500.02235174447,-187500.02235174447,-187500.02235174447,1730654136.4137964,1730654134.6711574,3000
29258.724064674865,-92582.8030804161,23137.87765954467,-186594.21790769315,-187500.02235174447,-187500.02235174447,-187500.02235174447,-187500.02235174447,1730654136.4170475,1730654134.6711574,3000
29166.4337118189,-92610.02750516268,23141.073959001777,-186624.86214934135,-187500.02235174447,-187500.02235174447,-187500.02235174447,-187500.02235174447,1730654136.4219224,1730654134.6711574,3000
29212.67947109693,-92603.88077543746,23134.97193276548,-186623.72221037417,-187500.02235174447,-187500.02235174447,-187500.02235174447,-187500.02235174447,1730654136.4260654,1730654134.6711574,3000
29302.48878031836,-92620.08579016756,23114.63184531115,-186643.4140972393,-187500.02235174447,-187500.02235174447,-187500.02235174447,-187500.02235174447,1730654136.4298816,1730654134.6711574,3000
29209.416116406457,-92633.83211300756,23147.82418582728,-186660.6696439588,-187500.02235174447,-187500.02235174447,-187500.02235174447,-187500.02235174447,1730654136.433987,1730654134.6711574,3000
29180.62706954802,-92600.19273760232,23150.305229461817,-186630.4053819663,-187500.02235174447,-187500.02235174447,-187500.02235174447,-187500.02235174447,1730654136.438798,1730654134.6711574,3000
29226.49284917031,-92591.2520398202,23150.327581206275,-186623.3422307184,-187500.02235174447,-187500.02235174447,-187500.02235174447,-187500.02235174447,1730654136.4421704,1730654134.6711574,3000
29269.27408805777,-92589.84387991951,23092.637728767128,-186622.6493266403,-187500.02235174447,-187500.02235174447,-187500.02235174447,-187500.02235174447,1730654136.4450765,1730654134.6711574,3000
29287.35664932211,-92600.39390330242,23100.594949793216,-186633.1993500232,-187500.02235174447,-187500.02235174447,-187500.02235174447,-187500.02235174447,1730654136.4501328,1730654134.6711574,3000
29267.776521179265,-92585.88762115092,23145.320790448284,-186620.92824231728,-187500.02235174447,-187500.02235174447,-187500.02235174447,-187500.02235174447,1730654136.4538918,1730654134.6711574,3000
29183.309278882654,-92599.99157190222,23171.986421583468,-186637.4461814697,-187500.02235174447,-187500.02235174447,-187500.02235174447,-187500.02235174447,1730654136.4581237,1730654134.6711574,3000
29166.701932752363,-92615.14605464292,23138.54821187833,-186652.82418165496,-187500.02235174447,-187500.02235174447,-187500.02235174447,-187500.02235174447,1730654136.4621167,1730654134.6711574,3000
29288.138960378048,-92609.28989759563,23106.898141729613,-186647.39270775235,-187500.02235174447,-187500.02235174447,-187500.02235174447,-187500.02235174447,1730654136.4660966,1730654134.6711574,3000
29296.386754082057,-92614.56490928707,23106.920493474063,-186654.18763806677,-187500.02235174447,-187500.02235174447,-187500.02235174447,-187500.02235174447,1730654136.471189,1730654134.6711574,3000
29151.4803947783,-92612.24032786374,23144.136147992154,-186653.29356828853,-187500.02235174447,-187500.02235174447,-187500.02235174447,-187500.02235174447,1730654136.4740312,1730654134.6711574,3000
29197.994374989798,-92597.62228698996,23149.58997363925,-186640.553073949,-187500.02235174447,-187500.02235174447,-187500.02235174447,-187500.02235174447,1730654136.479068,1730654134.6711574,3000
29223.00597703528,-92587.40753977388,23155.87081383119,-186632.64055641185,-187500.02235174447,-187500.02235174447,-187500.02235174447,-187500.02235174447,1730654136.4821374,1730654134.6711574,3000
29254.611343695087,-92605.7583219717,23130.05454898531,-186652.17598106572,-187500.02235174447,-187500.02235174447,-187500.02235174447,-187500.02235174447,1730654136.4859269,1730654134.6711574,3000
29245.78240463524,-92622.54448205764,23123.34902564872,-186671.28672257505,-187500.02235174447,-187500.02235174447,-187500.02235174447,-187500.02235174447,1730654136.490029,1730654134.6711574,3000
29312.569417067694,-92627.32775537106,23084.546397274305,-186677.12052787788,-187500.02235174447,-187500.02235174447,-187500.02235174447,-187500.02235174447,1730654136.4939425,1730654134.6711574,3000
29297.16906513799,-92600.23744109125,23116.822316267768,-186650.72311767616,-187500.02235174447,-187500.02235174447,-187500.02235174447,-187500.02235174447,1730654136.497906,1730654134.6711574,3000
29120.210304285327,-92569.23557153172,23165.526767435884,-186620.5482626615,-187500.02235174447,-187500.02235174447,-187500.02235174447,-187500.02235174447,1730654136.5009077,1730654134.6711574,3000
29172.423979332925,-92580.52320248168,23128.713444317997,-186634.07106805695,-187500.02235174447,-187500.02235174447,-187500.02235174447,-187500.02235174447,1730654136.504917,1730654134.6711574,3000
29255.527765217757,-92569.48144072072,23131.10508097471,-186625.3985912083,-187500.02235174447,-187500.02235174447,-187500.02235174447,-187500.02235174447,1730654136.510142,1730654134.6711574,3000
29215.920474042952,-92591.58731598704,23119.48217385795,-186650.2090275537,-187500.02235174447,-187500.02235174447,-187500.02235174447,-187500.02235174447,1730654136.5139196,1730654134.6711574,3000
29209.125543728536,-92606.42887430536,23109.28977838633,-186667.82220218447,-187500.02235174447,-187500.02235174447,-187500.02235174447,-187500.02235174447,1730654136.5181153,1730654134.6711574,3000
29194.77572378823,-92611.59212727452,23132.91557227559,-186676.22645809967,-187500.02235174447,-187500.02235174447,-187500.02235174447,-187500.02235174447,1730654136.5213933,1730654134.6711574,3000
29215.80871532068,-92626.34427861504,23148.53944164985,-186695.82893798695,-187500.02235174447,-187500.02235174447,-187500.02235174447,-187500.02235174447,1730654136.5262177,1730654134.6711574,3000
29286.060248143705,-92632.24513915124,23107.65810104109,-186703.6296968019,-187500.02235174447,-187500.02235174447,-187500.02235174447,-187500.02235174447,1730654136.5296507,1730654134.6711574,3000
29308.85902748812,-92611.59212727452,23087.34036533122,-186686.0388739156,-187500.02235174447,-187500.02235174447,-187500.02235174447,-187500.02235174447,1730654136.5329573,1730654134.6711574,3000
29327.746251552853,-92577.25984779118,23122.29849365932,-186655.77461192303,-187500.02235174447,-187500.02235174447,-187500.02235174447,-187500.02235174447,1730654136.5381713,1730654134.6711574,3000
29292.98928892485,-92540.51357990666,23177.03791583037,-186619.4977306721,-187500.02235174447,-187500.02235174447,-187500.02235174447,-187500.02235174447,1730654136.5420947,1730654134.6711574,3000
29157.537717525687,-92558.596141171,23208.03978538988,-186636.5968151804,-187500.02235174447,-187500.02235174447,-187500.02235174447,-187500.02235174447,1730654136.546346,1730654134.6711574,3000
29147.457080776345,-92587.0499118626,23133.787290309345,-186662.4577835152,-187500.02235174447,-187500.02235174447,-187500.02235174447,-187500.02235174447,1730654136.549237,1730654134.6711574,3000
29170.27821186521,-92605.82537720508,23071.314164556763,-186681.5685250245,-187500.02235174447,-187500.02235174447,-187500.02235174447,-187500.02235174447,1730654136.55322,1730654134.6711574,3000
29276.09137011664,-92599.56688875756,23119.77274653587,-186678.52868777857,-187500.02235174447,-187500.02235174447,-187500.02235174447,-187500.02235174447,1730654136.5592074,1730654134.6711574,3000
29294.17393138098,-92583.09365309402,23121.516182603384,-186664.58119923848,-187500.02235174447,-187500.02235174447,-187500.02235174447,-187500.02235174447,1730654136.5622516,1730654134.6711574,3000
29227.610436393075,-92593.53191775463,23123.68430181555,-186675.064167388,-187500.02235174447,-187500.02235174447,-187500.02235174447,-187500.02235174447,1730654136.5650814,1730654134.6711574,3000
29281.65695448601,-92578.42213850286,23179.29544202035,-186661.27314105903,-187500.02235174447,-187500.02235174447,-187500.02235174447,-187500.02235174447,1730654136.5692012,1730654134.6711574,3000
29201.86122678056,-92592.81666193208,23136.60361011072,-186677.4558040447,-187500.02235174447,-187500.02235174447,-187500.02235174447,-187500.02235174447,1730654136.5731363,1730654134.6711574,3000
29166.657229263456,-92591.36379854249,23117.1575924346,-186676.42762379977,-187500.02235174447,-187500.02235174447,-187500.02235174447,-187500.02235174447,1730654136.5773766,1730654134.6711574,3000
29214.02057576425,-92592.88371716544,23142.884450302656,-186677.0311209001,-187500.02235174447,-187500.02235174447,-187500.02235174447,-187500.02235174447,1730654136.5822108,1730654134.6711574,3000
29243.994265078814,-92565.99456858572,23127.886429773145,-186652.8018299105,-187500.02235174447,-187500.02235174447,-187500.02235174447,-187500.02235174447,1730654136.5862174,1730654134.6711574,3000
29250.11864305957,-92573.3035890226,23121.27031341437,-186663.84359167144,-187500.02235174447,-187500.02235174447,-187500.02235174447,-187500.02235174447,1730654136.589089,1730654134.6711574,3000
29225.576427647644,-92580.07616759256,23145.320790448284,-186673.6560074873,-187500.02235174447,-187500.02235174447,-187500.02235174447,-187500.02235174447,1730654136.5934713,1730654134.6711574,3000
29251.61620993808,-92573.81767914508,23127.417043139583,-186670.5938184969,-187500.02235174447,-187500.02235174447,-187500.02235174447,-187500.02235174447,1730654136.5971289,1730654134.6711574,3000
29335.65876909003,-92589.12862409696,23107.43458359654,-186687.7152547497,-187500.02235174447,-187500.02235174447,-187500.02235174447,-187500.02235174447,1730654136.6012945,1730654134.6711574,3000
29242.98843657833,-92574.84585939,23127.72996756196,-186675.57825751047,-187500.02235174447,-187500.02235174447,-187500.02235174447,-187500.02235174447,1730654136.6051192,1730654134.6711574,3000
29168.57947928661,-92578.62330420296,23168.81247387081,-186681.5685250245,-187500.02235174447,-187500.02235174447,-187500.02235174447,-187500.02235174447,1730654136.6103652,1730654134.6711574,3000
29180.29179338119,-92593.62132473246,23162.464578445502,-186698.3099816215,-187500.02235174447,-187500.02235174447,-187500.02235174447,-187500.02235174447,1730654136.614122,1730654134.6711574,3000
29173.69802876688,-92598.49400502372,23122.745528548425,-186705.39548461384,-187500.02235174447,-187500.02235174447,-187500.02235174447,-187500.02235174447,1730654136.6173372,1730654134.6711574,3000
29242.876677856053,-92578.82446990303,23113.737775532936,-186687.1117576494,-187500.02235174447,-187500.02235174447,-187500.02235174447,-187500.02235174447,1730654136.621374,1730654134.6711574,3000
29232.818392851164,-92573.32594076706,23136.715368832996,-186683.2672576031,-187500.02235174447,-187500.02235174447,-187500.02235174447,-187500.02235174447,1730654136.625311,1730654134.6711574,3000
29174.793264245185,-92587.16167058489,23116.86701975668,-186697.5723740545,-187500.02235174447,-187500.02235174447,-187500.02235174447,-187500.02235174447,1730654136.6293378,1730654134.6711574,3000
29254.74545416182,-92576.61164720198,23110.943807476026,-186689.056359417,-187500.02235174447,-187500.02235174447,-187500.02235174447,-187500.02235174447,1730654136.6335552,1730654134.6711574,3000
29320.03489971577,-92559.98194932724,23137.43062465556,-186675.3770918104,-187500.02235174447,-187500.02235174447,-187500.02235174447,-187500.02235174447,1730654136.6381476,1730654134.6711574,3000
29329.06500447572,-92590.17915608636,23134.927229276567,-186708.6811910488,-187500.02235174447,-187500.02235174447,-187500.02235174447,-187500.02235174447,1730654136.6423967,1730654134.6711574,3000
29233.421889951456,-92582.42310076037,23129.83103154076,-186703.69675203523,-187500.02235174447,-187500.02235174447,-187500.02235174447,-187500.02235174447,1730654136.6453977,1730654134.6711574,3000
29211.07014549615,-92566.352196497,23114.29656914432,-186690.57627804,-187500.02235174447,-187500.02235174447,-187500.02235174447,-187500.02235174447,1730654136.649395,1730654134.6711574,3000
29224.07886076914,-92582.62426646044,23191.700660193048,-186709.99994397163,-187500.02235174447,-187500.02235174447,-187500.02235174447,-187500.02235174447,1730654136.6534934,1730654134.6711574,3000
29200.29660466869,-92615.14605464292,23135.977761265967,-186746.85797057845,-187500.02235174447,-187500.02235174447,-187500.02235174447,-187500.02235174447,1730654136.657446,1730654134.6711574,3000
29263.32852403266,-92627.79714200464,23106.920493474063,-186762.70535739727,-187500.02235174447,-187500.02235174447,-187500.02235174447,-187500.02235174447,1730654136.6614752,1730654134.6711574,3000
29274.929079404963,-92616.867138966,23125.315979160783,-186754.5693224155,-187500.02235174447,-187500.02235174447,-187500.02235174447,-187500.02235174447,1730654136.6664453,1730654134.6711574,3000
29206.130409971527,-92607.88173769496,23147.53361314936,-186748.08731652348,-187500.02235174447,-187500.02235174447,-187500.02235174447,-187500.02235174447,1730654136.6694045,1730654134.6711574,3000
29174.01095318925,-92616.53186279917,23119.839801769234,-186759.9784445737,-187500.02235174447,-187500.02235174447,-187500.02235174447,-187500.02235174447,1730654136.6735525,1730654134.6711574,3000
29251.34798900461,-92593.42015903236,23157.502491176427,-186738.63252861888,-187500.02235174447,-187500.02235174447,-187500.02235174447,-187500.02235174447,1730654136.677352,1730654134.6711574,3000
29207.15859021647,-92606.58533651655,23138.50350838941,-186753.9434735708,-187500.02235174447,-187500.02235174447,-187500.02235174447,-187500.02235174447,1730654136.68119,1730654134.6711574,3000
29226.828125337142,-92626.29957512612,23123.729005304456,-186777.45750873772,-187500.02235174447,-187500.02235174447,-187500.02235174447,-187500.02235174447,1730654136.6853848,1730654134.6711574,3000
29220.3461194451,-92625.02552569218,23107.591045807727,-186777.9939506047,-187500.02235174447,-187500.02235174447,-187500.02235174447,-187500.02235174447,1730654136.689212,1730654134.6711574,3000
29214.98170077583,-92587.54165024064,23148.561793394303,-186743.3710984434,-187500.02235174447,-187500.02235174447,-187500.02235174447,-187500.02235174447,1730654136.693411,1730654134.6711574,3000
29203.85053203709,-92605.51245278268,23144.963162537,-186766.5275056991,-187500.02235174447,-187500.02235174447,-187500.02235174447,-187500.02235174447,1730654136.6973066,1730654134.6711574,3000
29207.89619778349,-92613.3132115976,23116.41998486757,-186779.22329654967,-187500.02235174447,-187500.02235174447,-187500.02235174447,-187500.02235174447,1730654136.7004273,1730654134.6711574,3000
29361.162109513534,-92624.19851114732,23108.48511558594,-186794.13191010145,-187500.02235174447,-187500.02235174447,-187500.02235174447,-187500.02235174447,1730654136.7053733,1730654134.6711574,3000
29321.95714973893,-92605.1548248714,23169.527729693385,-186779.9832558612,-187500.02235174447,-187500.02235174447,-187500.02235174447,-187500.02235174447,1730654136.709448,1730654134.6711574,3000
29129.32981602309,-92594.38128404396,23154.574412652782,-186773.16597380236,-187500.02235174447,-187500.02235174447,-187500.02235174447,-187500.02235174447,1730654136.7133029,1730654134.6711574,3000
29187.86903475154,-92616.26364186568,23121.96321749249,-186797.842299681,-187500.02235174447,-187500.02235174447,-187500.02235174447,-187500.02235174447,1730654136.7175426,1730654134.6711574,3000
29238.94277083192,-92621.4045430904,23128.78049955136,-186804.52547127317,-187500.02235174447,-187500.02235174447,-187500.02235174447,-187500.02235174447,1730654136.7213893,1730654134.6711574,3000
29225.755241603285,-92613.7602464867,23130.6580460856,-186798.57990724803,-187500.02235174447,-187500.02235174447,-187500.02235174447,-187500.02235174447,1730654136.7254713,1730654134.6711574,3000
29213.819410064152,-92609.28989759563,23143.55500263632,-186795.92004965784,-187500.02235174447,-187500.02235174447,-187500.02235174447,-187500.02235174447,1730654136.7284756,1730654134.6711574,3000
29258.96993386387,-92583.4512810053,23165.482063946973,-186771.80251739055,-187500.02235174447,-187500.02235174447,-187500.02235174447,-187500.02235174447,1730654136.7335267,1730654134.6711574,3000
29228.72802361584,-92578.6009524585,23115.2576941559,-186769.4779359672,-187500.02235174447,-187500.02235174447,-187500.02235174447,-187500.02235174447,1730654136.737501,1730654134.6711574,3000
29252.487927971837,-92632.13338042896,23098.35977534769,-186827.27954712865,-187500.02235174447,-187500.02235174447,-187500.02235174447,-187500.02235174447,1730654136.741576,1730654134.6711574,3000
29264.73668393334,-92608.61934526198,23108.44041209703,-186807.49825328568,-187500.02235174447,-187500.02235174447,-187500.02235174447,-187500.02235174447,1730654136.7454832,1730654134.6711574,3000
29276.67251547248,-92594.1577665994,23153.032142285367,-186796.36708454692,-187500.02235174447,-187500.02235174447,-187500.02235174447,-187500.02235174447,1730654136.7495944,1730654134.6711574,3000
29272.31392530369,-92614.14022614244,23174.48981696246,-186817.06479991256,-187500.02235174447,-187500.02235174447,-187500.02235174447,-187500.02235174447,1730654136.7534328,1730654134.6711574,3000
29207.4938663833,-92625.71842977028,23140.71633109049,-186831.9510617198,-187500.02235174447,-187500.02235174447,-187500.02235174447,-187500.02235174447,1730654136.756471,1730654134.6711574,3000
29219.675567111444,-92588.9051066524,23132.87086878668,-186800.03277063763,-187500.02235174447,-187500.02235174447,-187500.02235174447,-187500.02235174447,1730654136.7616403,1730654134.6711574,3000
29206.800962305184,-92578.89152513642,23118.208124424,-186794.355427546,-187500.02235174447,-187500.02235174447,-187500.02235174447,-187500.02235174447,1730654136.7655268,1730654134.6711574,3000
29186.57263357313,-92592.97312414326,23147.421854427084,-186811.1639393764,-187500.02235174447,-187500.02235174447,-187500.02235174447,-187500.02235174447,1730654136.76953,1730654134.6711574,3000
29201.771819802743,-92589.1509758414,23146.88541256016,-186810.60514576497,-187500.02235174447,-187500.02235174447,-187500.02235174447,-187500.02235174447,1730654136.773433,1730654134.6711574,3000
29280.047628885222,-92608.57464177308,23109.51329583088,-186836.086134444,-187500.02235174447,-187500.02235174447,-187500.02235174447,-187500.02235174447,1730654136.7775638,1730654134.6711574,3000
29295.13505639256,-92621.53865355716,23092.257749111384,-186855.04041374213,-187500.02235174447,-187500.02235174447,-187500.02235174447,-187500.02235174447,1730654136.781556,1730654134.6711574,3000
29240.50739294379,-92612.88852845294,23149.791139339344,-186849.6983468173,-187500.02235174447,-187500.02235174447,-187500.02235174447,-187500.02235174447,1730654136.7866964,1730654134.6711574,3000
29238.562791176177,-92604.08194113756,23142.459767158005,-186840.2435589127,-187500.02235174447,-187500.02235174447,-187500.02235174447,-187500.02235174447,1730654136.789451,1730654134.6711574,3000
29261.205108309405,-92615.50368255422,23137.8106043113,-186852.73818406323,-187500.02235174447,-187500.02235174447,-187500.02235174447,-187500.02235174447,1730654136.7935777,1730654134.6711574,3000
29276.44899802792,-92609.62517376248,23135.798947310323,-186847.2620066717,-187500.02235174447,-187500.02235174447,-187500.02235174447,-187500.02235174447,1730654136.797488,1730654134.6711574,3000
29293.212806369404,-92616.48715931024,23157.45778768752,-186852.5593701076,-187500.02235174447,-187500.02235174447,-187500.02235174447,-187500.02235174447,1730654136.8016543,1730654134.6711574,3000
29185.52210158373,-92620.7563425012,23164.476235446484,-186855.77802130915,-187500.02235174447,-187500.02235174447,-187500.02235174447,-187500.02235174447,1730654136.8045547,1730654134.6711574,3000
29135.85652540404,-92623.88558672497,23121.58323783675,-186860.44953590032,-187500.02235174447,-187500.02235174447,-187500.02235174447,-187500.02235174447,1730654136.808702,1730654134.6711574,3000
29228.37039570456,-92625.42785709236,23118.029310468355,-186865.12105049143,-187500.02235174447,-187500.02235174447,-187500.02235174447,-187500.02235174447,1730654136.812627,1730654134.6711574,3000
29229.242113738317,-92622.67859252436,23160.229403999976,-186863.91405629087,-187500.02235174447,-187500.02235174447,-187500.02235174447,-187500.02235174447,1730654136.8166423,1730654134.6711574,3000
29207.4938663833,-92609.91574644038,23146.974819537976,-186852.46996312976,-187500.02235174447,-187500.02235174447,-187500.02235174447,-187500.02235174447,1730654136.8214564,1730654134.6711574,3000
29229.867962583063,-92597.44347303432,23118.94573199102,-186840.66824205735,-187500.02235174447,-187500.02235174447,-187500.02235174447,-187500.02235174447,1730654136.8255873,1730654134.6711574,3000
29232.796041106707,-92573.1471268114,23124.66777857158,-186815.5672330341,-187500.02235174447,-187500.02235174447,-187500.02235174447,-187500.02235174447,1730654136.8297129,1730654134.6711574,3000
29228.39274744901,-92590.78265318664,23140.89514504613,-186834.47680884323,-187500.02235174447,-187500.02235174447,-187500.02235174447,-187500.02235174447,1730654136.8326712,1730654134.6711574,3000
29276.29253581673,-92603.63490624844,23134.48019438746,-186849.6536433284,-187500.02235174447,-187500.02235174447,-187500.02235174447,-187500.02235174447,1730654136.8364973,1730654134.6711574,3000
29229.800907349698,-92601.42208354735,23129.83103154076,-186850.6594718289,-187500.02235174447,-187500.02235174447,-187500.02235174447,-187500.02235174447,1730654136.8406634,1730654134.6711574,3000
29240.395634221517,-92602.29380158112,23137.028293255367,-186855.0627654866,-187500.02235174447,-187500.02235174447,-187500.02235174447,-187500.02235174447,1730654136.8450391,1730654134.6711574,3000
29321.599521827644,-92595.94590615582,23104.595912050718,-186852.93934976333,-187500.02235174447,-187500.02235174447,-187500.02235174447,-187500.02235174447,1730654136.8497777,1730654134.6711574,3000
29234.56182891868,-92637.58720607606,23117.09053720123,-186894.7371118948,-187500.02235174447,-187500.02235174447,-187500.02235174447,-187500.02235174447,1730654136.853593,1730654134.6711574,3000
29175.083836923102,-92626.70190652632,23166.912575592112,-186883.53888792265,-187500.02235174447,-187500.02235174447,-187500.02235174447,-187500.02235174447,1730654136.8566687,1730654134.6711574,3000
29204.87871228203,-92632.37924961797,23167.896052348144,-186891.87608860448,-187500.02235174447,-187500.02235174447,-187500.02235174447,-187500.02235174447,1730654136.8607135,1730654134.6711574,3000
29265.54134673373,-92632.60276706252,23127.48409837295,-186893.7089316498,-187500.02235174447,-187500.02235174447,-187500.02235174447,-187500.02235174447,1730654136.864655,1730654134.6711574,3000
29248.17404129196,-92613.42497031987,23123.81841228228,-186877.0568820306,-187500.02235174447,-187500.02235174447,-187500.02235174447,-187500.02235174447,1730654136.8684864,1730654134.6711574,3000
29182.504616082268,-92643.75628754572,23152.00396204042,-186909.623373702,-187500.02235174447,-187500.02235174447,-187500.02235174447,-187500.02235174447,1730654136.8725505,1730654134.6711574,3000
29223.095384013104,-92642.70575555632,23129.45105188502,-186911.5232719807,-187500.02235174447,-187500.02235174447,-187500.02235174447,-187500.02235174447,1730654136.877792,1730654134.6711574,3000
29269.005867124302,-92630.09937168352,23121.069147714275,-186902.38140849848,-187500.02235174447,-187500.02235174447,-187500.02235174447,-187500.02235174447,1730654136.8819635,1730654134.6711574,3000
29248.26344826978,-92636.2684531532,23120.48800235844,-186911.74678942523,-187500.02235174447,-187500.02235174447,-187500.02235174447,-187500.02235174447,1730654136.884518,1730654134.6711574,3000
29241.28970399973,-92646.14792420244,23119.32571164676,-186923.9284901534,-187500.02235174447,-187500.02235174447,-187500.02235174447,-187500.02235174447,1730654136.888557,1730654134.6711574,3000
29201.74946805829,-92618.1635401444,23151.109892262208,-186898.8498328745,-187500.02235174447,-187500.02235174447,-187500.02235174447,-187500.02235174447,1730654136.8927195,1730654134.6711574,3000
29205.750430315788,-92631.9098629844,23145.365493937195,-186914.49605399324,-187500.02235174447,-187500.02235174447,-187500.02235174447,-187500.02235174447,1730654136.8967865,1730654134.6711574,3000
29222.290721212717,-92632.78158101816,23141.364531679694,-186919.50284475123,-187500.02235174447,-187500.02235174447,-187500.02235174447,-187500.02235174447,1730654136.9006228,1730654134.6711574,3000
29192.20527317587,-92651.42293589388,23157.99422955444,-186943.70978399637,-187500.02235174447,-187500.02235174447,-187500.02235174447,-187500.02235174447,1730654136.9055803,1730654134.6711574,3000
29204.029345992727,-92660.09541274256,23115.54826683381,-186958.2831213812,-187500.02235174447,-187500.02235174447,-187500.02235174447,-187500.02235174447,1730654136.9096773,1730654134.6711574,3000
29241.06618655517,-92661.7717935767,23099.320900359264,-186965.0556999512,-187500.02235174447,-187500.02235174447,-187500.02235174447,-187500.02235174447,1730654136.9126658,1730654134.6711574,3000
29266.10014034512,-92632.7145257848,23107.971025463467,-186943.3074525961,-187500.02235174447,-187500.02235174447,-187500.02235174447,-187500.02235174447,1730654136.9166868,1730654134.6711574,3000
29202.73294481432,-92626.3219268706,23145.074921259275,-186942.88276945148,-187500.02235174447,-187500.02235174447,-187500.02235174447,-187500.02235174447,1730654136.9208355,1730654134.6711574,3000
29237.288741742224,-92656.5191336297,23167.0690378033,-186977.3491594016,-187500.02235174447,-187500.02235174447,-187500.02235174447,-187500.02235174447,1730654136.9247773,1730654134.6711574,3000
29290.195320867937,-92659.20134296434,23115.48121160045,-186985.0828629831,-187500.02235174447,-187500.02235174447,-187500.02235174447,-187500.02235174447,1730654136.9287827,1730654134.6711574,3000
29271.621021225576,-92642.75045904524,23116.978778478955,-186971.64946456547,-187500.02235174447,-187500.02235174447,-187500.02235174447,-187500.02235174447,1730654136.932819,1730654134.6711574,3000
29228.86213408257,-92652.62993009448,23156.94369756505,-186983.0265024932,-187500.02235174447,-187500.02235174447,-187500.02235174447,-187500.02235174447,1730654136.9378333,1730654134.6711574,3000
29172.28986886619,-92633.27331939618,23141.498642146427,-186964.3851476175,-187500.02235174447,-187500.02235174447,-187500.02235174447,-187500.02235174447,1730654136.9408288,1730654134.6711574,3000
29201.81652329165,-92634.7708862747,23130.121604218675,-186967.60379881907,-187500.02235174447,-187500.02235174447,-187500.02235174447,-187500.02235174447,1730654136.94475,1730654134.6711574,3000
29336.306969679237,-92645.7679445467,23106.8534382407,-186981.0371972367,-187500.02235174447,-187500.02235174447,-187500.02235174447,-187500.02235174447,1730654136.9488626,1730654134.6711574,3000
29314.71518453541,-92617.02360117718,23161.90578483412,-186952.6504817785,-187500.02235174447,-187500.02235174447,-187500.02235174447,-187500.02235174447,1730654136.9527748,1730654134.6711574,3000
29155.660170991443,-92618.9682029448,23161.63756390066,-186954.48332482376,-187500.02235174447,-187500.02235174447,-187500.02235174447,-187500.02235174447,1730654136.9567847,1730654134.6711574,3000
29161.02458966072,-92622.96916520227,23118.163420935085,-186961.90410398296,-187500.02235174447,-187500.02235174447,-187500.02235174447,-187500.02235174447,1730654136.9618616,1730654134.6711574,3000
29217.82037232165,-92619.6611070229,23103.612435294683,-186961.09944118257,-187500.02235174447,-187500.02235174447,-187500.02235174447,-187500.02235174447,1730654136.9647696,1730654134.6711574,3000
29278.773579451277,-92639.30829039912,23143.80087182532,-186983.0935577266,-187500.02235174447,-187500.02235174447,-187500.02235174447,-187500.02235174447,1730654136.9678469,1730654134.6711574,3000
29255.348951262116,-92643.95745324582,23174.57922394028,-186988.0332932512,-187500.02235174447,-187500.02235174447,-187500.02235174447,-187500.02235174447,1730654136.9726727,1730654134.6711574,3000
29198.35200290108,-92656.876761541,23137.72119733348,-187001.46669166884,-187500.02235174447,-187500.02235174447,-187500.02235174447,-187500.02235174447,1730654136.9768076,1730654134.6711574,3000
29170.25586012076,-92657.39085166344,23136.983589766456,-187006.07115102664,-187500.02235174447,-187500.02235174447,-187500.02235174447,-187500.02235174447,1730654136.9806845,1730654134.6711574,3000
29206.46568613836,-92679.76494786322,23134.189621709545,-187029.51813096023,-187500.02235174447,-187500.02235174447,-187500.02235174447,-187500.02235174447,1730654136.9849284,1730654134.6711574,3000
29306.556797809222,-92655.37919466248,23128.109947217697,-187003.5901073921,-187500.02235174447,-187500.02235174447,-187500.02235174447,-187500.02235174447,1730654136.9887135,1730654134.6711574,3000
29267.84357641263,-92643.868046268,23133.34025542024,-186991.65427585292,-187500.02235174447,-187500.02235174447,-187500.02235174447,-187500.02235174447,1730654136.9929256,1730654134.6711574,3000
29190.66300280845,-92640.42587762188,23129.71927281848,-186986.8486507951,-187500.02235174447,-187500.02235174447,-187500.02235174447,-187500.02235174447,1730654136.9960003,1730654134.6711574,3000
29215.87577055404,-92664.85633431154,23146.14780499313,-187011.05559004017,-187500.02235174447,-187500.02235174447,-187500.02235174447,-187500.02235174447,1730654137.0009046,1730654134.6711574,3000
29183.01870620474,-92677.7756426067,23147.019523026887,-187023.37140123505,-187500.02235174447,-187500.02235174447,-187500.02235174447,-187500.02235174447,1730654137.0047348,1730654134.6711574,3000
29238.22751500935,-92664.7222238448,23130.76980480788,-187010.47444468437,-187500.02235174447,-187500.02235174447,-187500.02235174447,-187500.02235174447,1730654137.0089877,1730654134.6711574,3000
29262.635619954544,-92653.03226149468,23136.849479299723,-186999.7009038569,-187500.02235174447,-187500.02235174447,-187500.02235174447,-187500.02235174447,1730654137.0129397,1730654134.6711574,3000
29229.77855560524,-92679.76494786322,23119.213952924485,-187027.05943907017,-187500.02235174447,-187500.02235174447,-187500.02235174447,-187500.02235174447,1730654137.017028,1730654134.6711574,3000
29239.27804699875,-92700.88734637348,23124.46661287148,-187048.5394654917,-187500.02235174447,-187500.02235174447,-187500.02235174447,-187500.02235174447,1730654137.0209937,1730654134.6711574,3000
29243.54723018971,-92700.88734637348,23170.511206449417,-187047.0418986132,-187500.02235174447,-187500.02235174447,-187500.02235174447,-187500.02235174447,1730654137.0237913,1730654134.6711574,3000
29251.705616915897,-92695.45587247083,23150.662857373103,-187040.31402353215,-187500.02235174447,-187500.02235174447,-187500.02235174447,-187500.02235174447,1730654137.0280263,1730654134.6711574,3000
29266.4577682564,-92674.6240466385,23145.030217770367,-187017.15761627647,-187500.02235174447,-187500.02235174447,-187500.02235174447,-187500.02235174447,1730654137.0340097,1730654134.6711574,3000
29277.566585250686,-92689.86793635704,23138.05647350031,-187034.5696252072,-187500.02235174447,-187500.02235174447,-187500.02235174447,-187500.02235174447,1730654137.037052,1730654134.6711574,3000
29224.21297123587,-92713.51608199072,23112.3072638878,-187063.33632032116,-187500.02235174447,-187500.02235174447,-187500.02235174447,-187500.02235174447,1730654137.0410242,1730654134.6711574,3000
29219.653215366987,-92670.10899425852,23125.740662305438,-187021.3373924896,-187500.02235174447,-187500.02235174447,-187500.02235174447,-187500.02235174447,1730654137.0449965,1730654134.6711574,3000
29248.5540209477,-92668.74553784676,23156.451959187027,-187020.21980526685,-187500.02235174447,-187500.02235174447,-187500.02235174447,-187500.02235174447,1730654137.0491085,1730654134.6711574,3000
29247.45878546939,-92691.74548289126,23159.67061038859,-187042.0574595997,-187500.02235174447,-187500.02235174447,-187500.02235174447,-187500.02235174447,1730654137.052102,1730654134.6711574,3000
29220.569636889653,-92716.5335674922,23119.61628432468,-187067.1361168785,-187500.02235174447,-187500.02235174447,-187500.02235174447,-187500.02235174447,1730654137.0558393,1730654134.6711574,3000
29202.8447035366,-92720.9815646388,23145.700770104024,-187071.36059658055,-187500.02235174447,-187500.02235174447,-187500.02235174447,-187500.02235174447,1730654137.061144,1730654134.6711574,3000
29254.141957061525,-92711.83970115658,23160.72114237799,-187063.44807904345,-187500.02235174447,-187500.02235174447,-187500.02235174447,-187500.02235174447,1730654137.0648727,1730654134.6711574,3000
29277.298364317223,-92712.51025349024,23110.943807476026,-187064.9679976664,-187500.02235174447,-187500.02235174447,-187500.02235174447,-187500.02235174447,1730654137.0689049,1730654134.6711574,3000
29200.40836339097,-92694.53945094818,23164.185662768563,-187047.1983608244,-187500.02235174447,-187500.02235174447,-187500.02235174447,-187500.02235174447,1730654137.071898,1730654134.6711574,3000
29195.133351699515,-92686.55987817764,23162.397523212137,-187039.2411397983,-187500.02235174447,-187500.02235174447,-187500.02235174447,-187500.02235174447,1730654137.0760372,1730654134.6711574,3000
29227.901009071,-92714.34309653558,23126.09829021672,-187069.3712913241,-187500.02235174447,-187500.02235174447,-187500.02235174447,-187500.02235174447,1730654137.07983,1730654134.6711574,3000
29213.73000308633,-92724.2896228182,23139.330522934262,-187084.12344266457,-187500.02235174447,-187500.02235174447,-187500.02235174447,-187500.02235174447,1730654137.083978,1730654134.6711574,3000
29233.377186462545,-92725.5860239966,23135.843650799237,-187090.5160415788,-187500.02235174447,-187500.02235174447,-187500.02235174447,-187500.02235174447,1730654137.0888925,1730654134.6711574,3000
