Fp1,Fp2,C3,C4,P7,P8,O1,O2,time_board,time_marker,marker
24133.35730235068,-104923.5141186135,26560.712046708115,-187500.02235174447,-187500.02235174447,-187500.02235174447,-187500.02235174447,-187500.02235174447,1730656046.1960723,1730656046.1957345,4000
24140.174584409546,-104937.30514494242,26567.126997366788,-187500.02235174447,-187500.02235174447,-187500.02235174447,-187500.02235174447,-187500.02235174447,1730656046.1999812,1730656046.1957345,4000
24143.504994333387,-104985.8307821549,26564.35538105433,-187500.02235174447,-187500.02235174447,-187500.02235174447,-187500.02235174447,-187500.02235174447,1730656046.2041905,1730656046.1957345,4000
24144.935505978527,-104951.90083407174,26553.715950693604,-187500.02235174447,-187500.02235174447,-187500.02235174447,-187500.02235174447,-187500.02235174447,1730656046.2092164,1730656046.1957345,4000
24141.53804082132,-104949.5762526484,26567.21640434461,-187500.02235174447,-187500.02235174447,-187500.02235174447,-187500.02235174447,-187500.02235174447,1730656046.2139993,1730656046.1957345,4000
24139.50403207589,-104935.56170887491,26568.110474122823,-187500.02235174447,-187500.02235174447,-187500.02235174447,-187500.02235174447,-187500.02235174447,1730656046.2169545,1730656046.1957345,4000
24129.02106392635,-104969.98339533608,26558.141596095757,-187500.02235174447,-187500.02235174447,-187500.02235174447,-187500.02235174447,-187500.02235174447,1730656046.2211986,1730656046.1957345,4000
24118.22517135444,-104915.75806328752,26549.424415758185,-187500.02235174447,-187500.02235174447,-187500.02235174447,-187500.02235174447,-187500.02235174447,1730656046.2239568,1730656046.1957345,4000
24126.24944761389,-104926.39749364824,26575.128921881787,-187500.02235174447,-187500.02235174447,-187500.02235174447,-187500.02235174447,-187500.02235174447,1730656046.2279828,1730656046.1957345,4000
24131.81503198326,-104999.040663128,26588.98700344408,-187500.02235174447,-187500.02235174447,-187500.02235174447,-187500.02235174447,-187500.02235174447,1730656046.2320385,1730656046.1957345,4000
24129.78102323783,-104942.75897058952,26579.19693937265,-187500.02235174447,-187500.02235174447,-187500.02235174447,-187500.02235174447,-187500.02235174447,1730656046.236146,1730656046.1957345,4000
24155.954915994997,-104941.23905196656,26559.3709420408,-187500.02235174447,-187500.02235174447,-187500.02235174447,-187500.02235174447,-187500.02235174447,1730656046.241038,1730656046.1957345,4000
24174.372753426167,-104980.46636348564,26560.60028798584,-187500.02235174447,-187500.02235174447,-187500.02235174447,-187500.02235174447,-187500.02235174447,1730656046.245106,1730656046.1957345,4000
24156.29019216182,-104920.22841217858,26592.78680000148,-187500.02235174447,-187500.02235174447,-187500.02235174447,-187500.02235174447,-187500.02235174447,1730656046.2480865,1730656046.1957345,4000
24131.904438961083,-104971.65977617024,26525.217476513088,-187500.02235174447,-187500.02235174447,-187500.02235174447,-187500.02235174447,-187500.02235174447,1730656046.2521846,1730656046.1957345,4000
24192.477666434967,-104993.1398025918,26537.39917724123,-187500.02235174447,-187500.02235174447,-187500.02235174447,-187500.02235174447,-187500.02235174447,1730656046.2560952,1730656046.1957345,4000
24182.35232619671,-104965.44599121166,26614.17741944521,-187500.02235174447,-187500.02235174447,-187500.02235174447,-187500.02235174447,-187500.02235174447,1730656046.2600465,1730656046.1957345,4000
24124.349549335187,-104993.76565143654,26589.59050054437,-187500.02235174447,-187500.02235174447,-187500.02235174447,-187500.02235174447,-187500.02235174447,1730656046.2640953,1730656046.1957345,4000
24078.327307501717,-104945.41882817973,26545.736377923055,-187500.02235174447,-187500.02235174447,-187500.02235174447,-187500.02235174447,-187500.02235174447,1730656046.269038,1730656046.1957345,4000
24076.13683654509,-104952.1690550052,26543.702369177627,-187500.02235174447,-187500.02235174447,-187500.02235174447,-187500.02235174447,-187500.02235174447,1730656046.2732315,1730656046.1957345,4000
24135.16779365156,-104944.36829619033,26558.67803796268,-187500.02235174447,-187500.02235174447,-187500.02235174447,-187500.02235174447,-187500.02235174447,1730656046.27721,1730656046.1957345,4000
24227.905181396625,-104991.77634618,26579.398105072756,-187500.02235174447,-187500.02235174447,-187500.02235174447,-187500.02235174447,-187500.02235174447,1730656046.2801375,1730656046.1957345,4000
24201.418364217086,-104995.35262529286,26604.36500362933,-187500.02235174447,-187500.02235174447,-187500.02235174447,-187500.02235174447,-187500.02235174447,1730656046.2842293,1730656046.1957345,4000
24110.91615091755,-104967.0776685569,26585.20955863113,-187500.02235174447,-187500.02235174447,-187500.02235174447,-187500.02235174447,-187500.02235174447,1730656046.2882376,1730656046.1957345,4000
24079.511949957843,-104979.14761056277,26563.975401398588,-187500.02235174447,-187500.02235174447,-187500.02235174447,-187500.02235174447,-187500.02235174447,1730656046.2921743,1730656046.1957345,4000
24034.89786802505,-104965.24482551156,26496.58489186584,-187500.02235174447,-187500.02235174447,-187500.02235174447,-187500.02235174447,-187500.02235174447,1730656046.296144,1730656046.1957345,4000
24038.63060934909,-104945.2176624796,26521.44003170014,-187500.02235174447,-187500.02235174447,-187500.02235174447,-187500.02235174447,-187500.02235174447,1730656046.301264,1730656046.1957345,4000
24117.219342853947,-104982.54507571996,26592.362116856828,-187500.02235174447,-187500.02235174447,-187500.02235174447,-187500.02235174447,-187500.02235174447,1730656046.3042629,1730656046.1957345,4000
24160.559375352783,-104943.20600547864,26555.727607694585,-187500.02235174447,-187500.02235174447,-187500.02235174447,-187500.02235174447,-187500.02235174447,1730656046.3083167,1730656046.1957345,4000
24180.36302094019,-104937.48395889808,26545.84813664533,-187500.02235174447,-187500.02235174447,-187500.02235174447,-187500.02235174447,-187500.02235174447,1730656046.312215,1730656046.1957345,4000
24159.911174763583,-104932.767740818,26595.26784363602,-187500.02235174447,-187500.02235174447,-187500.02235174447,-187500.02235174447,-187500.02235174447,1730656046.316152,1730656046.1957345,4000
24096.789848421795,-104995.15145959276,26577.40879981623,-187500.02235174447,-187500.02235174447,-187500.02235174447,-187500.02235174447,-187500.02235174447,1730656046.320331,1730656046.1957345,4000
24080.830702880707,-104971.4809622146,26543.76942441099,-187500.02235174447,-187500.02235174447,-187500.02235174447,-187500.02235174447,-187500.02235174447,1730656046.324134,1730656046.1957345,4000
24161.67696257555,-104959.3216132309,26579.599270772847,-187500.02235174447,-187500.02235174447,-187500.02235174447,-187500.02235174447,-187500.02235174447,1730656046.3292444,1730656046.1957345,4000
24182.17351224107,-104985.65196819924,26609.46120136514,-187500.02235174447,-187500.02235174447,-187500.02235174447,-187500.02235174447,-187500.02235174447,1730656046.3321712,1730656046.1957345,4000
24153.49622410491,-105036.09985543488,26595.42430584721,-187500.02235174447,-187500.02235174447,-187500.02235174447,-187500.02235174447,-187500.02235174447,1730656046.3361769,1730656046.1957345,4000
24177.34553543872,-104976.13012506127,26592.116247667826,-187500.02235174447,-187500.02235174447,-187500.02235174447,-187500.02235174447,-187500.02235174447,1730656046.3401814,1730656046.1957345,4000
24183.02287853037,-104946.06702876891,26510.979415295056,-187500.02235174447,-187500.02235174447,-187500.02235174447,-187500.02235174447,-187500.02235174447,1730656046.3444607,1730656046.1957345,4000
24143.5496978223,-104969.80458138043,26531.96770333859,-187500.02235174447,-187500.02235174447,-187500.02235174447,-187500.02235174447,-187500.02235174447,1730656046.3485084,1730656046.1957345,4000
24029.68991156696,-105025.75099775208,26586.43890457617,-187500.02235174447,-187500.02235174447,-187500.02235174447,-187500.02235174447,-187500.02235174447,1730656046.3524015,1730656046.1957345,4000
24020.39158587356,-104995.2855700595,26632.50584989856,-187500.02235174447,-187500.02235174447,-187500.02235174447,-187500.02235174447,-187500.02235174447,1730656046.357396,1730656046.1957345,4000
24148.84706125821,-104955.00772655103,26628.102556240865,-187500.02235174447,-187500.02235174447,-187500.02235174447,-187500.02235174447,-187500.02235174447,1730656046.3602288,1730656046.1957345,4000
24208.257998020414,-104944.94944154614,26591.26688137852,-187500.02235174447,-187500.02235174447,-187500.02235174447,-187500.02235174447,-187500.02235174447,1730656046.364442,1730656046.1957345,4000
24157.228965428945,-104998.37011079432,26589.41168658873,-187500.02235174447,-187500.02235174447,-187500.02235174447,-187500.02235174447,-187500.02235174447,1730656046.3695347,1730656046.1957345,4000
24034.18261220248,-104998.6383317278,26609.9305879987,-187500.02235174447,-187500.02235174447,-187500.02235174447,-187500.02235174447,-187500.02235174447,1730656046.373351,1730656046.1957345,4000
24090.978394863418,-104940.30027869943,26593.524407568504,-187500.02235174447,-187500.02235174447,-187500.02235174447,-187500.02235174447,-187500.02235174447,1730656046.3796568,1730656046.1957345,4000
24156.73722705093,-104979.86286638532,26563.036628131467,-187500.02235174447,-187500.02235174447,-187500.02235174447,-187500.02235174447,-187500.02235174447,1730656046.3823545,1730656046.1957345,4000
24208.16859104259,-105030.8918989768,26575.3747910708,-187500.02235174447,-187500.02235174447,-187500.02235174447,-187500.02235174447,-187500.02235174447,1730656046.3856463,1730656046.1957345,4000
24183.916948308583,-104989.71998569011,26629.287198696995,-187500.02235174447,-187500.02235174447,-187500.02235174447,-187500.02235174447,-187500.02235174447,1730656046.389546,1730656046.1957345,4000
24166.527291122355,-104971.50331395904,26650.811928607454,-187500.02235174447,-187500.02235174447,-187500.02235174447,-187500.02235174447,-187500.02235174447,1730656046.3924727,1730656046.1957345,4000
24048.152452487047,-105024.61105878484,26657.89743159979,-187500.02235174447,-187500.02235174447,-187500.02235174447,-187500.02235174447,-187500.02235174447,1730656046.396524,1730656046.1957345,4000
23958.74547466582,-105037.284497891,26626.202657962163,-187500.02235174447,-187500.02235174447,-187500.02235174447,-187500.02235174447,-187500.02235174447,1730656046.4005532,1730656046.1957345,4000
23994.75413498332,-104979.0805553294,26569.429227045683,-187500.02235174447,-187500.02235174447,-187500.02235174447,-187500.02235174447,-187500.02235174447,1730656046.4045863,1730656046.1957345,4000
24112.41371779605,-104953.15253176124,26547.18924131265,-187500.02235174447,-187500.02235174447,-187500.02235174447,-187500.02235174447,-187500.02235174447,1730656046.4083638,1730656046.1957345,4000
24200.45723920551,-104920.58604008984,26679.511568488077,-187500.02235174447,-187500.02235174447,-187500.02235174447,-187500.02235174447,-187500.02235174447,1730656046.4125588,1730656046.1957345,4000
24030.449870878445,-104958.56165391945,26661.00432407908,-187500.02235174447,-187500.02235174447,-187500.02235174447,-187500.02235174447,-187500.02235174447,1730656046.41526,1730656046.1957345,4000
24021.28565565177,-104939.11563624332,26599.3805646158,-187500.02235174447,-187500.02235174447,-187500.02235174447,-187500.02235174447,-187500.02235174447,1730656046.4195962,1730656046.1957345,4000
24139.01229369787,-104931.02430475048,26591.512750567526,-187500.02235174447,-187500.02235174447,-187500.02235174447,-187500.02235174447,-187500.02235174447,1730656046.4248097,1730656046.1957345,4000
24213.2647887784,-104946.80463633592,26631.388262675795,-187500.02235174447,-187500.02235174447,-187500.02235174447,-187500.02235174447,-187500.02235174447,1730656046.4283316,1730656046.1957345,4000
24145.00256121189,-104964.48486620007,26571.88791893577,-187500.02235174447,-187500.02235174447,-187500.02235174447,-187500.02235174447,-187500.02235174447,1730656046.4323423,1730656046.1957345,4000
24032.32741741269,-105012.786985968,26548.03860760196,-187500.02235174447,-187500.02235174447,-187500.02235174447,-187500.02235174447,-187500.02235174447,1730656046.4363632,1730656046.1957345,4000
24010.42270784649,-104962.20498826564,26598.3300326264,-187500.02235174447,-187500.02235174447,-187500.02235174447,-187500.02235174447,-187500.02235174447,1730656046.4393697,1730656046.1957345,4000
24163.73332306544,-104969.55871219144,26613.708032811646,-187500.02235174447,-187500.02235174447,-187500.02235174447,-187500.02235174447,-187500.02235174447,1730656046.4435515,1730656046.1957345,4000
24174.730381337453,-104992.93863689167,26581.40976207373,-187500.02235174447,-187500.02235174447,-187500.02235174447,-187500.02235174447,-187500.02235174447,1730656046.4475322,1730656046.1957345,4000
24125.333026091223,-105008.1825266102,26583.801398730448,-187500.02235174447,-187500.02235174447,-187500.02235174447,-187500.02235174447,-187500.02235174447,1730656046.4525292,1730656046.1957345,4000
24075.66744991153,-104957.46641844112,26642.36296920335,-187500.02235174447,-187500.02235174447,-187500.02235174447,-187500.02235174447,-187500.02235174447,1730656046.4565213,1730656046.1957345,4000
24089.659641940558,-104994.32444504793,26669.36387650536,-187500.02235174447,-187500.02235174447,-187500.02235174447,-187500.02235174447,-187500.02235174447,1730656046.4605265,1730656046.1957345,4000
24212.862457378204,-104968.50818020204,26660.2443647676,-187500.02235174447,-187500.02235174447,-187500.02235174447,-187500.02235174447,-187500.02235174447,1730656046.4635236,1730656046.1957345,4000
24190.08602977825,-104921.8153860349,26637.71380635665,-187500.02235174447,-187500.02235174447,-187500.02235174447,-187500.02235174447,-187500.02235174447,1730656046.467515,1730656046.1957345,4000
24072.96288883244,-104920.8095575344,26647.41446345025,-187500.02235174447,-187500.02235174447,-187500.02235174447,-187500.02235174447,-187500.02235174447,1730656046.4715106,1730656046.1957345,4000
24095.04641235428,-104969.06697381342,26644.486384926604,-187500.02235174447,-187500.02235174447,-187500.02235174447,-187500.02235174447,-187500.02235174447,1730656046.4756398,1730656046.1957345,4000
24111.00555789537,-104938.84741530984,26625.241532950586,-187500.02235174447,-187500.02235174447,-187500.02235174447,-187500.02235174447,-187500.02235174447,1730656046.4795802,1730656046.1957345,4000
24114.82770619723,-104927.6715430822,26612.679852566704,-187500.02235174447,-187500.02235174447,-187500.02235174447,-187500.02235174447,-187500.02235174447,1730656046.4845817,1730656046.1957345,4000
24095.605205965665,-104955.2759474845,26672.873100384844,-187500.02235174447,-187500.02235174447,-187500.02235174447,-187500.02235174447,-187500.02235174447,1730656046.4885454,1730656046.1957345,4000
24124.349549335187,-104980.84634314135,26734.67567380377,-187500.02235174447,-187500.02235174447,-187500.02235174447,-187500.02235174447,-187500.02235174447,1730656046.4915724,1730656046.1957345,4000
24086.888025628094,-104943.9212613012,26726.85256324441,-187500.02235174447,-187500.02235174447,-187500.02235174447,-187500.02235174447,-187500.02235174447,1730656046.4956193,1730656046.1957345,4000
24097.415697266544,-104912.38294987477,26786.196444773253,-187500.02235174447,-187500.02235174447,-187500.02235174447,-187500.02235174447,-187500.02235174447,1730656046.4994838,1730656046.1957345,4000
24043.86091755163,-104950.89500557123,26672.85074864039,-187500.02235174447,-187500.02235174447,-187500.02235174447,-187500.02235174447,-187500.02235174447,1730656046.503456,1730656046.1957345,4000
24026.09128070966,-105013.4351865572,26528.257313759008,-187500.02235174447,-187500.02235174447,-187500.02235174447,-187500.02235174447,-187500.02235174447,1730656046.5074773,1730656046.1957345,4000
24105.015290381347,-104963.76961037752,26509.9065315612,-187500.02235174447,-187500.02235174447,-187500.02235174447,-187500.02235174447,-187500.02235174447,1730656046.512559,1730656046.1957345,4000
24126.76353773636,-104894.27803686596,26608.63418682029,-187500.02235174447,-187500.02235174447,-187500.02235174447,-187500.02235174447,-187500.02235174447,1730656046.5165532,1730656046.1957345,4000
24016.591789316157,-104903.263438137,26804.860151393437,-187500.02235174447,-187500.02235174447,-187500.02235174447,-187500.02235174447,-187500.02235174447,1730656046.519704,1730656046.1957345,4000
23927.095404517106,-104898.8154409904,26918.8540481155,-187500.02235174447,-187500.02235174447,-187500.02235174447,-187500.02235174447,-187500.02235174447,1730656046.5234883,1730656046.1957345,4000
23953.671628674463,-104981.33808151938,26721.77871725306,-187500.02235174447,-187500.02235174447,-187500.02235174447,-187500.02235174447,-187500.02235174447,1730656046.5275867,1730656046.1957345,4000
24121.10854638917,-104960.014517309,26498.68595584464,-187500.02235174447,-187500.02235174447,-187500.02235174447,-187500.02235174447,-187500.02235174447,1730656046.5316243,1730656046.1957345,4000
24197.797381615328,-104938.75800833202,26480.44693236911,-187500.02235174447,-187500.02235174447,-187500.02235174447,-187500.02235174447,-187500.02235174447,1730656046.5357463,1730656046.1957345,4000
24137.55943030828,-104956.75116261854,26497.076630243857,-187500.02235174447,-187500.02235174447,-187500.02235174447,-187500.02235174447,-187500.02235174447,1730656046.5404797,1730656046.1957345,4000
24098.063897855747,-104967.45764821264,26574.27955559249,-187500.02235174447,-187500.02235174447,-187500.02235174447,-187500.02235174447,-187500.02235174447,1730656046.5447247,1730656046.1957345,4000
24090.419601252037,-104988.02125311152,26647.45916693916,-187500.02235174447,-187500.02235174447,-187500.02235174447,-187500.02235174447,-187500.02235174447,1730656046.5476875,1730656046.1957345,4000
24127.277627858835,-104938.33332518736,26635.523335400027,-187500.02235174447,-187500.02235174447,-187500.02235174447,-187500.02235174447,-187500.02235174447,1730656046.551654,1730656046.1957345,4000
24140.53221232083,-104942.84837756734,26616.010262490545,-187500.02235174447,-187500.02235174447,-187500.02235174447,-187500.02235174447,-187500.02235174447,1730656046.5556772,1730656046.1957345,4000
24188.007317543903,-105013.09991039036,26614.199771189666,-187500.02235174447,-187500.02235174447,-187500.02235174447,-187500.02235174447,-187500.02235174447,1730656046.5596552,1730656046.1957345,4000
24130.60803778268,-104968.48582845756,26628.52723938552,-187500.02235174447,-187500.02235174447,-187500.02235174447,-187500.02235174447,-187500.02235174447,1730656046.5635338,1730656046.1957345,4000
24063.485749183383,-104968.26231101302,26664.893527614306,-187500.02235174447,-187500.02235174447,-187500.02235174447,-187500.02235174447,-187500.02235174447,1730656046.568712,1730656046.1957345,4000
24068.42548470801,-104988.24477055608,26656.93630658821,-187500.02235174447,-187500.02235174447,-187500.02235174447,-187500.02235174447,-187500.02235174447,1730656046.572528,1730656046.1957345,4000
24093.61590070914,-104993.0280438695,26599.31350938243,-187500.02235174447,-187500.02235174447,-187500.02235174447,-187500.02235174447,-187500.02235174447,1730656046.575519,1730656046.1957345,4000
24089.70434542946,-104965.53539818947,26622.62637884932,-187500.02235174447,-187500.02235174447,-187500.02235174447,-187500.02235174447,-187500.02235174447,1730656046.5796697,1730656046.1957345,4000
24096.92395888853,-104957.46641844112,26656.55632693247,-187500.02235174447,-187500.02235174447,-187500.02235174447,-187500.02235174447,-187500.02235174447,1730656046.5835433,1730656046.1957345,4000
24105.998767137386,-104975.526627961,26752.75823506811,-187500.02235174447,-187500.02235174447,-187500.02235174447,-187500.02235174447,-187500.02235174447,1730656046.5877376,1730656046.1957345,4000
24002.59959728713,-105001.16407885124,26661.853690368374,-187500.02235174447,-187500.02235174447,-187500.02235174447,-187500.02235174447,-187500.02235174447,1730656046.5918632,1730656046.1957345,4000
24005.28180662177,-104984.84730539889,26561.807282186423,-187500.02235174447,-187500.02235174447,-187500.02235174447,-187500.02235174447,-187500.02235174447,1730656046.5968032,1730656046.1957345,4000
24131.72562500544,-104959.63453765328,26625.532105628507,-187500.02235174447,-187500.02235174447,-187500.02235174447,-187500.02235174447,-187500.02235174447,1730656046.5995626,1730656046.1957345,4000
24111.787868951305,-104973.55967444892,26629.153088230265,-187500.02235174447,-187500.02235174447,-187500.02235174447,-187500.02235174447,-187500.02235174447,1730656046.6047895,1730656046.1957345,4000
24079.556653446754,-105030.19899489867,26652.46595769715,-187500.02235174447,-187500.02235174447,-187500.02235174447,-187500.02235174447,-187500.02235174447,1730656046.6075656,1730656046.1957345,4000
24028.214696432915,-104936.61224086431,26634.517506899538,-187500.02235174447,-187500.02235174447,-187500.02235174447,-187500.02235174447,-187500.02235174447,1730656046.6117752,1730656046.1957345,4000
24083.82583663772,-104910.34894112933,26631.298855697973,-187500.02235174447,-187500.02235174447,-187500.02235174447,-187500.02235174447,-187500.02235174447,1730656046.6156068,1730656046.1957345,4000
24126.830592969727,-104932.7230373291,26642.31826571444,-187500.02235174447,-187500.02235174447,-187500.02235174447,-187500.02235174447,-187500.02235174447,1730656046.6197753,1730656046.1957345,4000
24084.07170582673,-104985.31669203244,26626.113250984345,-187500.02235174447,-187500.02235174447,-187500.02235174447,-187500.02235174447,-187500.02235174447,1730656046.6236148,1730656046.1957345,4000
24096.789848421795,-104981.87452338632,26608.32126239792,-187500.02235174447,-187500.02235174447,-187500.02235174447,-187500.02235174447,-187500.02235174447,1730656046.6278453,1730656046.1957345,4000
24083.42350523752,-104939.5626711324,26594.30671862444,-187500.02235174447,-187500.02235174447,-187500.02235174447,-187500.02235174447,-187500.02235174447,1730656046.6308134,1730656046.1957345,4000
24070.459493453443,-104968.7764011355,26638.540820901493,-187500.02235174447,-187500.02235174447,-187500.02235174447,-187500.02235174447,-187500.02235174447,1730656046.6357703,1730656046.1957345,4000
24078.461417968443,-104951.81142709393,26636.21623947814,-187500.02235174447,-187500.02235174447,-187500.02235174447,-187500.02235174447,-187500.02235174447,1730656046.639814,1730656046.1957345,4000
24109.91032241706,-104918.6190865778,26628.46018415215,-187500.02235174447,-187500.02235174447,-187500.02235174447,-187500.02235174447,-187500.02235174447,1730656046.6436794,1730656046.1957345,4000
24126.182392380524,-104948.86099682582,26626.71674808464,-187500.02235174447,-187500.02235174447,-187500.02235174447,-187500.02235174447,-187500.02235174447,1730656046.6477823,1730656046.1957345,4000
24106.22228458193,-105007.98136091013,26632.46114640965,-187500.02235174447,-187500.02235174447,-187500.02235174447,-187500.02235174447,-187500.02235174447,1730656046.651762,1730656046.1957345,4000
24090.509008229856,-104959.90275858674,26631.611780120347,-187500.02235174447,-187500.02235174447,-187500.02235174447,-187500.02235174447,-187500.02235174447,1730656046.655708,1730656046.1957345,4000
24096.611034466157,-104981.20397105264,26621.486439882094,-187500.02235174447,-187500.02235174447,-187500.02235174447,-187500.02235174447,-187500.02235174447,1730656046.6587193,1730656046.1957345,4000
24104.121220603138,-105001.09702361788,26699.04699314201,-187500.02235174447,-187500.02235174447,-187500.02235174447,-187500.02235174447,-187500.02235174447,1730656046.6638207,1730656046.1957345,4000
24090.21843555193,-104960.9756423206,26785.280023250583,-187500.02235174447,-187500.02235174447,-187500.02235174447,-187500.02235174447,-187500.02235174447,1730656046.6678305,1730656046.1957345,4000
24001.772582742284,-104963.21081676614,26730.58530456845,-187500.02235174447,-187500.02235174447,-187500.02235174447,-187500.02235174447,-187500.02235174447,1730656046.6716905,1730656046.1957345,4000
23998.37511758508,-105003.7345294636,26579.19693937265,-187500.02235174447,-187500.02235174447,-187500.02235174447,-187500.02235174447,-187500.02235174447,1730656046.6758552,1730656046.1957345,4000
24094.778191420817,-105004.67330273072,26557.627505973283,-187500.02235174447,-187500.02235174447,-187500.02235174447,-187500.02235174447,-187500.02235174447,1730656046.679809,1730656046.1957345,4000
24162.92866026505,-104964.99895632255,26596.877169236803,-187500.02235174447,-187500.02235174447,-187500.02235174447,-187500.02235174447,-187500.02235174447,1730656046.682655,1730656046.1957345,4000
24124.66247375756,-104958.44989519716,26612.389279888783,-187500.02235174447,-187500.02235174447,-187500.02235174447,-187500.02235174447,-187500.02235174447,1730656046.6868172,1730656046.1957345,4000
24035.85899303663,-104999.3312358059,26635.74685284458,-187500.02235174447,-187500.02235174447,-187500.02235174447,-187500.02235174447,-187500.02235174447,1730656046.6917236,1730656046.1957345,4000
24027.41003363252,-104974.76666864952,26647.660332639254,-187500.02235174447,-187500.02235174447,-187500.02235174447,-187500.02235174447,-187500.02235174447,1730656046.6958747,1730656046.1957345,4000
24052.77926358929,-104967.43529646816,26621.486439882094,-187500.02235174447,-187500.02235174447,-187500.02235174447,-187500.02235174447,-187500.02235174447,1730656046.6998675,1730656046.1957345,4000
24096.05224085477,-104997.52074450502,26609.416497876227,-187500.02235174447,-187500.02235174447,-187500.02235174447,-187500.02235174447,-187500.02235174447,1730656046.7038865,1730656046.1957345,4000
24139.235811142426,-104947.34107820288,26643.525259915023,-187500.02235174447,-187500.02235174447,-187500.02235174447,-187500.02235174447,-187500.02235174447,1730656046.7067027,1730656046.1957345,4000
24099.96379613445,-104916.18274643215,26657.875079855334,-187500.02235174447,-187500.02235174447,-187500.02235174447,-187500.02235174447,-187500.02235174447,1730656046.710857,1730656046.1957345,4000
24030.785147045277,-104970.49748545856,26623.74396607208,-187500.02235174447,-187500.02235174447,-187500.02235174447,-187500.02235174447,-187500.02235174447,1730656046.7148733,1730656046.1957345,4000
24109.35152880568,-104978.61116869585,26633.9363615437,-187500.02235174447,-187500.02235174447,-187500.02235174447,-187500.02235174447,-187500.02235174447,1730656046.719849,1730656046.1957345,4000
24128.99871218189,-104927.55978435992,26637.31147495645,-187500.02235174447,-187500.02235174447,-187500.02235174447,-187500.02235174447,-187500.02235174447,1730656046.7240164,1730656046.1957345,4000
24072.24763300987,-104940.56849963292,26653.18121351972,-187500.02235174447,-187500.02235174447,-187500.02235174447,-187500.02235174447,-187500.02235174447,1730656046.727864,1730656046.1957345,4000
24114.60418875268,-104998.30305556096,26650.543707673995,-187500.02235174447,-187500.02235174447,-187500.02235174447,-187500.02235174447,-187500.02235174447,1730656046.7317717,1730656046.1957345,4000
24140.91219197657,-105041.17370142625,26683.33371678993,-187500.02235174447,-187500.02235174447,-187500.02235174447,-187500.02235174447,-187500.02235174447,1730656046.7348678,1730656046.1957345,4000
24062.23405149389,-104976.10777331683,26713.553275293503,-187500.02235174447,-187500.02235174447,-187500.02235174447,-187500.02235174447,-187500.02235174447,1730656046.7388377,1730656046.1957345,4000
24002.644300776043,-104984.75789842104,26670.61557419486,-187500.02235174447,-187500.02235174447,-187500.02235174447,-187500.02235174447,-187500.02235174447,1730656046.7428997,1730656046.1957345,4000
24078.17084529053,-105002.08050037392,26624.07924223891,-187500.02235174447,-187500.02235174447,-187500.02235174447,-187500.02235174447,-187500.02235174447,1730656046.7467809,1730656046.1957345,4000
24137.268857630355,-105031.4506925882,26631.12004174233,-187500.02235174447,-187500.02235174447,-187500.02235174447,-187500.02235174447,-187500.02235174447,1730656046.751972,1730656046.1957345,4000
24078.327307501717,-104988.9376746342,26660.959620590165,-187500.02235174447,-187500.02235174447,-187500.02235174447,-187500.02235174447,-187500.02235174447,1730656046.755862,1730656046.1957345,4000
23980.94075690994,-105008.92013417724,26652.868289097347,-187500.02235174447,-187500.02235174447,-187500.02235174447,-187500.02235174447,-187500.02235174447,1730656046.758957,1730656046.1957345,4000
24031.76862380131,-105021.8394424724,26578.280517849988,-187500.02235174447,-187500.02235174447,-187500.02235174447,-187500.02235174447,-187500.02235174447,1730656046.7628984,1730656046.1957345,4000
24151.17164268156,-104961.08740104288,26573.676058492198,-187500.02235174447,-187500.02235174447,-187500.02235174447,-187500.02235174447,-187500.02235174447,1730656046.7681012,1730656046.1957345,4000
24193.97523331347,-104962.272043499,26637.84791682338,-187500.02235174447,-187500.02235174447,-187500.02235174447,-187500.02235174447,-187500.02235174447,1730656046.7719915,1730656046.1957345,4000
24171.53408188034,-104989.2282473121,26660.400826978785,-187500.02235174447,-187500.02235174447,-187500.02235174447,-187500.02235174447,-187500.02235174447,1730656046.7760603,1730656046.1957345,4000
24044.5761733742,-105032.0988931774,26600.945186727666,-187500.02235174447,-187500.02235174447,-187500.02235174447,-187500.02235174447,-187500.02235174447,1730656046.7800338,1730656046.1957345,4000
24031.76862380131,-104992.29043630249,26648.487347184106,-187500.02235174447,-187500.02235174447,-187500.02235174447,-187500.02235174447,-187500.02235174447,1730656046.783906,1730656046.1957345,4000
24032.81915579071,-104989.56352347894,26639.054911023966,-187500.02235174447,-187500.02235174447,-187500.02235174447,-187500.02235174447,-187500.02235174447,1730656046.7870977,1730656046.1957345,4000
24087.893854128582,-104994.50325900356,26603.001547217555,-187500.02235174447,-187500.02235174447,-187500.02235174447,-187500.02235174447,-187500.02235174447,1730656046.790858,1730656046.1957345,4000
24160.98405849744,-104959.83570335338,26634.22693422162,-187500.02235174447,-187500.02235174447,-187500.02235174447,-187500.02235174447,-187500.02235174447,1730656046.794963,1730656046.1957345,4000
24175.44563716002,-104977.42652623972,26674.549481218997,-187500.02235174447,-187500.02235174447,-187500.02235174447,-187500.02235174447,-187500.02235174447,1730656046.7988997,1730656046.1957345,4000
24165.052075988304,-105063.5030941371,26722.62808354236,-187500.02235174447,-187500.02235174447,-187500.02235174447,-187500.02235174447,-187500.02235174447,1730656046.8029785,1730656046.1957345,4000
24076.181540034,-105021.14653839429,26672.537824218016,-187500.02235174447,-187500.02235174447,-187500.02235174447,-187500.02235174447,-187500.02235174447,1730656046.8079033,1730656046.1957345,4000
24041.961019272927,-104978.76763090702,26627.923742285224,-187500.02235174447,-187500.02235174447,-187500.02235174447,-187500.02235174447,-187500.02235174447,1730656046.81198,1730656046.1957345,4000
24074.52751094431,-105005.85794518686,26689.56985349296,-187500.02235174447,-187500.02235174447,-187500.02235174447,-187500.02235174447,-187500.02235174447,1730656046.814882,1730656046.1957345,4000
24018.42463236149,-105016.40796856977,26664.80412063648,-187500.02235174447,-187500.02235174447,-187500.02235174447,-187500.02235174447,-187500.02235174447,1730656046.8190255,1730656046.1957345,4000
23998.755097240817,-105061.290271436,26653.807062364467,-187500.02235174447,-187500.02235174447,-187500.02235174447,-187500.02235174447,-187500.02235174447,1730656046.823002,1730656046.1957345,4000
24056.646115380063,-105019.58191628242,26673.45424574068,-187500.02235174447,-187500.02235174447,-187500.02235174447,-187500.02235174447,-187500.02235174447,1730656046.8269987,1730656046.1957345,4000
24102.19897057998,-105025.10279716288,26621.329977670903,-187500.02235174447,-187500.02235174447,-187500.02235174447,-187500.02235174447,-187500.02235174447,1730656046.8311455,1730656046.1957345,4000
24158.078331718247,-105061.73730632511,26615.51852411253,-187500.02235174447,-187500.02235174447,-187500.02235174447,-187500.02235174447,-187500.02235174447,1730656046.835984,1730656046.1957345,4000
24127.992883681403,-105050.02499223054,26635.500983655573,-187500.02235174447,-187500.02235174447,-187500.02235174447,-187500.02235174447,-187500.02235174447,1730656046.8399186,1730656046.1957345,4000
24008.7686787568,-105059.70329757968,26592.473875579104,-187500.02235174447,-187500.02235174447,-187500.02235174447,-187500.02235174447,-187500.02235174447,1730656046.8431232,1730656046.1957345,4000
24091.20191230797,-105071.9520535412,26617.12784971331,-187500.02235174447,-187500.02235174447,-187500.02235174447,-187500.02235174447,-187500.02235174447,1730656046.8471253,1730656046.1957345,4000
24139.705197775984,-105065.67121334924,26657.89743159979,-187500.02235174447,-187500.02235174447,-187500.02235174447,-187500.02235174447,-187500.02235174447,1730656046.851127,1730656046.1957345,4000
24116.191162609,-105048.25920441856,26635.299817955474,-187500.02235174447,-187500.02235174447,-187500.02235174447,-187500.02235174447,-187500.02235174447,1730656046.8551023,1730656046.1957345,4000
24189.706050122502,-105039.40791361428,26679.80214116599,-187500.02235174447,-187500.02235174447,-187500.02235174447,-187500.02235174447,-187500.02235174447,1730656046.8611455,1730656046.1957345,4000
24113.55365676328,-105086.48068743714,26653.31532398645,-187500.02235174447,-187500.02235174447,-187500.02235174447,-187500.02235174447,-187500.02235174447,1730656046.8639877,1730656046.1957345,4000
23997.592806529145,-105033.77527401154,26628.81781206344,-187500.02235174447,-187500.02235174447,-187500.02235174447,-187500.02235174447,-187500.02235174447,1730656046.8670893,1730656046.1957345,4000
24004.164219399005,-105033.3952943558,26634.763376088547,-187500.02235174447,-187500.02235174447,-187500.02235174447,-187500.02235174447,-187500.02235174447,1730656046.8700988,1730656046.1957345,4000
24073.544034188275,-105019.44780581568,26633.042291765487,-187500.02235174447,-187500.02235174447,-187500.02235174447,-187500.02235174447,-187500.02235174447,1730656046.8751144,1730656046.1957345,4000
24113.82187769674,-105082.12209726837,26645.112233771357,-187500.02235174447,-187500.02235174447,-187500.02235174447,-187500.02235174447,-187500.02235174447,1730656046.879151,1730656046.1957345,4000
24149.87524150315,-105083.95494031368,26675.75647541958,-187500.02235174447,-187500.02235174447,-187500.02235174447,-187500.02235174447,-187500.02235174447,1730656046.883031,1730656046.1957345,4000
24155.66434331708,-105058.2504341901,26666.1452253038,-187500.02235174447,-187500.02235174447,-187500.02235174447,-187500.02235174447,-187500.02235174447,1730656046.8870828,1730656046.1957345,4000
24106.4905055154,-105070.67800410723,26663.03833282451,-187500.02235174447,-187500.02235174447,-187500.02235174447,-187500.02235174447,-187500.02235174447,1730656046.891078,1730656046.1957345,4000
24014.44602184845,-105106.93253361376,26657.15982403277,-187500.02235174447,-187500.02235174447,-187500.02235174447,-187500.02235174447,-187500.02235174447,1730656046.895174,1730656046.1957345,4000
24002.219617631392,-105104.83146963496,26619.36302415884,-187500.02235174447,-187500.02235174447,-187500.02235174447,-187500.02235174447,-187500.02235174447,1730656046.8981304,1730656046.1957345,4000
24060.557670659746,-105060.21738770216,26607.538951341983,-187500.02235174447,-187500.02235174447,-187500.02235174447,-187500.02235174447,-187500.02235174447,1730656046.9032404,1730656046.1957345,4000
24123.991921423905,-105054.76356205509,26630.561248130947,-187500.02235174447,-187500.02235174447,-187500.02235174447,-187500.02235174447,-187500.02235174447,1730656046.907035,1730656046.1957345,4000
24093.34767977568,-105107.82660339196,26649.00143730658,-187500.02235174447,-187500.02235174447,-187500.02235174447,-187500.02235174447,-187500.02235174447,1730656046.9112608,1730656046.1957345,4000
24055.215603734923,-105111.71580692718,26618.37954740281,-187500.02235174447,-187500.02235174447,-187500.02235174447,-187500.02235174447,-187500.02235174447,1730656046.915076,1730656046.1957345,4000
24069.543071930777,-105066.4535244052,26601.83925650588,-187500.02235174447,-187500.02235174447,-187500.02235174447,-187500.02235174447,-187500.02235174447,1730656046.9193397,1730656046.1957345,4000
24101.796639179785,-105038.0891606914,26650.789576863,-187500.02235174447,-187500.02235174447,-187500.02235174447,-187500.02235174447,-187500.02235174447,1730656046.9232056,1730656046.1957345,4000
24063.37399046111,-105056.61875684484,26649.40376870677,-187500.02235174447,-187500.02235174447,-187500.02235174447,-187500.02235174447,-187500.02235174447,1730656046.926433,1730656046.1957345,4000
24034.42848139149,-105110.03942609303,26653.51648968655,-187500.02235174447,-187500.02235174447,-187500.02235174447,-187500.02235174447,-187500.02235174447,1730656046.9313197,1730656046.1957345,4000
24087.804447150764,-105044.74998053908,26664.13356830282,-187500.02235174447,-187500.02235174447,-187500.02235174447,-187500.02235174447,-187500.02235174447,1730656046.9352596,1730656046.1957345,4000
24080.47307496942,-105070.63330061833,26636.70797785616,-187500.02235174447,-187500.02235174447,-187500.02235174447,-187500.02235174447,-187500.02235174447,1730656046.9391768,1730656046.1957345,4000
24130.67509301604,-105092.47095495118,26654.634076909315,-187500.02235174447,-187500.02235174447,-187500.02235174447,-187500.02235174447,-187500.02235174447,1730656046.9434073,1730656046.1957345,4000
24165.320296921767,-105104.3620830014,26645.9392483162,-187500.02235174447,-187500.02235174447,-187500.02235174447,-187500.02235174447,-187500.02235174447,1730656046.9463797,1730656046.1957345,4000
24091.55954021925,-105082.07739377946,26634.62926562181,-187500.02235174447,-187500.02235174447,-187500.02235174447,-187500.02235174447,-187500.02235174447,1730656046.9503274,1730656046.1957345,4000
24054.56740314572,-105093.11915554038,26667.352219504384,-187500.02235174447,-187500.02235174447,-187500.02235174447,-187500.02235174447,-187500.02235174447,1730656046.954255,1730656046.1957345,4000
24056.71317061343,-105146.53982478856,26696.297728574005,-187500.02235174447,-187500.02235174447,-187500.02235174447,-187500.02235174447,-187500.02235174447,1730656046.959687,1730656046.1957345,4000
24037.44596689296,-105082.07739377946,26658.746797889093,-187500.02235174447,-187500.02235174447,-187500.02235174447,-187500.02235174447,-187500.02235174447,1730656046.9634695,1730656046.1957345,4000
24051.7287315999,-105083.15027751333,26590.3281081114,-187500.02235174447,-187500.02235174447,-187500.02235174447,-187500.02235174447,-187500.02235174447,1730656046.9675193,1730656046.1957345,4000
24120.16977312205,-105085.2066380032,26594.59729130236,-187500.02235174447,-187500.02235174447,-187500.02235174447,-187500.02235174447,-187500.02235174447,1730656046.9713757,1730656046.1957345,4000
24150.366979881168,-105117.03552210754,26641.446547680684,-187500.02235174447,-187500.02235174447,-187500.02235174447,-187500.02235174447,-187500.02235174447,1730656046.974172,1730656046.1957345,4000
24137.49237507491,-105085.2513414921,26643.637018637302,-187500.02235174447,-187500.02235174447,-187500.02235174447,-187500.02235174447,-187500.02235174447,1730656046.9783432,1730656046.1957345,4000
24068.313725985736,-105075.41657393175,26669.47563522764,-187500.02235174447,-187500.02235174447,-187500.02235174447,-187500.02235174447,-187500.02235174447,1730656046.9822009,1730656046.1957345,4000
24021.44211786296,-105077.42823093275,26665.318210758956,-187500.02235174447,-187500.02235174447,-187500.02235174447,-187500.02235174447,-187500.02235174447,1730656046.986238,1730656046.1957345,4000
24021.6209318186,-105105.72553941316,26630.158916730757,-187500.02235174447,-187500.02235174447,-187500.02235174447,-187500.02235174447,-187500.02235174447,1730656046.9912033,1730656046.1957345,4000
24082.90941511505,-105109.32417027048,26634.092823754887,-187500.02235174447,-187500.02235174447,-187500.02235174447,-187500.02235174447,-187500.02235174447,1730656046.9952998,1730656046.1957345,4000
24137.82765124174,-105073.69548960873,26660.93726884571,-187500.02235174447,-187500.02235174447,-187500.02235174447,-187500.02235174447,-187500.02235174447,1730656046.9992049,1730656046.1957345,4000
24094.644080954087,-105084.46903043616,26627.923742285224,-187500.02235174447,-187500.02235174447,-187500.02235174447,-187500.02235174447,-187500.02235174447,1730656047.0022924,1730656046.1957345,4000
24026.85124002114,-105129.39603679134,26593.83733199088,-187500.02235174447,-187500.02235174447,-187500.02235174447,-187500.02235174447,-187500.02235174447,1730656047.0063543,1730656046.1957345,4000
24042.564516373222,-105125.19390883374,26633.98106503261,-187500.02235174447,-187500.02235174447,-187500.02235174447,-187500.02235174447,-187500.02235174447,1730656047.0104456,1730656046.1957345,4000
24077.85792086815,-105031.3389338659,26641.13362325831,-187500.02235174447,-187500.02235174447,-187500.02235174447,-187500.02235174447,-187500.02235174447,1730656047.0144317,1730656046.1957345,4000
24097.77332517783,-105059.92681502424,26657.89743159979,-187500.02235174447,-187500.02235174447,-187500.02235174447,-187500.02235174447,-187500.02235174447,1730656047.0182524,1730656046.1957345,4000
24091.71600243044,-105097.58950443144,26646.27452448303,-187500.02235174447,-187500.02235174447,-187500.02235174447,-187500.02235174447,-187500.02235174447,1730656047.0232856,1730656046.1957345,4000
24044.307952440733,-105141.13070263035,26627.99079751859,-187500.02235174447,-187500.02235174447,-187500.02235174447,-187500.02235174447,-187500.02235174447,1730656047.0275116,1730656046.1957345,4000
24047.3254379422,-105132.03354263706,26637.55734414546,-187500.02235174447,-187500.02235174447,-187500.02235174447,-187500.02235174447,-187500.02235174447,1730656047.030517,1730656046.1957345,4000
24105.641139226096,-105117.50490874112,26639.256076724065,-187500.02235174447,-187500.02235174447,-187500.02235174447,-187500.02235174447,-187500.02235174447,1730656047.0342948,1730656046.1957345,4000
24159.1512154521,-105084.62549264736,26653.87411759784,-187500.02235174447,-187500.02235174447,-187500.02235174447,-187500.02235174447,-187500.02235174447,1730656047.0384688,1730656046.1957345,4000
24150.702256048,-105080.73628911212,26680.15976907728,-187500.02235174447,-187500.02235174447,-187500.02235174447,-187500.02235174447,-187500.02235174447,1730656047.042477,1730656046.1957345,4000
24045.291429196768,-105110.37470225988,26706.44542055672,-187500.02235174447,-187500.02235174447,-187500.02235174447,-187500.02235174447,-187500.02235174447,1730656047.047405,1730656046.1957345,4000
24030.80749878973,-105084.24551299162,26634.18223073271,-187500.02235174447,-187500.02235174447,-187500.02235174447,-187500.02235174447,-187500.02235174447,1730656047.0515077,1730656046.1957345,4000
24086.709211672453,-105073.62843437537,26600.4310966052,-187500.02235174447,-187500.02235174447,-187500.02235174447,-187500.02235174447,-187500.02235174447,1730656047.0545402,1730656046.1957345,4000
24071.979412076405,-105127.94317340174,26617.7313468136,-187500.02235174447,-187500.02235174447,-187500.02235174447,-187500.02235174447,-187500.02235174447,1730656047.058432,1730656046.1957345,4000
24043.011551262327,-105138.04616189556,26648.017960550544,-187500.02235174447,-187500.02235174447,-187500.02235174447,-187500.02235174447,-187500.02235174447,1730656047.0625317,1730656046.1957345,4000
24033.8249842912,-105065.47004764916,26625.018015506037,-187500.02235174447,-187500.02235174447,-187500.02235174447,-187500.02235174447,-187500.02235174447,1730656047.0663352,1730656046.1957345,4000
24098.555636233767,-105030.4895675766,26616.25613167955,-187500.02235174447,-187500.02235174447,-187500.02235174447,-187500.02235174447,-187500.02235174447,1730656047.0705707,1730656046.1957345,4000
24180.854759318205,-105060.28444293552,26649.537879173506,-187500.02235174447,-187500.02235174447,-187500.02235174447,-187500.02235174447,-187500.02235174447,1730656047.0745196,1730656046.1957345,4000
24120.41564231105,-105140.52720553007,26636.752681345068,-187500.02235174447,-187500.02235174447,-187500.02235174447,-187500.02235174447,-187500.02235174447,1730656047.079587,1730656046.1957345,4000
24026.940646998963,-105079.81986758948,26631.209448720158,-187500.02235174447,-187500.02235174447,-187500.02235174447,-187500.02235174447,-187500.02235174447,1730656047.0823476,1730656046.1957345,4000
24008.455754334424,-105049.55560559698,26644.66519888225,-187500.02235174447,-187500.02235174447,-187500.02235174447,-187500.02235174447,-187500.02235174447,1730656047.0866048,1730656046.1957345,4000
24033.869687780105,-105072.4437919192,26647.347408216883,-187500.02235174447,-187500.02235174447,-187500.02235174447,-187500.02235174447,-187500.02235174447,1730656047.0903108,1730656046.1957345,4000
24084.921072116027,-105133.64286823785,26690.128647104342,-187500.02235174447,-187500.02235174447,-187500.02235174447,-187500.02235174447,-187500.02235174447,1730656047.094623,1730656046.1957345,4000
24129.713968004464,-105128.30080131305,26661.674876412737,-187500.02235174447,-187500.02235174447,-187500.02235174447,-187500.02235174447,-187500.02235174447,1730656047.098406,1730656046.1957345,4000
24140.95689546548,-105098.03653932054,26598.285329137485,-187500.02235174447,-187500.02235174447,-187500.02235174447,-187500.02235174447,-187500.02235174447,1730656047.1026547,1730656046.1957345,4000
24048.308914698235,-105124.70217045573,26638.674931368227,-187500.02235174447,-187500.02235174447,-187500.02235174447,-187500.02235174447,-187500.02235174447,1730656047.1073656,1730656046.1957345,4000
24001.482010064366,-105138.85082469592,26647.50387042807,-187500.02235174447,-187500.02235174447,-187500.02235174447,-187500.02235174447,-187500.02235174447,1730656047.1106222,1730656046.1957345,4000
24085.323403516224,-105083.06087053548,26642.18415524771,-187500.02235174447,-187500.02235174447,-187500.02235174447,-187500.02235174447,-187500.02235174447,1730656047.1144257,1730656046.1957345,4000
24132.373825594645,-105098.32711199846,26633.645788865782,-187500.02235174447,-187500.02235174447,-187500.02235174447,-187500.02235174447,-187500.02235174447,1730656047.1184611,1730656046.1957345,4000
24102.981281635915,-105147.7691707336,26649.046140795486,-187500.02235174447,-187500.02235174447,-187500.02235174447,-187500.02235174447,-187500.02235174447,1730656047.1224508,1730656046.1957345,4000
24025.778356287286,-105121.9082023988,26629.063681252443,-187500.02235174447,-187500.02235174447,-187500.02235174447,-187500.02235174447,-187500.02235174447,1730656047.126469,1730656046.1957345,4000
24033.646170335556,-105082.61383564638,26614.46799212313,-187500.02235174447,-187500.02235174447,-187500.02235174447,-187500.02235174447,-187500.02235174447,1730656047.1305523,1730656046.1957345,4000
24071.130045787104,-105123.27165881058,26619.340672414382,-187500.02235174447,-187500.02235174447,-187500.02235174447,-187500.02235174447,-187500.02235174447,1730656047.135716,1730656046.1957345,4000
24078.729638901907,-105163.54950231905,26621.82171604892,-187500.02235174447,-187500.02235174447,-187500.02235174447,-187500.02235174447,-187500.02235174447,1730656047.1387408,1730656046.1957345,4000
24096.05224085477,-105069.02397501755,26638.1384895013,-187500.02235174447,-187500.02235174447,-187500.02235174447,-187500.02235174447,-187500.02235174447,1730656047.1426785,1730656046.1957345,4000
24131.770328494356,-105049.93558525272,26669.810911394467,-187500.02235174447,-187500.02235174447,-187500.02235174447,-187500.02235174447,-187500.02235174447,1730656047.1464815,1730656046.1957345,4000
24087.24565353938,-105146.02573466608,26650.968390818645,-187500.02235174447,-187500.02235174447,-187500.02235174447,-187500.02235174447,-187500.02235174447,1730656047.1504772,1730656046.1957345,4000
24019.497516095344,-105163.50479883014,26608.41066937574,-187500.02235174447,-187500.02235174447,-187500.02235174447,-187500.02235174447,-187500.02235174447,1730656047.154631,1730656046.1957345,4000
24059.395379948062,-105108.43010049226,26610.26586416553,-187500.02235174447,-187500.02235174447,-187500.02235174447,-187500.02235174447,-187500.02235174447,1730656047.1585066,1730656046.1957345,4000
24111.3408340622,-105125.64094372284,26629.60012311937,-187500.02235174447,-187500.02235174447,-187500.02235174447,-187500.02235174447,-187500.02235174447,1730656047.1626828,1730656046.1957345,4000
24107.786906693807,-105117.14728082984,26630.158916730757,-187500.02235174447,-187500.02235174447,-187500.02235174447,-187500.02235174447,-187500.02235174447,1730656047.1654696,1730656046.1957345,4000
24073.52168244382,-105132.72644671518,26618.536009613992,-187500.02235174447,-187500.02235174447,-187500.02235174447,-187500.02235174447,-187500.02235174447,1730656047.1706846,1730656046.1957345,4000
24013.03786194776,-105131.07241762547,26630.44948940867,-187500.02235174447,-187500.02235174447,-187500.02235174447,-187500.02235174447,-187500.02235174447,1730656047.1744473,1730656046.1957345,4000
24048.44302516497,-105094.7508328856,26673.85657714088,-187500.02235174447,-187500.02235174447,-187500.02235174447,-187500.02235174447,-187500.02235174447,1730656047.178748,1730656046.1957345,4000
24108.166886349547,-105112.47576623868,26682.126722589343,-187500.02235174447,-187500.02235174447,-187500.02235174447,-187500.02235174447,-187500.02235174447,1730656047.1825056,1730656046.1957345,4000
24066.52558642931,-105139.05199039602,26660.065550811956,-187500.02235174447,-187500.02235174447,-187500.02235174447,-187500.02235174447,-187500.02235174447,1730656047.186708,1730656046.1957345,4000
24058.836586336685,-105088.93937932725,26627.633169607303,-187500.02235174447,-187500.02235174447,-187500.02235174447,-187500.02235174447,-187500.02235174447,1730656047.1904857,1730656046.1957345,4000
24109.329177061223,-105114.7109406842,26616.83727703539,-187500.02235174447,-187500.02235174447,-187500.02235174447,-187500.02235174447,-187500.02235174447,1730656047.1937585,1730656046.1957345,4000
24147.64006705762,-105192.15973522184,26645.156937260264,-187500.02235174447,-187500.02235174447,-187500.02235174447,-187500.02235174447,-187500.02235174447,1730656047.1977196,1730656046.1957345,4000
24097.05806935526,-105178.74868854866,26654.097635042388,-187500.02235174447,-187500.02235174447,-187500.02235174447,-187500.02235174447,-187500.02235174447,1730656047.2027335,1730656046.1957345,4000
23997.011661173303,-105166.14230467586,26649.00143730658,-187500.02235174447,-187500.02235174447,-187500.02235174447,-187500.02235174447,-187500.02235174447,1730656047.2064793,1730656046.1957345,4000
24029.354635400134,-105174.99359548016,26649.18025126222,-187500.02235174447,-187500.02235174447,-187500.02235174447,-187500.02235174447,-187500.02235174447,1730656047.210654,1730656046.1957345,4000
24074.14753128857,-105194.95370327876,26632.729367343112,-187500.02235174447,-187500.02235174447,-187500.02235174447,-187500.02235174447,-187500.02235174447,1730656047.214712,1730656046.1957345,4000
24088.96673786244,-105112.29695228302,26586.59536678736,-187500.02235174447,-187500.02235174447,-187500.02235174447,-187500.02235174447,-187500.02235174447,1730656047.2186472,1730656046.1957345,4000
24085.92690061652,-105131.69826647024,26636.573867389427,-187500.02235174447,-187500.02235174447,-187500.02235174447,-187500.02235174447,-187500.02235174447,1730656047.2216203,1730656046.1957345,4000
24042.02807450629,-105196.4289184128,26663.86534736936,-187500.02235174447,-187500.02235174447,-187500.02235174447,-187500.02235174447,-187500.02235174447,1730656047.2257712,1730656046.1957345,4000
24057.428426436,-105153.87119696988,26637.490288912093,-187500.02235174447,-187500.02235174447,-187500.02235174447,-187500.02235174447,-187500.02235174447,1730656047.2306745,1730656046.1957345,4000
24087.983261106405,-105123.20460357722,26625.30858818395,-187500.02235174447,-187500.02235174447,-187500.02235174447,-187500.02235174447,-187500.02235174447,1730656047.2346787,1730656046.1957345,4000
24136.173622152048,-105108.29599002552,26630.65065510877,-187500.02235174447,-187500.02235174447,-187500.02235174447,-187500.02235174447,-187500.02235174447,1730656047.2386646,1730656046.1957345,4000
24113.48660152991,-105124.32219079998,26667.39692299329,-187500.02235174447,-187500.02235174447,-187500.02235174447,-187500.02235174447,-187500.02235174447,1730656047.2428095,1730656046.1957345,4000
23996.18464662846,-105183.59901709546,26651.728350130124,-187500.02235174447,-187500.02235174447,-187500.02235174447,-187500.02235174447,-187500.02235174447,1730656047.2457874,1730656046.1957345,4000
24005.08064092167,-105146.562176533,26611.226989177107,-187500.02235174447,-187500.02235174447,-187500.02235174447,-187500.02235174447,-187500.02235174447,1730656047.2496088,1730656046.1957345,4000
24062.792845105272,-105134.33577231596,26611.71872755513,-187500.02235174447,-187500.02235174447,-187500.02235174447,-187500.02235174447,-187500.02235174447,1730656047.2538564,1730656046.1957345,4000
24117.129935876124,-105155.9275574598,26621.687605582192,-187500.02235174447,-187500.02235174447,-187500.02235174447,-187500.02235174447,-187500.02235174447,1730656047.2576888,1730656046.1957345,4000
24142.25329664389,-105166.61169130942,26648.017960550544,-187500.02235174447,-187500.02235174447,-187500.02235174447,-187500.02235174447,-187500.02235174447,1730656047.26272,1730656046.1957345,4000
24103.09304035819,-105126.19973733425,26645.13458551581,-187500.02235174447,-187500.02235174447,-187500.02235174447,-187500.02235174447,-187500.02235174447,1730656047.26675,1730656046.1957345,4000
24034.115556969115,-105130.40186529185,26641.692416869693,-187500.02235174447,-187500.02235174447,-187500.02235174447,-187500.02235174447,-187500.02235174447,1730656047.269748,1730656046.1957345,4000
24039.5246791273,-105133.73227521566,26626.02384400652,-187500.02235174447,-187500.02235174447,-187500.02235174447,-187500.02235174447,-187500.02235174447,1730656047.273674,1730656046.1957345,4000
24119.141592877106,-105160.35320286194,26632.282332454008,-187500.02235174447,-187500.02235174447,-187500.02235174447,-187500.02235174447,-187500.02235174447,1730656047.277738,1730656046.1957345,4000
24043.391530918067,-105124.07632161098,26672.04608584,-187500.02235174447,-187500.02235174447,-187500.02235174447,-187500.02235174447,-187500.02235174447,1730656047.2816682,1730656046.1957345,4000
24004.052460676725,-105128.09963561292,26667.48632997112,-187500.02235174447,-187500.02235174447,-187500.02235174447,-187500.02235174447,-187500.02235174447,1730656047.285763,1730656046.1957345,4000
24057.13785375808,-105170.00915646664,26635.545687144484,-187500.02235174447,-187500.02235174447,-187500.02235174447,-187500.02235174447,-187500.02235174447,1730656047.2906773,1730656046.1957345,4000
24103.3389095472,-105183.93429326228,26597.41361110373,-187500.02235174447,-187500.02235174447,-187500.02235174447,-187500.02235174447,-187500.02235174447,1730656047.2948518,1730656046.1957345,4000
24157.29602066231,-105134.1122548714,26608.8800560093,-187500.02235174447,-187500.02235174447,-187500.02235174447,-187500.02235174447,-187500.02235174447,1730656047.2979465,1730656046.1957345,4000
24111.29613057329,-105129.64190598034,26638.89844881278,-187500.02235174447,-187500.02235174447,-187500.02235174447,-187500.02235174447,-187500.02235174447,1730656047.3017268,1730656046.1957345,4000
24018.64814980604,-105126.40090303431,26641.692416869693,-187500.02235174447,-187500.02235174447,-187500.02235174447,-187500.02235174447,-187500.02235174447,1730656047.3057084,1730656046.1957345,4000
24037.669484337508,-105162.94600521876,26646.09571052739,-187500.02235174447,-187500.02235174447,-187500.02235174447,-187500.02235174447,-187500.02235174447,1730656047.3097684,1730656046.1957345,4000
24046.073740252705,-105157.93921446076,26631.00828302005,-187500.02235174447,-187500.02235174447,-187500.02235174447,-187500.02235174447,-187500.02235174447,1730656047.3137176,1730656046.1957345,4000
24058.03192353629,-105191.22096195472,26627.65552135176,-187500.02235174447,-187500.02235174447,-187500.02235174447,-187500.02235174447,-187500.02235174447,1730656047.3187184,1730656046.1957345,4000
24069.85599635315,-105175.48533385816,26639.904277313268,-187500.02235174447,-187500.02235174447,-187500.02235174447,-187500.02235174447,-187500.02235174447,1730656047.322826,1730656046.1957345,4000
24107.943368904995,-105224.16743328184,26628.482535896605,-187500.02235174447,-187500.02235174447,-187500.02235174447,-187500.02235174447,-187500.02235174447,1730656047.32579,1730656046.1957345,4000
24120.192124866506,-105181.94498800577,26643.8381843374,-187500.02235174447,-187500.02235174447,-187500.02235174447,-187500.02235174447,-187500.02235174447,1730656047.3298447,1730656046.1957345,4000
24051.974600788904,-105144.48346429868,26643.21233549265,-187500.02235174447,-187500.02235174447,-187500.02235174447,-187500.02235174447,-187500.02235174447,1730656047.3338313,1730656046.1957345,4000
24022.33618764117,-105183.73312756218,26610.064698465438,-187500.02235174447,-187500.02235174447,-187500.02235174447,-187500.02235174447,-187500.02235174447,1730656047.337773,1730656046.1957345,4000
24056.66846712452,-105225.15091003788,26607.31543389743,-187500.02235174447,-187500.02235174447,-187500.02235174447,-187500.02235174447,-187500.02235174447,1730656047.3418496,1730656046.1957345,4000
24083.95994710445,-105194.95370327876,26666.74872240409,-187500.02235174447,-187500.02235174447,-187500.02235174447,-187500.02235174447,-187500.02235174447,1730656047.3468654,1730656046.1957345,4000
24041.67044659501,-105142.60591776442,26682.90903364528,-187500.02235174447,-187500.02235174447,-187500.02235174447,-187500.02235174447,-187500.02235174447,1730656047.349962,1730656046.1957345,4000
24059.440083436977,-105178.18989493728,26635.16570748874,-187500.02235174447,-187500.02235174447,-187500.02235174447,-187500.02235174447,-187500.02235174447,1730656047.352893,1730656046.1957345,4000
24103.76359269185,-105244.57457596951,26621.687605582192,-187500.02235174447,-187500.02235174447,-187500.02235174447,-187500.02235174447,-187500.02235174447,1730656047.3578231,1730656046.1957345,4000
24088.20677855096,-105193.56789512253,26637.69145461219,-187500.02235174447,-187500.02235174447,-187500.02235174447,-187500.02235174447,-187500.02235174447,1730656047.3618152,1730656046.1957345,4000
24055.61793513512,-105155.1228946594,26633.109346998852,-187500.02235174447,-187500.02235174447,-187500.02235174447,-187500.02235174447,-187500.02235174447,1730656047.3658528,1730656046.1957345,4000
24064.133949772597,-105185.2753979296,26635.143355744287,-187500.02235174447,-187500.02235174447,-187500.02235174447,-187500.02235174447,-187500.02235174447,1730656047.3699224,1730656046.1957345,4000
24077.880272612605,-105191.01979625462,26622.76048931605,-187500.02235174447,-187500.02235174447,-187500.02235174447,-187500.02235174447,-187500.02235174447,1730656047.37381,1730656046.1957345,4000
24060.222394492917,-105162.70013602974,26633.80225107697,-187500.02235174447,-187500.02235174447,-187500.02235174447,-187500.02235174447,-187500.02235174447,1730656047.3778107,1730656046.1957345,4000
24057.85310958065,-105198.06059575804,26656.444568210198,-187500.02235174447,-187500.02235174447,-187500.02235174447,-187500.02235174447,-187500.02235174447,1730656047.3818216,1730656046.1957345,4000
24056.24378397987,-105251.54832023958,26628.72840508561,-187500.02235174447,-187500.02235174447,-187500.02235174447,-187500.02235174447,-187500.02235174447,1730656047.385877,1730656046.1957345,4000
24078.841397624183,-105172.75842103462,26608.65653856475,-187500.02235174447,-187500.02235174447,-187500.02235174447,-187500.02235174447,-187500.02235174447,1730656047.3898444,1730656046.1957345,4000
24088.787923906795,-105185.2753979296,26620.79353580398,-187500.02235174447,-187500.02235174447,-187500.02235174447,-187500.02235174447,-187500.02235174447,1730656047.3939147,1730656046.1957345,4000
24072.404095221056,-105228.81659612854,26626.80615506246,-187500.02235174447,-187500.02235174447,-187500.02235174447,-187500.02235174447,-187500.02235174447,1730656047.3979204,1730656046.1957345,4000
24062.18934800498,-105204.25202897216,26661.13843454581,-187500.02235174447,-187500.02235174447,-187500.02235174447,-187500.02235174447,-187500.02235174447,1730656047.402835,1730656046.1957345,4000
24066.0785515402,-105201.36865393745,26663.261850269064,-187500.02235174447,-187500.02235174447,-187500.02235174447,-187500.02235174447,-187500.02235174447,1730656047.4058745,1730656046.1957345,4000
24055.707342112943,-105191.89151428838,26626.31441668444,-187500.02235174447,-187500.02235174447,-187500.02235174447,-187500.02235174447,-187500.02235174447,1730656047.4088612,1730656046.1957345,4000
24113.441898041,-105193.12086023342,26651.1919082632,-187500.02235174447,-187500.02235174447,-187500.02235174447,-187500.02235174447,-187500.02235174447,1730656047.413833,1730656046.1957345,4000
24055.483824668387,-105204.6767121168,26681.03148711103,-187500.02235174447,-187500.02235174447,-187500.02235174447,-187500.02235174447,-187500.02235174447,1730656047.4179204,1730656046.1957345,4000
24030.38281564508,-105252.26357606216,26630.44948940867,-187500.02235174447,-187500.02235174447,-187500.02235174447,-187500.02235174447,-187500.02235174447,1730656047.4219687,1730656046.1957345,4000
24121.51087778937,-105164.06359244153,26609.9305879987,-187500.02235174447,-187500.02235174447,-187500.02235174447,-187500.02235174447,-187500.02235174447,1730656047.4260375,1730656046.1957345,4000
24139.526383820343,-105155.90520571532,26626.35912017335,-187500.02235174447,-187500.02235174447,-187500.02235174447,-187500.02235174447,-187500.02235174447,1730656047.4301658,1730656046.1957345,4000
24057.495481669364,-105227.60960192796,26627.02967250701,-187500.02235174447,-187500.02235174447,-187500.02235174447,-187500.02235174447,-187500.02235174447,1730656047.4340076,1730656046.1957345,4000
23999.492704807843,-105257.20331158678,26592.853855234847,-187500.02235174447,-187500.02235174447,-187500.02235174447,-187500.02235174447,-187500.02235174447,1730656047.4371023,1730656046.1957345,4000
24007.5169810673,-105210.71168311976,26608.343614142374,-187500.02235174447,-187500.02235174447,-187500.02235174447,-187500.02235174447,-187500.02235174447,1730656047.4421144,1730656046.1957345,4000
24061.18351950449,-105207.7389011072,26644.933419815712,-187500.02235174447,-187500.02235174447,-187500.02235174447,-187500.02235174447,-187500.02235174447,1730656047.445916,1730656046.1957345,4000
24073.365220232638,-105235.20919504276,26670.682629428225,-187500.02235174447,-187500.02235174447,-187500.02235174447,-187500.02235174447,-187500.02235174447,1730656047.4500875,1730656046.1957345,4000
24081.72477265892,-105211.42693894231,26654.9917048206,-187500.02235174447,-187500.02235174447,-187500.02235174447,-187500.02235174447,-187500.02235174447,1730656047.454068,1730656046.1957345,4000
24061.76466486033,-105203.5367731496,26615.74204155708,-187500.02235174447,-187500.02235174447,-187500.02235174447,-187500.02235174447,-187500.02235174447,1730656047.4569533,1730656046.1957345,4000
24021.218600418404,-105280.60558803148,26613.0821839669,-187500.02235174447,-187500.02235174447,-187500.02235174447,-187500.02235174447,-187500.02235174447,1730656047.461114,1730656046.1957345,4000
24018.961074228417,-105227.11786354994,26631.164745231243,-187500.02235174447,-187500.02235174447,-187500.02235174447,-187500.02235174447,-187500.02235174447,1730656047.4649432,1730656046.1957345,4000
24054.99208629037,-105240.21598580077,26630.06950975293,-187500.02235174447,-187500.02235174447,-187500.02235174447,-187500.02235174447,-187500.02235174447,1730656047.4700186,1730656046.1957345,4000
24078.841397624183,-105220.76996812464,26622.40286140476,-187500.02235174447,-187500.02235174447,-187500.02235174447,-187500.02235174447,-187500.02235174447,1730656047.4741423,1730656046.1957345,4000
24096.16399957705,-105224.86033735996,26653.20356526417,-187500.02235174447,-187500.02235174447,-187500.02235174447,-187500.02235174447,-187500.02235174447,1730656047.4782453,1730656046.1957345,4000
24106.33404330421,-105187.7787933086,26670.3473532614,-187500.02235174447,-187500.02235174447,-187500.02235174447,-187500.02235174447,-187500.02235174447,1730656047.4820044,1730656046.1957345,4000
24048.264211209324,-105174.2783396576,26654.1423385313,-187500.02235174447,-187500.02235174447,-187500.02235174447,-187500.02235174447,-187500.02235174447,1730656047.4862008,1730656046.1957345,4000
24017.262341649814,-105189.14224972036,26605.259073407546,-187500.02235174447,-187500.02235174447,-187500.02235174447,-187500.02235174447,-187500.02235174447,1730656047.4899764,1730656046.1957345,4000
24059.48478692589,-105205.83900282848,26602.152180928253,-187500.02235174447,-187500.02235174447,-187500.02235174447,-187500.02235174447,-187500.02235174447,1730656047.4932191,1730656046.1957345,4000
24089.81610415174,-105177.54169434808,26620.45825963715,-187500.02235174447,-187500.02235174447,-187500.02235174447,-187500.02235174447,-187500.02235174447,1730656047.49723,1730656046.1957345,4000
24104.52355200333,-105163.70596453024,26642.27356222553,-187500.02235174447,-187500.02235174447,-187500.02235174447,-187500.02235174447,-187500.02235174447,1730656047.5021725,1730656046.1957345,4000
24100.41083102356,-105213.01391279863,26648.35323671737,-187500.02235174447,-187500.02235174447,-187500.02235174447,-187500.02235174447,-187500.02235174447,1730656047.5061874,1730656046.1957345,4000
24055.081493268197,-105220.88172684691,26623.36398641634,-187500.02235174447,-187500.02235174447,-187500.02235174447,-187500.02235174447,-187500.02235174447,1730656047.509988,1730656046.1957345,4000
24051.14758624406,-105229.62125892894,26624.54862887247,-187500.02235174447,-187500.02235174447,-187500.02235174447,-187500.02235174447,-187500.02235174447,1730656047.5131552,1730656046.1957345,4000
24049.6276676211,-105220.32293323553,26634.673969110725,-187500.02235174447,-187500.02235174447,-187500.02235174447,-187500.02235174447,-187500.02235174447,1730656047.5170665,1730656046.1957345,4000
24079.802522635764,-105256.01866913064,26650.40959720726,-187500.02235174447,-187500.02235174447,-187500.02235174447,-187500.02235174447,-187500.02235174447,1730656047.5210748,1730656046.1957345,4000
24107.116354360147,-105208.25299122966,26635.568038888938,-187500.02235174447,-187500.02235174447,-187500.02235174447,-187500.02235174447,-187500.02235174447,1730656047.5251613,1730656046.1957345,4000
24084.786961649297,-105228.97305833972,26604.61087281834,-187500.02235174447,-187500.02235174447,-187500.02235174447,-187500.02235174447,-187500.02235174447,1730656047.53028,1730656046.1957345,4000
24045.09026349667,-105261.092515122,26617.32901541341,-187500.02235174447,-187500.02235174447,-187500.02235174447,-187500.02235174447,-187500.02235174447,1730656047.5340936,1730656046.1957345,4000
24032.7744523018,-105277.7445647412,26686.82058892496,-187500.02235174447,-187500.02235174447,-187500.02235174447,-187500.02235174447,-187500.02235174447,1730656047.538185,1730656046.1957345,4000
24005.013585688303,-105231.96819209674,26643.726425615125,-187500.02235174447,-187500.02235174447,-187500.02235174447,-187500.02235174447,-187500.02235174447,1730656047.5411005,1730656046.1957345,4000
24006.019414188795,-105226.22379377171,26597.9277012262,-187500.02235174447,-187500.02235174447,-187500.02235174447,-187500.02235174447,-187500.02235174447,1730656047.545202,1730656046.1957345,4000
24051.66167636653,-105221.44052045829,26632.103518498367,-187500.02235174447,-187500.02235174447,-187500.02235174447,-187500.02235174447,-187500.02235174447,1730656047.5491643,1730656046.1957345,4000
24107.3398718047,-105271.843704205,26660.803158378974,-187500.02235174447,-187500.02235174447,-187500.02235174447,-187500.02235174447,-187500.02235174447,1730656047.5532255,1730656046.1957345,4000
24094.353508276166,-105239.1878055558,26664.35708574737,-187500.02235174447,-187500.02235174447,-187500.02235174447,-187500.02235174447,-187500.02235174447,1730656047.5571673,1730656046.1957345,4000
24021.218600418404,-105235.11978806494,26637.579695889915,-187500.02235174447,-187500.02235174447,-187500.02235174447,-187500.02235174447,-187500.02235174447,1730656047.5621824,1730656046.1957345,4000
24013.104917181125,-105255.05754411907,26602.35334662835,-187500.02235174447,-187500.02235174447,-187500.02235174447,-187500.02235174447,-187500.02235174447,1730656047.5651116,1730656046.1957345,4000
24072.47115045442,-105309.61815233449,26610.332919398898,-187500.02235174447,-187500.02235174447,-187500.02235174447,-187500.02235174447,-187500.02235174447,1730656047.5691962,1730656046.1957345,4000
24083.08822907069,-105234.22571828672,26612.344576399875,-187500.02235174447,-187500.02235174447,-187500.02235174447,-187500.02235174447,-187500.02235174447,1730656047.5731575,1730656046.1957345,4000
24084.31757501573,-105201.81568882654,26643.59231514839,-187500.02235174447,-187500.02235174447,-187500.02235174447,-187500.02235174447,-187500.02235174447,1730656047.577408,1730656046.1957345,4000
24042.78803381777,-105206.7330726067,26634.85278306637,-187500.02235174447,-187500.02235174447,-187500.02235174447,-187500.02235174447,-187500.02235174447,1730656047.5813785,1730656046.1957345,4000
24081.970641847925,-105255.03519237462,26632.08116675391,-187500.02235174447,-187500.02235174447,-187500.02235174447,-187500.02235174447,-187500.02235174447,1730656047.587384,1730656046.1957345,4000
24082.060048825748,-105224.0333228151,26623.587503860894,-187500.02235174447,-187500.02235174447,-187500.02235174447,-187500.02235174447,-187500.02235174447,1730656047.5901685,1730656046.1957345,4000
24025.13015569808,-105209.2364679857,26599.537026826983,-187500.02235174447,-187500.02235174447,-187500.02235174447,-187500.02235174447,-187500.02235174447,1730656047.5932956,1730656046.1957345,4000
24048.48772865388,-105200.80986032604,26617.530181113503,-187500.02235174447,-187500.02235174447,-187500.02235174447,-187500.02235174447,-187500.02235174447,1730656047.5973585,1730656046.1957345,4000
24091.738354174897,-105186.54944736356,26659.059722311464,-187500.02235174447,-187500.02235174447,-187500.02235174447,-187500.02235174447,-187500.02235174447,1730656047.6014404,1730656046.1957345,4000
24062.301106727256,-105234.4939392202,26663.1947950357,-187500.02235174447,-187500.02235174447,-187500.02235174447,-187500.02235174447,-187500.02235174447,1730656047.6054015,1730656046.1957345,4000
24062.97165906092,-105220.4346919578,26645.04517853799,-187500.02235174447,-187500.02235174447,-187500.02235174447,-187500.02235174447,-187500.02235174447,1730656047.6095607,1730656046.1957345,4000
24076.00272607836,-105192.04797649955,26632.90818129876,-187500.02235174447,-187500.02235174447,-187500.02235174447,-187500.02235174447,-187500.02235174447,1730656047.613462,1730656046.1957345,4000
24032.79680404625,-105225.0391513156,26610.042346720977,-187500.02235174447,-187500.02235174447,-187500.02235174447,-187500.02235174447,-187500.02235174447,1730656047.6185231,1730656046.1957345,4000
24038.98823726037,-105229.42009322884,26623.69926258317,-187500.02235174447,-187500.02235174447,-187500.02235174447,-187500.02235174447,-187500.02235174447,1730656047.6215408,1730656046.1957345,4000
24075.265118511332,-105267.8427419475,26626.62734110681,-187500.02235174447,-187500.02235174447,-187500.02235174447,-187500.02235174447,-187500.02235174447,1730656047.6254528,1730656046.1957345,4000
24105.685842715007,-105236.14796830987,26635.433928422204,-187500.02235174447,-187500.02235174447,-187500.02235174447,-187500.02235174447,-187500.02235174447,1730656047.6294267,1730656046.1957345,4000
24081.27773776981,-105247.30148879308,26636.685626111703,-187500.02235174447,-187500.02235174447,-187500.02235174447,-187500.02235174447,-187500.02235174447,1730656047.6334407,1730656046.1957345,4000
23980.80664644321,-105318.69296058331,26604.99085247408,-187500.02235174447,-187500.02235174447,-187500.02235174447,-187500.02235174447,-187500.02235174447,1730656047.637485,1730656046.1957345,4000
23975.3081173072,-105227.47549146124,26631.27650395352,-187500.02235174447,-187500.02235174447,-187500.02235174447,-187500.02235174447,-187500.02235174447,1730656047.6413565,1730656046.1957345,4000
24044.66558035202,-105214.95851456626,26645.291047727,-187500.02235174447,-187500.02235174447,-187500.02235174447,-187500.02235174447,-187500.02235174447,1730656047.6455357,1730656046.1957345,4000
24081.52360695882,-105226.1343867939,26624.593332361383,-187500.02235174447,-187500.02235174447,-187500.02235174447,-187500.02235174447,-187500.02235174447,1730656047.6482427,1730656046.1957345,4000
24079.91428135804,-105226.80493912756,26609.57296008741,-187500.02235174447,-187500.02235174447,-187500.02235174447,-187500.02235174447,-187500.02235174447,1730656047.6524112,1730656046.1957345,4000
24038.541202371267,-105260.66783197736,26643.8381843374,-187500.02235174447,-187500.02235174447,-187500.02235174447,-187500.02235174447,-187500.02235174447,1730656047.6584165,1730656046.1957345,4000
24029.824022033696,-105235.1421398094,26651.21426000765,-187500.02235174447,-187500.02235174447,-187500.02235174447,-187500.02235174447,-187500.02235174447,1730656047.661574,1730656046.1957345,4000
24043.011551262327,-105187.62233109742,26640.79834709148,-187500.02235174447,-187500.02235174447,-187500.02235174447,-187500.02235174447,-187500.02235174447,1730656047.6653657,1730656046.1957345,4000
24075.645098167075,-105198.3288166915,26638.607876134854,-187500.02235174447,-187500.02235174447,-187500.02235174447,-187500.02235174447,-187500.02235174447,1730656047.6715193,1730656046.1957345,4000
24104.277682814325,-105241.37827651242,26624.191000961186,-187500.02235174447,-187500.02235174447,-187500.02235174447,-187500.02235174447,-187500.02235174447,1730656047.6743228,1730656046.1957345,4000
24103.92005490304,-105261.4948465222,26609.595311831872,-187500.02235174447,-187500.02235174447,-187500.02235174447,-187500.02235174447,-187500.02235174447,1730656047.6775398,1730656046.1957345,4000
24070.14656903107,-105220.50174719116,26619.139506714288,-187500.02235174447,-187500.02235174447,-187500.02235174447,-187500.02235174447,-187500.02235174447,1730656047.6814282,1730656046.1957345,4000
23999.537408296757,-105248.91081439386,26618.871285780824,-187500.02235174447,-187500.02235174447,-187500.02235174447,-187500.02235174447,-187500.02235174447,1730656047.6854,1730656046.1957345,4000
24038.87647853809,-105212.76804360964,26621.061756737443,-187500.02235174447,-187500.02235174447,-187500.02235174447,-187500.02235174447,-187500.02235174447,1730656047.6897483,1730656046.1957345,4000
24075.421580722523,-105206.35309295096,26617.641939835783,-187500.02235174447,-187500.02235174447,-187500.02235174447,-187500.02235174447,-187500.02235174447,1730656047.6935928,1730656046.1957345,4000
24068.20196726346,-105231.20823278524,26624.235704450097,-187500.02235174447,-187500.02235174447,-187500.02235174447,-187500.02235174447,-187500.02235174447,1730656047.6977534,1730656046.1957345,4000
24021.35271088513,-105277.2528263632,26622.738137571592,-187500.02235174447,-187500.02235174447,-187500.02235174447,-187500.02235174447,-187500.02235174447,1730656047.701602,1730656046.1957345,4000
24035.680179080988,-105220.74761638018,26643.324094214928,-187500.02235174447,-187500.02235174447,-187500.02235174447,-187500.02235174447,-187500.02235174447,1730656047.7045329,1730656046.1957345,4000
24087.983261106405,-105218.82536635702,26668.603917193883,-187500.02235174447,-187500.02235174447,-187500.02235174447,-187500.02235174447,-187500.02235174447,1730656047.7085848,1730656046.1957345,4000
24128.551677292788,-105245.8933288924,26642.675893625725,-187500.02235174447,-187500.02235174447,-187500.02235174447,-187500.02235174447,-187500.02235174447,1730656047.713667,1730656046.1957345,4000
24068.3807812191,-105203.3356074495,26621.82171604892,-187500.02235174447,-187500.02235174447,-187500.02235174447,-187500.02235174447,-187500.02235174447,1730656047.7175248,1730656046.1957345,4000
23986.8639691906,-105233.7786833976,26641.11127151385,-187500.02235174447,-187500.02235174447,-187500.02235174447,-187500.02235174447,-187500.02235174447,1730656047.7215772,1730656046.1957345,4000
24006.958187455915,-105281.23143687625,26631.67883535372,-187500.02235174447,-187500.02235174447,-187500.02235174447,-187500.02235174447,-187500.02235174447,1730656047.7253518,1730656046.1957345,4000
24032.439176134965,-105228.07898856152,26669.7438561611,-187500.02235174447,-187500.02235174447,-187500.02235174447,-187500.02235174447,-187500.02235174447,1730656047.7286046,1730656046.1957345,4000
24040.1728797165,-105280.11384965348,26614.244474678573,-187500.02235174447,-187500.02235174447,-187500.02235174447,-187500.02235174447,-187500.02235174447,1730656047.7324035,1730656046.1957345,4000
24085.81514189424,-105301.3033033971,26568.915136923213,-187500.02235174447,-187500.02235174447,-187500.02235174447,-187500.02235174447,-187500.02235174447,1730656047.7364724,1730656046.1957345,4000
24065.430350951,-105277.36458508548,26609.952939743154,-187500.02235174447,-187500.02235174447,-187500.02235174447,-187500.02235174447,-187500.02235174447,1730656047.7414026,1730656046.1957345,4000
24031.1204232121,-105219.00418031268,26655.528146687528,-187500.02235174447,-187500.02235174447,-187500.02235174447,-187500.02235174447,-187500.02235174447,1730656047.7454743,1730656046.1957345,4000
24073.96871733293,-105225.55324143809,26647.816794850445,-187500.02235174447,-187500.02235174447,-187500.02235174447,-187500.02235174447,-187500.02235174447,1730656047.7494547,1730656046.1957345,4000
24104.81412468125,-105262.16539885584,26635.94801854468,-187500.02235174447,-187500.02235174447,-187500.02235174447,-187500.02235174447,-187500.02235174447,1730656047.752637,1730656046.1957345,4000
24077.6344034236,-105238.9866398557,26615.85380027936,-187500.02235174447,-187500.02235174447,-187500.02235174447,-187500.02235174447,-187500.02235174447,1730656047.756492,1730656046.1957345,4000
24025.33132139818,-105288.58516080205,26619.8324107924,-187500.02235174447,-187500.02235174447,-187500.02235174447,-187500.02235174447,-187500.02235174447,1730656047.7607045,1730656046.1957345,4000
24019.877495751083,-105263.66296573436,26623.52044862753,-187500.02235174447,-187500.02235174447,-187500.02235174447,-187500.02235174447,-187500.02235174447,1730656047.7646887,1730656046.1957345,4000
24038.541202371267,-105219.20534601276,26632.282332454008,-187500.02235174447,-187500.02235174447,-187500.02235174447,-187500.02235174447,-187500.02235174447,1730656047.7686331,1730656046.1957345,4000
24070.57125217572,-105229.97888684022,26652.95769607517,-187500.02235174447,-187500.02235174447,-187500.02235174447,-187500.02235174447,-187500.02235174447,1730656047.7734785,1730656046.1957345,4000
24065.184481761997,-105273.47538155023,26639.837222079903,-187500.02235174447,-187500.02235174447,-187500.02235174447,-187500.02235174447,-187500.02235174447,1730656047.7777717,1730656046.1957345,4000
24037.490670381867,-105213.28213373212,26610.60114033236,-187500.02235174447,-187500.02235174447,-187500.02235174447,-187500.02235174447,-187500.02235174447,1730656047.7805934,1730656046.1957345,4000
24063.17282476101,-105249.55901498308,26604.74498328507,-187500.02235174447,-187500.02235174447,-187500.02235174447,-187500.02235174447,-187500.02235174447,1730656047.7846615,1730656046.1957345,4000
24064.98331606189,-105283.1536868994,26626.113250984345,-187500.02235174447,-187500.02235174447,-187500.02235174447,-187500.02235174447,-187500.02235174447,1730656047.788659,1730656046.1957345,4000
24067.75493237435,-105235.76798865414,26638.920800557236,-187500.02235174447,-187500.02235174447,-187500.02235174447,-187500.02235174447,-187500.02235174447,1730656047.7928798,1730656046.1957345,4000
24056.646115380063,-105205.57078189502,26621.106460226358,-187500.02235174447,-187500.02235174447,-187500.02235174447,-187500.02235174447,-187500.02235174447,1730656047.7975874,1730656046.1957345,4000
24052.734560100387,-105221.03818905808,26634.584562132903,-187500.02235174447,-187500.02235174447,-187500.02235174447,-187500.02235174447,-187500.02235174447,1730656047.80175,1730656046.1957345,4000
24050.499385654854,-105292.40730910387,26658.65739091127,-187500.02235174447,-187500.02235174447,-187500.02235174447,-187500.02235174447,-187500.02235174447,1730656047.8055048,1730656046.1957345,4000
24011.60735030262,-105231.69997116328,26646.185117505207,-187500.02235174447,-187500.02235174447,-187500.02235174447,-187500.02235174447,-187500.02235174447,1730656047.8087378,1730656046.1957345,4000
24009.349824112636,-105211.02460754212,26591.8256749899,-187500.02235174447,-187500.02235174447,-187500.02235174447,-187500.02235174447,-187500.02235174447,1730656047.8131657,1730656046.1957345,4000
24063.061066038736,-105246.98856437072,26593.12207616831,-187500.02235174447,-187500.02235174447,-187500.02235174447,-187500.02235174447,-187500.02235174447,1730656047.8189857,1730656046.1957345,4000
24066.749103873863,-105262.1430471114,26639.591352890893,-187500.02235174447,-187500.02235174447,-187500.02235174447,-187500.02235174447,-187500.02235174447,1730656047.8218417,1730656046.1957345,4000
24035.5237168698,-105262.00893664468,26634.60691387736,-187500.02235174447,-187500.02235174447,-187500.02235174447,-187500.02235174447,-187500.02235174447,1730656047.8268092,1730656046.1957345,4000
24014.64718754854,-105235.47741597622,26592.8762069793,-187500.02235174447,-187500.02235174447,-187500.02235174447,-187500.02235174447,-187500.02235174447,1730656047.8298469,1730656046.1957345,4000
24062.681086383,-105240.35009626747,26601.7274977836,-187500.02235174447,-187500.02235174447,-187500.02235174447,-187500.02235174447,-187500.02235174447,1730656047.8338158,1730656046.1957345,4000
24081.009516836348,-105278.88450370842,26664.290030514007,-187500.02235174447,-187500.02235174447,-187500.02235174447,-187500.02235174447,-187500.02235174447,1730656047.8366992,1730656046.1957345,4000
24058.94834505896,-105249.42490451632,26677.432856253727,-187500.02235174447,-187500.02235174447,-187500.02235174447,-187500.02235174447,-187500.02235174447,1730656047.8405871,1730656046.1957345,4000
24071.19710102047,-105228.2354507727,26672.090789328908,-187500.02235174447,-187500.02235174447,-187500.02235174447,-187500.02235174447,-187500.02235174447,1730656047.844532,1730656046.1957345,4000
24044.799690818752,-105294.66483529388,26625.0850707394,-187500.02235174447,-187500.02235174447,-187500.02235174447,-187500.02235174447,-187500.02235174447,1730656047.8485525,1730656046.1957345,4000
23992.74247798234,-105311.18277444637,26590.618680789317,-187500.02235174447,-187500.02235174447,-187500.02235174447,-187500.02235174447,-187500.02235174447,1730656047.8526535,1730656046.1957345,4000
24018.58109457268,-105265.853436691,26602.44275360617,-187500.02235174447,-187500.02235174447,-187500.02235174447,-187500.02235174447,-187500.02235174447,1730656047.857604,1730656046.1957345,4000
24054.254478723346,-105261.11486686644,26624.25805619455,-187500.02235174447,-187500.02235174447,-187500.02235174447,-187500.02235174447,-187500.02235174447,1730656047.8608,1730656046.1957345,4000
24064.20100500596,-105267.26159659168,26642.9888180481,-187500.02235174447,-187500.02235174447,-187500.02235174447,-187500.02235174447,-187500.02235174447,1730656047.8646977,1730656046.1957345,4000
24068.559595174745,-105248.53083473812,26648.397940206283,-187500.02235174447,-187500.02235174447,-187500.02235174447,-187500.02235174447,-187500.02235174447,1730656047.8687563,1730656046.1957345,4000
24053.405112434044,-105286.90877996788,26634.22693422162,-187500.02235174447,-187500.02235174447,-187500.02235174447,-187500.02235174447,-187500.02235174447,1730656047.8727474,1730656046.1957345,4000
24032.461527879423,-105286.23822763424,26609.61766357633,-187500.02235174447,-187500.02235174447,-187500.02235174447,-187500.02235174447,-187500.02235174447,1730656047.876731,1730656046.1957345,4000
24067.553766674253,-105300.54334408564,26617.708995069148,-187500.02235174447,-187500.02235174447,-187500.02235174447,-187500.02235174447,-187500.02235174447,1730656047.880781,1730656046.1957345,4000
24071.778246376307,-105236.01385784317,26623.49809688307,-187500.02235174447,-187500.02235174447,-187500.02235174447,-187500.02235174447,-187500.02235174447,1730656047.8857217,1730656046.1957345,4000
24044.062083251727,-105275.06235540655,26628.81781206344,-187500.02235174447,-187500.02235174447,-187500.02235174447,-187500.02235174447,-187500.02235174447,1730656047.8887808,1730656046.1957345,4000
24039.54703087176,-105311.13807095744,26641.40184419177,-187500.02235174447,-187500.02235174447,-187500.02235174447,-187500.02235174447,-187500.02235174447,1730656047.8937528,1730656046.1957345,4000
24040.61991460561,-105277.18577112982,26669.118007316352,-187500.02235174447,-187500.02235174447,-187500.02235174447,-187500.02235174447,-187500.02235174447,1730656047.8968325,1730656046.1957345,4000
24042.78803381777,-105276.53757054062,26625.97914051761,-187500.02235174447,-187500.02235174447,-187500.02235174447,-187500.02235174447,-187500.02235174447,1730656047.9008615,1730656046.1957345,4000
24074.01342082184,-105314.66964658136,26611.048175221465,-187500.02235174447,-187500.02235174447,-187500.02235174447,-187500.02235174447,-187500.02235174447,1730656047.9046428,1730656046.1957345,4000
24064.692743383974,-105243.00995385766,26623.967483516637,-187500.02235174447,-187500.02235174447,-187500.02235174447,-187500.02235174447,-187500.02235174447,1730656047.9090743,1730656046.1957345,4000
24050.94642054396,-105270.81552396006,26626.80615506246,-187500.02235174447,-187500.02235174447,-187500.02235174447,-187500.02235174447,-187500.02235174447,1730656047.9137766,1730656046.1957345,4000
24053.650981623054,-105289.85921023598,26616.16672470173,-187500.02235174447,-187500.02235174447,-187500.02235174447,-187500.02235174447,-187500.02235174447,1730656047.916827,1730656046.1957345,4000
24047.772472831308,-105248.06144810456,26614.62445433432,-187500.02235174447,-187500.02235174447,-187500.02235174447,-187500.02235174447,-187500.02235174447,1730656047.9211848,1730656046.1957345,4000
24015.474202093388,-105241.22181430124,26627.432003907204,-187500.02235174447,-187500.02235174447,-187500.02235174447,-187500.02235174447,-187500.02235174447,1730656047.9248123,1730656046.1957345,4000
24036.976580259397,-105231.20823278524,26642.832355836912,-187500.02235174447,-187500.02235174447,-187500.02235174447,-187500.02235174447,-187500.02235174447,1730656047.929186,1730656046.1957345,4000
24056.66846712452,-105284.07010842206,26643.61466689285,-187500.02235174447,-187500.02235174447,-187500.02235174447,-187500.02235174447,-187500.02235174447,1730656047.932837,1730656046.1957345,4000
24059.797711348263,-105259.99727964368,26632.572905131925,-187500.02235174447,-187500.02235174447,-187500.02235174447,-187500.02235174447,-187500.02235174447,1730656047.937128,1730656046.1957345,4000
24058.72482761441,-105274.21298911728,26638.56317264595,-187500.02235174447,-187500.02235174447,-187500.02235174447,-187500.02235174447,-187500.02235174447,1730656047.9419534,1730656046.1957345,4000
24051.28169671079,-105262.23245408924,26635.389224933297,-187500.02235174447,-187500.02235174447,-187500.02235174447,-187500.02235174447,-187500.02235174447,1730656047.944847,1730656046.1957345,4000
24027.790013288264,-105280.53853279812,26618.31249216944,-187500.02235174447,-187500.02235174447,-187500.02235174447,-187500.02235174447,-187500.02235174447,1730656047.94869,1730656046.1957345,4000
24020.101013195635,-105289.09925092453,26623.162820716243,-187500.02235174447,-187500.02235174447,-187500.02235174447,-187500.02235174447,-187500.02235174447,1730656047.9529064,1730656046.1957345,4000
24020.056309706728,-105219.45121520176,26643.1899837482,-187500.02235174447,-187500.02235174447,-187500.02235174447,-187500.02235174447,-187500.02235174447,1730656047.9567878,1730656046.1957345,4000
24053.494519411863,-105209.61644764144,26631.589428375893,-187500.02235174447,-187500.02235174447,-187500.02235174447,-187500.02235174447,-187500.02235174447,1730656047.9608853,1730656046.1957345,4000
24092.11833383064,-105262.7912477006,26614.557399100948,-187500.02235174447,-187500.02235174447,-187500.02235174447,-187500.02235174447,-187500.02235174447,1730656047.9647915,1730656046.1957345,4000
24066.458531195945,-105264.55703551258,26629.04132950799,-187500.02235174447,-187500.02235174447,-187500.02235174447,-187500.02235174447,-187500.02235174447,1730656047.9689803,1730656046.1957345,4000
24005.013585688303,-105255.30341330808,26651.95186757468,-187500.02235174447,-187500.02235174447,-187500.02235174447,-187500.02235174447,-187500.02235174447,1730656047.9729216,1730656046.1957345,4000
24016.345920127147,-105237.7349421662,26680.85267315539,-187500.02235174447,-187500.02235174447,-187500.02235174447,-187500.02235174447,-187500.02235174447,1730656047.975726,1730656046.1957345,4000
24040.48580413888,-105275.7552594847,26636.193887733687,-187500.02235174447,-187500.02235174447,-187500.02235174447,-187500.02235174447,-187500.02235174447,1730656047.9809067,1730656046.1957345,4000
24063.95513581695,-105289.92626546934,26607.3824891308,-187500.02235174447,-187500.02235174447,-187500.02235174447,-187500.02235174447,-187500.02235174447,1730656047.9848034,1730656046.1957345,4000
24096.365165277144,-105240.99829685668,26611.60696883285,-187500.02235174447,-187500.02235174447,-187500.02235174447,-187500.02235174447,-187500.02235174447,1730656047.9889972,1730656046.1957345,4000
24083.82583663772,-105222.44634895878,26617.0831462244,-187500.02235174447,-187500.02235174447,-187500.02235174447,-187500.02235174447,-187500.02235174447,1730656047.9949005,1730656046.1957345,4000
24058.09897876966,-105227.56489843904,26622.000530004567,-187500.02235174447,-187500.02235174447,-187500.02235174447,-187500.02235174447,-187500.02235174447,1730656047.997916,1730656046.1957345,4000
24034.51788836931,-105314.62494309248,26621.106460226358,-187500.02235174447,-187500.02235174447,-187500.02235174447,-187500.02235174447,-187500.02235174447,1730656048.0009327,1730656046.1957345,4000
24016.927065482985,-105254.07406736304,26621.57584685992,-187500.02235174447,-187500.02235174447,-187500.02235174447,-187500.02235174447,-187500.02235174447,1730656048.004799,1730656046.1957345,4000
24058.52366191431,-105233.51046246415,26625.7332713286,-187500.02235174447,-187500.02235174447,-187500.02235174447,-187500.02235174447,-187500.02235174447,1730656048.008978,1730656046.1957345,4000
24083.468208726437,-105248.59788997148,26642.497079670084,-187500.02235174447,-187500.02235174447,-187500.02235174447,-187500.02235174447,-187500.02235174447,1730656048.0129845,1730656046.1957345,4000
24043.05625475124,-105297.63761730643,26629.130736485808,-187500.02235174447,-187500.02235174447,-187500.02235174447,-187500.02235174447,-187500.02235174447,1730656048.017013,1730656046.1957345,4000
23999.492704807843,-105335.0097340357,26632.952884787668,-187500.02235174447,-187500.02235174447,-187500.02235174447,-187500.02235174447,-187500.02235174447,1730656048.0210824,1730656046.1957345,4000
24009.819210746195,-105277.0516606631,26622.000530004567,-187500.02235174447,-187500.02235174447,-187500.02235174447,-187500.02235174447,-187500.02235174447,1730656048.0238335,1730656046.1957345,4000
24037.37891165959,-105243.81461665806,26621.75466081556,-187500.02235174447,-187500.02235174447,-187500.02235174447,-187500.02235174447,-187500.02235174447,1730656048.0280116,1730656046.1957345,4000
24046.87840305309,-105250.27427080565,26623.81102130545,-187500.02235174447,-187500.02235174447,-187500.02235174447,-187500.02235174447,-187500.02235174447,1730656048.0318143,1730656046.1957345,4000
24088.76557216234,-105264.8476081905,26645.06753028244,-187500.02235174447,-187500.02235174447,-187500.02235174447,-187500.02235174447,-187500.02235174447,1730656048.0360727,1730656046.1957345,4000
24078.05908656825,-105307.11475695547,26652.46595769715,-187500.02235174447,-187500.02235174447,-187500.02235174447,-187500.02235174447,-187500.02235174447,1730656048.0409164,1730656046.1957345,4000
24003.78423974326,-105260.98075639972,26616.4349456352,-187500.02235174447,-187500.02235174447,-187500.02235174447,-187500.02235174447,-187500.02235174447,1730656048.0449734,1730656046.1957345,4000
24006.019414188795,-105253.11294235146,26609.26003566504,-187500.02235174447,-187500.02235174447,-187500.02235174447,-187500.02235174447,-187500.02235174447,1730656048.0489,1730656046.1957345,4000
24062.94930731646,-105263.48415177871,26649.80610010697,-187500.02235174447,-187500.02235174447,-187500.02235174447,-187500.02235174447,-187500.02235174447,1730656048.052097,1730656046.1957345,4000
24029.93578075597,-105269.83204720404,26626.60498936236,-187500.02235174447,-187500.02235174447,-187500.02235174447,-187500.02235174447,-187500.02235174447,1730656048.0560353,1730656046.1957345,4000
24031.70156856794,-105229.0401135731,26609.4835531096,-187500.02235174447,-187500.02235174447,-187500.02235174447,-187500.02235174447,-187500.02235174447,1730656048.0600772,1730656046.1957345,4000
24047.75012108685,-105269.31795708156,26646.878021583325,-187500.02235174447,-187500.02235174447,-187500.02235174447,-187500.02235174447,-187500.02235174447,1730656048.0640194,1730656046.1957345,4000
24038.720016326908,-105309.93107675684,26654.00822806457,-187500.02235174447,-187500.02235174447,-187500.02235174447,-187500.02235174447,-187500.02235174447,1730656048.069035,1730656046.1957345,4000
24042.162184973025,-105271.3966693159,26605.527294341005,-187500.02235174447,-187500.02235174447,-187500.02235174447,-187500.02235174447,-187500.02235174447,1730656048.07293,1730656046.1957345,4000
24056.132025257597,-105252.77766618464,26615.69733806817,-187500.02235174447,-187500.02235174447,-187500.02235174447,-187500.02235174447,-187500.02235174447,1730656048.076072,1730656046.1957345,4000
24029.220524933404,-105262.90300642289,26646.408634949763,-187500.02235174447,-187500.02235174447,-187500.02235174447,-187500.02235174447,-187500.02235174447,1730656048.080068,1730656046.1957345,4000
24020.771565529296,-105318.71531232778,26638.9878557906,-187500.02235174447,-187500.02235174447,-187500.02235174447,-187500.02235174447,-187500.02235174447,1730656048.084098,1730656046.1957345,4000
24045.783167574784,-105265.96519541326,26614.84797177887,-187500.02235174447,-187500.02235174447,-187500.02235174447,-187500.02235174447,-187500.02235174447,1730656048.088112,1730656046.1957345,4000
24060.401208448555,-105262.90300642289,26621.687605582192,-187500.02235174447,-187500.02235174447,-187500.02235174447,-187500.02235174447,-187500.02235174447,1730656048.0921645,1730656046.1957345,4000
24028.59467608865,-105270.63671000442,26618.491306125085,-187500.02235174447,-187500.02235174447,-187500.02235174447,-187500.02235174447,-187500.02235174447,1730656048.097064,1730656046.1957345,4000
24063.57515616121,-105306.846536022,26632.639960365294,-187500.02235174447,-187500.02235174447,-187500.02235174447,-187500.02235174447,-187500.02235174447,1730656048.1011534,1730656046.1957345,4000
24053.405112434044,-105255.43752377482,26638.9878557906,-187500.02235174447,-187500.02235174447,-187500.02235174447,-187500.02235174447,-187500.02235174447,1730656048.1040473,1730656046.1957345,4000
24052.488690911377,-105254.11877085194,26633.0869952544,-187500.02235174447,-187500.02235174447,-187500.02235174447,-187500.02235174447,-187500.02235174447,1730656048.1080384,1730656046.1957345,4000
24072.135874287596,-105262.5453785116,26618.580713102903,-187500.02235174447,-187500.02235174447,-187500.02235174447,-187500.02235174447,-187500.02235174447,1730656048.112222,1730656046.1957345,4000
24057.629592136094,-105285.85824797848,26612.277521166507,-187500.02235174447,-187500.02235174447,-187500.02235174447,-187500.02235174447,-187500.02235174447,1730656048.1160688,1730656046.1957345,4000
24024.817231275705,-105272.78247747214,26627.16378297374,-187500.02235174447,-187500.02235174447,-187500.02235174447,-187500.02235174447,-187500.02235174447,1730656048.1203628,1730656046.1957345,4000
24045.64905710805,-105304.92428599886,26651.70599838567,-187500.02235174447,-187500.02235174447,-187500.02235174447,-187500.02235174447,-187500.02235174447,1730656048.1250925,1730656046.1957345,4000
24005.63943453305,-105268.73681172571,26621.732309071103,-187500.02235174447,-187500.02235174447,-187500.02235174447,-187500.02235174447,-187500.02235174447,1730656048.1289692,1730656046.1957345,4000
23991.26726284829,-105269.22855010374,26592.228006390094,-187500.02235174447,-187500.02235174447,-187500.02235174447,-187500.02235174447,-187500.02235174447,1730656048.1319685,1730656046.1957345,4000
24047.61601062012,-105296.98941671725,26611.71872755513,-187500.02235174447,-187500.02235174447,-187500.02235174447,-187500.02235174447,-187500.02235174447,1730656048.1360676,1730656046.1957345,4000
24049.202984476447,-105331.4558066673,26646.475690183128,-187500.02235174447,-187500.02235174447,-187500.02235174447,-187500.02235174447,-187500.02235174447,1730656048.1400237,1730656046.1957345,4000
24009.215713645903,-105309.39463488992,26655.192870520696,-187500.02235174447,-187500.02235174447,-187500.02235174447,-187500.02235174447,-187500.02235174447,1730656048.1440492,1730656046.1957345,4000
24010.31094912421,-105289.68039628034,26633.91400979925,-187500.02235174447,-187500.02235174447,-187500.02235174447,-187500.02235174447,-187500.02235174447,1730656048.1480212,1730656046.1957345,4000
24022.85027776364,-105330.20410897782,26595.64782329176,-187500.02235174447,-187500.02235174447,-187500.02235174447,-187500.02235174447,-187500.02235174447,1730656048.1521318,1730656046.1957345,4000
24042.2739436953,-105300.76686153018,26604.8790937518,-187500.02235174447,-187500.02235174447,-187500.02235174447,-187500.02235174447,-187500.02235174447,1730656048.1569996,1730656046.1957345,4000
24055.483824668387,-105269.31795708156,26645.64867563828,-187500.02235174447,-187500.02235174447,-187500.02235174447,-187500.02235174447,-187500.02235174447,1730656048.160012,1730656046.1957345,4000
24070.347734731167,-105269.13914312593,26649.493175684594,-187500.02235174447,-187500.02235174447,-187500.02235174447,-187500.02235174447,-187500.02235174447,1730656048.1641643,1730656046.1957345,4000
24082.060048825748,-105303.96316098727,26672.291955029006,-187500.02235174447,-187500.02235174447,-187500.02235174447,-187500.02235174447,-187500.02235174447,1730656048.168184,1730656046.1957345,4000
24074.058124310748,-105339.99417304924,26643.569963403937,-187500.02235174447,-187500.02235174447,-187500.02235174447,-187500.02235174447,-187500.02235174447,1730656048.1721425,1730656046.1957345,4000
24042.206888461937,-105273.9447681838,26605.03555596299,-187500.02235174447,-187500.02235174447,-187500.02235174447,-187500.02235174447,-187500.02235174447,1730656048.1761098,1730656046.1957345,4000
24048.86770830962,-105285.27710262264,26621.75466081556,-187500.02235174447,-187500.02235174447,-187500.02235174447,-187500.02235174447,-187500.02235174447,1730656048.18117,1730656046.1957345,4000
24051.013475777327,-105338.45190268182,26628.281370196502,-187500.02235174447,-187500.02235174447,-187500.02235174447,-187500.02235174447,-187500.02235174447,1730656048.1841464,1730656046.1957345,4000
24043.77151057381,-105338.89893757094,26652.734178630613,-187500.02235174447,-187500.02235174447,-187500.02235174447,-187500.02235174447,-187500.02235174447,1730656048.1872065,1730656046.1957345,4000
23993.860065205103,-105303.53847784264,26641.290085469496,-187500.02235174447,-187500.02235174447,-187500.02235174447,-187500.02235174447,-187500.02235174447,1730656048.192392,1730656046.1957345,4000
23973.65408821751,-105277.6998612523,26584.471951064104,-187500.02235174447,-187500.02235174447,-187500.02235174447,-187500.02235174447,-187500.02235174447,1730656048.196203,1730656046.1957345,4000
24009.103954923627,-105316.18956520432,26584.40489583074,-187500.02235174447,-187500.02235174447,-187500.02235174447,-187500.02235174447,-187500.02235174447,1730656048.2002866,1730656046.1957345,4000
24043.27977219579,-105295.02246320515,26599.984061716088,-187500.02235174447,-187500.02235174447,-187500.02235174447,-187500.02235174447,-187500.02235174447,1730656048.204166,1730656046.1957345,4000
24063.15047301656,-105294.19544866032,26625.710919584148,-187500.02235174447,-187500.02235174447,-187500.02235174447,-187500.02235174447,-187500.02235174447,1730656048.2081735,1730656046.1957345,4000
24041.111652983625,-105307.1594604444,26661.674876412737,-187500.02235174447,-187500.02235174447,-187500.02235174447,-187500.02235174447,-187500.02235174447,1730656048.2122889,1730656046.1957345,4000
24029.91342901152,-105358.76963839168,26662.41248397976,-187500.02235174447,-187500.02235174447,-187500.02235174447,-187500.02235174447,-187500.02235174447,1730656048.2151144,1730656046.1957345,4000
24061.07176078221,-105318.82707105008,26613.77508804501,-187500.02235174447,-187500.02235174447,-187500.02235174447,-187500.02235174447,-187500.02235174447,1730656048.2202616,1730656046.1957345,4000
24037.80359480424,-105304.32078889856,26602.64391930627,-187500.02235174447,-187500.02235174447,-187500.02235174447,-187500.02235174447,-187500.02235174447,1730656048.224141,1730656046.1957345,4000
24015.5189055823,-105311.607457591,26645.112233771357,-187500.02235174447,-187500.02235174447,-187500.02235174447,-187500.02235174447,-187500.02235174447,1730656048.22816,1730656046.1957345,4000
24006.51115256681,-105341.4693881833,26678.841016154413,-187500.02235174447,-187500.02235174447,-187500.02235174447,-187500.02235174447,-187500.02235174447,1730656048.2321818,1730656046.1957345,4000
24025.13015569808,-105320.39169316192,26644.64284713779,-187500.02235174447,-187500.02235174447,-187500.02235174447,-187500.02235174447,-187500.02235174447,1730656048.23636,1730656046.1957345,4000
24060.15533925955,-105310.62398083496,26603.78385827349,-187500.02235174447,-187500.02235174447,-187500.02235174447,-187500.02235174447,-187500.02235174447,1730656048.2402225,1730656046.1957345,4000
24060.33415321519,-105363.15058030494,26637.64675112328,-187500.02235174447,-187500.02235174447,-187500.02235174447,-187500.02235174447,-187500.02235174447,1730656048.2432723,1730656046.1957345,4000
24024.66076906452,-105338.5189579152,26635.478631911115,-187500.02235174447,-187500.02235174447,-187500.02235174447,-187500.02235174447,-187500.02235174447,1730656048.2474575,1730656046.1957345,4000
24022.76087078582,-105354.27693775618,26597.435962848183,-187500.02235174447,-187500.02235174447,-187500.02235174447,-187500.02235174447,-187500.02235174447,1730656048.2526057,1730656046.1957345,4000
24037.535373870774,-105358.1661412914,26594.776105258003,-187500.02235174447,-187500.02235174447,-187500.02235174447,-187500.02235174447,-187500.02235174447,1730656048.2562287,1730656046.1957345,4000
24024.3701963866,-105324.79498681964,26624.347463172373,-187500.02235174447,-187500.02235174447,-187500.02235174447,-187500.02235174447,-187500.02235174447,1730656048.2606592,1730656046.1957345,4000
24000.69969900843,-105350.63360340997,26631.41061442025,-187500.02235174447,-187500.02235174447,-187500.02235174447,-187500.02235174447,-187500.02235174447,1730656048.263733,1730656046.1957345,4000
24047.101920497647,-105290.82033524755,26617.284311924497,-187500.02235174447,-187500.02235174447,-187500.02235174447,-187500.02235174447,-187500.02235174447,1730656048.2675724,1730656046.1957345,4000
24064.20100500596,-105290.61916954748,26623.006358505056,-187500.02235174447,-187500.02235174447,-187500.02235174447,-187500.02235174447,-187500.02235174447,1730656048.2719357,1730656046.1957345,4000
24022.224428918893,-105358.68023141388,26604.633224562796,-187500.02235174447,-187500.02235174447,-187500.02235174447,-187500.02235174447,-187500.02235174447,1730656048.2753513,1730656046.1957345,4000
24014.04369044825,-105301.68328305284,26634.40574817726,-187500.02235174447,-187500.02235174447,-187500.02235174447,-187500.02235174447,-187500.02235174447,1730656048.280259,1730656046.1957345,4000
24050.83466182169,-105320.57050711758,26678.05870509848,-187500.02235174447,-187500.02235174447,-187500.02235174447,-187500.02235174447,-187500.02235174447,1730656048.2843535,1730656046.1957345,4000
24092.25244429737,-105361.36244074852,26652.354198974877,-187500.02235174447,-187500.02235174447,-187500.02235174447,-187500.02235174447,-187500.02235174447,1730656048.288273,1730656046.1957345,4000
24086.083362827703,-105313.9543907588,26620.54766661497,-187500.02235174447,-187500.02235174447,-187500.02235174447,-187500.02235174447,-187500.02235174447,1730656048.291412,1730656046.1957345,4000
23999.112725152103,-105296.96706497278,26617.10549796885,-187500.02235174447,-187500.02235174447,-187500.02235174447,-187500.02235174447,-187500.02235174447,1730656048.2953372,1730656046.1957345,4000
23977.52094000828,-105318.33533267204,26632.237628965097,-187500.02235174447,-187500.02235174447,-187500.02235174447,-187500.02235174447,-187500.02235174447,1730656048.2994397,1730656046.1957345,4000
24009.886265979563,-105302.57735283104,26614.199771189666,-187500.02235174447,-187500.02235174447,-187500.02235174447,-187500.02235174447,-187500.02235174447,1730656048.303392,1730656046.1957345,4000
24025.867763265105,-105346.3197167301,26612.16576244423,-187500.02235174447,-187500.02235174447,-187500.02235174447,-187500.02235174447,-187500.02235174447,1730656048.3073468,1730656046.1957345,4000
24030.58398134517,-105299.82808826304,26620.480611381605,-187500.02235174447,-187500.02235174447,-187500.02235174447,-187500.02235174447,-187500.02235174447,1730656048.3115275,1730656046.1957345,4000
24018.89401899505,-105323.02919900768,26645.156937260264,-187500.02235174447,-187500.02235174447,-187500.02235174447,-187500.02235174447,-187500.02235174447,1730656048.315302,1730656046.1957345,4000
23998.08454490716,-105336.08261776956,26638.83139357941,-187500.02235174447,-187500.02235174447,-187500.02235174447,-187500.02235174447,-187500.02235174447,1730656048.319429,1730656046.1957345,4000
24034.29437092476,-105333.89214681294,26604.387355373783,-187500.02235174447,-187500.02235174447,-187500.02235174447,-187500.02235174447,-187500.02235174447,1730656048.324582,1730656046.1957345,4000
24057.04844678026,-105317.01657974918,26611.584617088392,-187500.02235174447,-187500.02235174447,-187500.02235174447,-187500.02235174447,-187500.02235174447,1730656048.3283525,1730656046.1957345,4000
24049.560612387733,-105293.79311726012,26630.427137664217,-187500.02235174447,-187500.02235174447,-187500.02235174447,-187500.02235174447,-187500.02235174447,1730656048.331378,1730656046.1957345,4000
24036.261324436826,-105352.95818483332,26613.75273630056,-187500.02235174447,-187500.02235174447,-187500.02235174447,-187500.02235174447,-187500.02235174447,1730656048.3354175,1730656046.1957345,4000
24018.4693358504,-105297.0564719506,26608.65653856475,-187500.02235174447,-187500.02235174447,-187500.02235174447,-187500.02235174447,-187500.02235174447,1730656048.339378,1730656046.1957345,4000
24030.33811215617,-105286.7970212456,26638.183192990207,-187500.02235174447,-187500.02235174447,-187500.02235174447,-187500.02235174447,-187500.02235174447,1730656048.3435402,1730656046.1957345,4000
24043.5256413848,-105345.4703504408,26648.75556811757,-187500.02235174447,-187500.02235174447,-187500.02235174447,-187500.02235174447,-187500.02235174447,1730656048.3474176,1730656046.1957345,4000
24029.153469700035,-105360.78129539268,26623.296931182973,-187500.02235174447,-187500.02235174447,-187500.02235174447,-187500.02235174447,-187500.02235174447,1730656048.3525455,1730656046.1957345,4000
24056.71317061343,-105304.23138192076,26621.17351545972,-187500.02235174447,-187500.02235174447,-187500.02235174447,-187500.02235174447,-187500.02235174447,1730656048.356368,1730656046.1957345,4000
24102.690708958,-105297.21293416178,26638.87609706832,-187500.02235174447,-187500.02235174447,-187500.02235174447,-187500.02235174447,-187500.02235174447,1730656048.3595335,1730656046.1957345,4000
24033.17678370199,-105310.3557599015,26651.90716408577,-187500.02235174447,-187500.02235174447,-187500.02235174447,-187500.02235174447,-187500.02235174447,1730656048.3634875,1730656046.1957345,4000
23993.18951287145,-105321.44222515132,26617.999567747065,-187500.02235174447,-187500.02235174447,-187500.02235174447,-187500.02235174447,-187500.02235174447,1730656048.3675668,1730656046.1957345,4000
24041.46928089491,-105274.9505966843,26623.92278002772,-187500.02235174447,-187500.02235174447,-187500.02235174447,-187500.02235174447,-187500.02235174447,1730656048.3716128,1730656046.1957345,4000
24063.95513581695,-105288.29458812412,26616.41259389074,-187500.02235174447,-187500.02235174447,-187500.02235174447,-187500.02235174447,-187500.02235174447,1730656048.3753912,1730656046.1957345,4000
24032.908562768527,-105336.32848695856,26604.43205886269,-187500.02235174447,-187500.02235174447,-187500.02235174447,-187500.02235174447,-187500.02235174447,1730656048.3856404,1730656046.1957345,4000
23985.768733712284,-105254.49875050769,26624.414518405734,-187500.02235174447,-187500.02235174447,-187500.02235174447,-187500.02235174447,-187500.02235174447,1730656048.388593,1730656046.1957345,4000
24011.33912936916,-105250.20721557229,26659.439701967207,-187500.02235174447,-187500.02235174447,-187500.02235174447,-187500.02235174447,-187500.02235174447,1730656048.391651,1730656046.1957345,4000
24028.728786555384,-105266.2557680912,26682.931385389733,-187500.02235174447,-187500.02235174447,-187500.02235174447,-187500.02235174447,-187500.02235174447,1730656048.3944612,1730656046.1957345,4000
24025.48778360937,-105283.01957643266,26643.637018637302,-187500.02235174447,-187500.02235174447,-187500.02235174447,-187500.02235174447,-187500.02235174447,1730656048.3984165,1730656046.1957345,4000
24014.602484059636,-105291.44618409232,26591.22217788961,-187500.02235174447,-187500.02235174447,-187500.02235174447,-187500.02235174447,-187500.02235174447,1730656048.401506,1730656046.1957345,4000
24011.5179433248,-105252.37533478445,26601.66044255024,-187500.02235174447,-187500.02235174447,-187500.02235174447,-187500.02235174447,-187500.02235174447,1730656048.4045296,1730656046.1957345,4000
24012.65788229202,-105272.06722164956,26633.198753976674,-187500.02235174447,-187500.02235174447,-187500.02235174447,-187500.02235174447,-187500.02235174447,1730656048.408444,1730656046.1957345,4000
24027.365330143613,-105342.29640272814,26639.94898080218,-187500.02235174447,-187500.02235174447,-187500.02235174447,-187500.02235174447,-187500.02235174447,1730656048.4114685,1730656046.1957345,4000
24031.61216159012,-105263.97589015674,26638.719634857134,-187500.02235174447,-187500.02235174447,-187500.02235174447,-187500.02235174447,-187500.02235174447,1730656048.4144516,1730656046.1957345,4000
24022.112670196613,-105252.46474176226,26677.969298120654,-187500.02235174447,-187500.02235174447,-187500.02235174447,-187500.02235174447,-187500.02235174447,1730656048.4195642,1730656046.1957345,4000
24032.081548223683,-105282.43843107682,26642.74294885909,-187500.02235174447,-187500.02235174447,-187500.02235174447,-187500.02235174447,-187500.02235174447,1730656048.423445,1730656046.1957345,4000
24047.79482457576,-105328.30421069912,26606.197846674662,-187500.02235174447,-187500.02235174447,-187500.02235174447,-187500.02235174447,-187500.02235174447,1730656048.427592,1730656046.1957345,4000
24072.158226032047,-105273.0506984056,26610.93641649919,-187500.02235174447,-187500.02235174447,-187500.02235174447,-187500.02235174447,-187500.02235174447,1730656048.4335058,1730656046.1957345,4000
24049.962943787927,-105323.47623389676,26652.51066118606,-187500.02235174447,-187500.02235174447,-187500.02235174447,-187500.02235174447,-187500.02235174447,1730656048.4366865,1730656046.1957345,4000
23968.490835248333,-105296.98941671725,26634.27163771053,-187500.02235174447,-187500.02235174447,-187500.02235174447,-187500.02235174447,-187500.02235174447,1730656048.4394655,1730656046.1957345,4000
24004.968882199395,-105291.22266664777,26613.50686711155,-187500.02235174447,-187500.02235174447,-187500.02235174447,-187500.02235174447,-187500.02235174447,1730656048.4436145,1730656046.1957345,4000
24043.90562104054,-105300.23041966325,26588.40585808824,-187500.02235174447,-187500.02235174447,-187500.02235174447,-187500.02235174447,-187500.02235174447,1730656048.447642,1730656046.1957345,4000
24030.2710569228,-105312.16625120238,26601.32516638341,-187500.02235174447,-187500.02235174447,-187500.02235174447,-187500.02235174447,-187500.02235174447,1730656048.4515653,1730656046.1957345,4000
24013.84252474815,-105290.88739048092,26617.708995069148,-187500.02235174447,-187500.02235174447,-187500.02235174447,-187500.02235174447,-187500.02235174447,1730656048.4555116,1730656046.1957345,4000
24040.508155883334,-105268.91562568136,26623.006358505056,-187500.02235174447,-187500.02235174447,-187500.02235174447,-187500.02235174447,-187500.02235174447,1730656048.4596565,1730656046.1957345,4000
24048.890060054076,-105328.99711477724,26628.16961147423,-187500.02235174447,-187500.02235174447,-187500.02235174447,-187500.02235174447,-187500.02235174447,1730656048.464544,1730656046.1957345,4000
24063.86572883913,-105372.20303680934,26643.90523957077,-187500.02235174447,-187500.02235174447,-187500.02235174447,-187500.02235174447,-187500.02235174447,1730656048.4675813,1730656046.1957345,4000
24040.1728797165,-105286.43939333432,26651.37072221884,-187500.02235174447,-187500.02235174447,-187500.02235174447,-187500.02235174447,-187500.02235174447,1730656048.4706495,1730656046.1957345,4000
24002.89016996505,-105286.64055903442,26625.68856783969,-187500.02235174447,-187500.02235174447,-187500.02235174447,-187500.02235174447,-187500.02235174447,1730656048.475756,1730656046.1957345,4000
24027.41003363252,-105269.0497361481,26612.43398337769,-187500.02235174447,-187500.02235174447,-187500.02235174447,-187500.02235174447,-187500.02235174447,1730656048.4796495,1730656046.1957345,4000
24057.786054347285,-105318.64825709442,26637.982027290112,-187500.02235174447,-187500.02235174447,-187500.02235174447,-187500.02235174447,-187500.02235174447,1730656048.483693,1730656046.1957345,4000
24018.4693358504,-105320.30228618412,26648.442643695194,-187500.02235174447,-187500.02235174447,-187500.02235174447,-187500.02235174447,-187500.02235174447,1730656048.4875596,1730656046.1957345,4000
23998.37511758508,-105308.9476000008,26616.25613167955,-187500.02235174447,-187500.02235174447,-187500.02235174447,-187500.02235174447,-187500.02235174447,1730656048.4916425,1730656046.1957345,4000
24032.79680404625,-105339.68124862686,26632.237628965097,-187500.02235174447,-187500.02235174447,-187500.02235174447,-187500.02235174447,-187500.02235174447,1730656048.4957447,1730656046.1957345,4000
24042.76568207332,-105289.88156198044,26620.346500914875,-187500.02235174447,-187500.02235174447,-187500.02235174447,-187500.02235174447,-187500.02235174447,1730656048.4986048,1730656046.1957345,4000
24022.33618764117,-105272.5589600276,26625.80032656197,-187500.02235174447,-187500.02235174447,-187500.02235174447,-187500.02235174447,-187500.02235174447,1730656048.50363,1730656046.1957345,4000
24010.37800435758,-105305.4607278658,26626.582637617903,-187500.02235174447,-187500.02235174447,-187500.02235174447,-187500.02235174447,-187500.02235174447,1730656048.5077012,1730656046.1957345,4000
23994.4635623054,-105323.36447517449,26609.103573453853,-187500.02235174447,-187500.02235174447,-187500.02235174447,-187500.02235174447,-187500.02235174447,1730656048.5116808,1730656046.1957345,4000
23999.15742864101,-105272.4919047942,26623.40868990525,-187500.02235174447,-187500.02235174447,-187500.02235174447,-187500.02235174447,-187500.02235174447,1730656048.5156336,1730656046.1957345,4000
24030.38281564508,-105275.48703855122,26640.440719180195,-187500.02235174447,-187500.02235174447,-187500.02235174447,-187500.02235174447,-187500.02235174447,1730656048.5187469,1730656046.1957345,4000
24055.90850781304,-105281.72317525426,26661.116082801356,-187500.02235174447,-187500.02235174447,-187500.02235174447,-187500.02235174447,-187500.02235174447,1730656048.5226564,1730656046.1957345,4000
24029.44404237796,-105291.89321898142,26630.76241383105,-187500.02235174447,-187500.02235174447,-187500.02235174447,-187500.02235174447,-187500.02235174447,1730656048.5267196,1730656046.1957345,4000
24028.013530732816,-105323.4091786634,26609.17062868722,-187500.02235174447,-187500.02235174447,-187500.02235174447,-187500.02235174447,-187500.02235174447,1730656048.530684,1730656046.1957345,4000
24037.870650037607,-105286.64055903442,26606.197846674662,-187500.02235174447,-187500.02235174447,-187500.02235174447,-187500.02235174447,-187500.02235174447,1730656048.5358648,1730656046.1957345,4000
24048.75594958734,-105295.42479460537,26634.383396432808,-187500.02235174447,-187500.02235174447,-187500.02235174447,-187500.02235174447,-187500.02235174447,1730656048.5396676,1730656046.1957345,4000
24029.4216906335,-105268.91562568136,26639.77016684653,-187500.02235174447,-187500.02235174447,-187500.02235174447,-187500.02235174447,-187500.02235174447,1730656048.5438013,1730656046.1957345,4000
24031.61216159012,-105326.20314672032,26635.1880592332,-187500.02235174447,-187500.02235174447,-187500.02235174447,-187500.02235174447,-187500.02235174447,1730656048.5468729,1730656046.1957345,4000
24016.30121663824,-105323.90091704142,26626.068547495437,-187500.02235174447,-187500.02235174447,-187500.02235174447,-187500.02235174447,-187500.02235174447,1730656048.5507443,1730656046.1957345,4000
23985.902844179014,-105298.64344580693,26632.148221987278,-187500.02235174447,-187500.02235174447,-187500.02235174447,-187500.02235174447,-187500.02235174447,1730656048.5546815,1730656046.1957345,4000
24037.557725615232,-105282.5501897991,26647.883850083814,-187500.02235174447,-187500.02235174447,-187500.02235174447,-187500.02235174447,-187500.02235174447,1730656048.5587032,1730656046.1957345,4000
24053.069836267216,-105331.4111031784,26616.45729737965,-187500.02235174447,-187500.02235174447,-187500.02235174447,-187500.02235174447,-187500.02235174447,1730656048.5629036,1730656046.1957345,4000
24042.162184973025,-105305.81835577708,26619.005396247558,-187500.02235174447,-187500.02235174447,-187500.02235174447,-187500.02235174447,-187500.02235174447,1730656048.5677764,1730656046.1957345,4000
24009.416879346,-105266.43458204684,26634.204582477163,-187500.02235174447,-187500.02235174447,-187500.02235174447,-187500.02235174447,-187500.02235174447,1730656048.5716836,1730656046.1957345,4000
24018.4693358504,-105305.97481798826,26630.784765575503,-187500.02235174447,-187500.02235174447,-187500.02235174447,-187500.02235174447,-187500.02235174447,1730656048.5748384,1730656046.1957345,4000
24034.49553662485,-105284.58419854451,26623.31928292743,-187500.02235174447,-187500.02235174447,-187500.02235174447,-187500.02235174447,-187500.02235174447,1730656048.578859,1730656046.1957345,4000
24014.4683735929,-105299.2022394183,26627.94609402968,-187500.02235174447,-187500.02235174447,-187500.02235174447,-187500.02235174447,-187500.02235174447,1730656048.5827892,1730656046.1957345,4000
24029.57815284469,-105319.47527163928,26621.911123026744,-187500.02235174447,-187500.02235174447,-187500.02235174447,-187500.02235174447,-187500.02235174447,1730656048.5868683,1730656046.1957345,4000
24018.871667250594,-105290.57446605856,26625.84503005088,-187500.02235174447,-187500.02235174447,-187500.02235174447,-187500.02235174447,-187500.02235174447,1730656048.5918615,1730656046.1957345,4000
23997.682213506963,-105308.27704766716,26655.528146687528,-187500.02235174447,-187500.02235174447,-187500.02235174447,-187500.02235174447,-187500.02235174447,1730656048.5958529,1730656046.1957345,4000
