Fp1,Fp2,C3,C4,P7,P8,O1,O2,time_board,time_marker,marker
-7095.360111637129,-187500.02235174447,9246.268480571329,-187500.02235174447,-187500.02235174447,-187500.02235174447,-187500.02235174447,-187500.02235174447,1731451723.2106924,1731451723.2079215,4000
-7104.658437330537,-187500.02235174447,9237.707762444945,-187500.02235174447,-187500.02235174447,-187500.02235174447,-187500.02235174447,-187500.02235174447,1731451723.2159903,1731451723.2079215,4000
-7159.889597879601,-187500.02235174447,9213.433767966482,-187500.02235174447,-187500.02235174447,-187500.02235174447,-187500.02235174447,-187500.02235174447,1731451723.219829,1731451723.2079215,4000
-7160.22487404643,-187500.02235174447,9218.261744768828,-187500.02235174447,-187500.02235174447,-187500.02235174447,-187500.02235174447,-187500.02235174447,1731451723.223114,1731451723.2079215,4000
-7107.251239687353,-187500.02235174447,9241.105227602153,-187500.02235174447,-187500.02235174447,-187500.02235174447,-187500.02235174447,-187500.02235174447,1731451723.2268217,1731451723.2079215,4000
-7101.730358806892,-187500.02235174447,9239.674715957011,-187500.02235174447,-187500.02235174447,-187500.02235174447,-187500.02235174447,-187500.02235174447,1731451723.2309928,1731451723.2079215,4000
-7155.374545499629,-187500.02235174447,9218.172337791008,-187500.02235174447,-187500.02235174447,-187500.02235174447,-187500.02235174447,-187500.02235174447,1731451723.2347872,1731451723.2079215,4000
-7172.071298607743,-187500.02235174447,9216.071273812207,-187500.02235174447,-187500.02235174447,-187500.02235174447,-187500.02235174447,-187500.02235174447,1731451723.238829,1731451723.2079215,4000
-7121.131672994098,-187500.02235174447,9237.752465933856,-187500.02235174447,-187500.02235174447,-187500.02235174447,-187500.02235174447,-187500.02235174447,1731451723.2437916,1731451723.2079215,4000
-7099.383425639085,-187500.02235174447,9243.094532858677,-187500.02235174447,-187500.02235174447,-187500.02235174447,-187500.02235174447,-187500.02235174447,1731451723.2478385,1731451723.2079215,4000
-7148.51255995185,-187500.02235174447,9222.39681749306,-187500.02235174447,-187500.02235174447,-187500.02235174447,-187500.02235174447,-187500.02235174447,1731451723.2511468,1731451723.2079215,4000
-7177.6368829771145,-187500.02235174447,9214.439596466971,-187500.02235174447,-187500.02235174447,-187500.02235174447,-187500.02235174447,-187500.02235174447,1731451723.2548623,1731451723.2079215,4000
-7131.592289399182,-187500.02235174447,9234.332649032194,-187500.02235174447,-187500.02235174447,-187500.02235174447,-187500.02235174447,-187500.02235174447,1731451723.2590294,1731451723.2079215,4000
-7095.829498270691,-187500.02235174447,9244.770913692822,-187500.02235174447,-187500.02235174447,-187500.02235174447,-187500.02235174447,-187500.02235174447,1731451723.2630036,1731451723.2079215,4000
-7140.4212284590285,-187500.02235174447,9228.096512329164,-187500.02235174447,-187500.02235174447,-187500.02235174447,-187500.02235174447,-187500.02235174447,1731451723.267002,1731451723.2079215,4000
-7175.491115509405,-187500.02235174447,9218.753483146846,-187500.02235174447,-187500.02235174447,-187500.02235174447,-187500.02235174447,-187500.02235174447,1731451723.271008,1731451723.2079215,4000
-7138.141350524587,-187500.02235174447,9238.333611289694,-187500.02235174447,-187500.02235174447,-187500.02235174447,-187500.02235174447,-187500.02235174447,1731451723.27593,1731451723.2079215,4000
-7096.701216304447,-187500.02235174447,9252.59402425218,-187500.02235174447,-187500.02235174447,-187500.02235174447,-187500.02235174447,-187500.02235174447,1731451723.278876,1731451723.2079215,4000
-7128.440693430984,-187500.02235174447,9233.30446878725,-187500.02235174447,-187500.02235174447,-187500.02235174447,-187500.02235174447,-187500.02235174447,1731451723.2829912,1731451723.2079215,4000
-7174.641749220104,-187500.02235174447,9217.05475056824,-187500.02235174447,-187500.02235174447,-187500.02235174447,-187500.02235174447,-187500.02235174447,1731451723.2870555,1731451723.2079215,4000
-7153.720516409936,-187500.02235174447,9228.901175129557,-187500.02235174447,-187500.02235174447,-187500.02235174447,-187500.02235174447,-187500.02235174447,1731451723.290952,1731451723.2079215,4000
-7103.3843878965845,-187500.02235174447,9248.458951527948,-187500.02235174447,-187500.02235174447,-187500.02235174447,-187500.02235174447,-187500.02235174447,1731451723.295048,1731451723.2079215,4000
-7121.534004394294,-187500.02235174447,9235.114960088127,-187500.02235174447,-187500.02235174447,-187500.02235174447,-187500.02235174447,-187500.02235174447,1731451723.29903,1731451723.2079215,4000
-7175.446412020495,-187500.02235174447,9212.740863888368,-187500.02235174447,-187500.02235174447,-187500.02235174447,-187500.02235174447,-187500.02235174447,1731451723.3030632,1731451723.2079215,4000
-7162.772972914336,-187500.02235174447,9222.39681749306,-187500.02235174447,-187500.02235174447,-187500.02235174447,-187500.02235174447,-187500.02235174447,1731451723.3060267,1731451723.2079215,4000
-7105.999541997856,-187500.02235174447,9244.681506715002,-187500.02235174447,-187500.02235174447,-187500.02235174447,-187500.02235174447,-187500.02235174447,1731451723.3109844,1731451723.2079215,4000
-7108.681751332492,-187500.02235174447,9240.948765390964,-187500.02235174447,-187500.02235174447,-187500.02235174447,-187500.02235174447,-187500.02235174447,1731451723.3151364,1731451723.2079215,4000
-7156.827408889224,-187500.02235174447,9224.8778611276,-187500.02235174447,-187500.02235174447,-187500.02235174447,-187500.02235174447,-187500.02235174447,1731451723.3190029,1731451723.2079215,4000
-7156.447429233484,-187500.02235174447,9229.81759665222,-187500.02235174447,-187500.02235174447,-187500.02235174447,-187500.02235174447,-187500.02235174447,1731451723.323156,1731451723.2079215,4000
-7107.385350154084,-187500.02235174447,9250.962346906945,-187500.02235174447,-187500.02235174447,-187500.02235174447,-187500.02235174447,-187500.02235174447,1731451723.3269553,1731451723.2079215,4000
-7102.35620765164,-187500.02235174447,9250.627070740113,-187500.02235174447,-187500.02235174447,-187500.02235174447,-187500.02235174447,-187500.02235174447,1731451723.331242,1731451723.2079215,4000
-7152.021783831333,-187500.02235174447,9227.73888441788,-187500.02235174447,-187500.02235174447,-187500.02235174447,-187500.02235174447,-187500.02235174447,1731451723.3342104,1731451723.2079215,4000
-7168.584426472715,-187500.02235174447,9221.972134348409,-187500.02235174447,-187500.02235174447,-187500.02235174447,-187500.02235174447,-187500.02235174447,1731451723.338272,1731451723.2079215,4000
-7120.975210782911,-187500.02235174447,9239.607660723646,-187500.02235174447,-187500.02235174447,-187500.02235174447,-187500.02235174447,-187500.02235174447,1731451723.343046,1731451723.2079215,4000
-7098.936390749978,-187500.02235174447,9244.033306125795,-187500.02235174447,-187500.02235174447,-187500.02235174447,-187500.02235174447,-187500.02235174447,1731451723.3472297,1731451723.2079215,4000
-7143.617527916137,-187500.02235174447,9226.084855328185,-187500.02235174447,-187500.02235174447,-187500.02235174447,-187500.02235174447,-187500.02235174447,1731451723.3509874,1731451723.2079215,4000
-7169.187923573008,-187500.02235174447,9221.748616903857,-187500.02235174447,-187500.02235174447,-187500.02235174447,-187500.02235174447,-187500.02235174447,1731451723.3572507,1731451723.2079215,4000
-7126.473739918917,-187500.02235174447,9240.524082246317,-187500.02235174447,-187500.02235174447,-187500.02235174447,-187500.02235174447,-187500.02235174447,1731451723.3600073,1731451723.2079215,4000
-7094.734262792381,-187500.02235174447,9247.900157916563,-187500.02235174447,-187500.02235174447,-187500.02235174447,-187500.02235174447,-187500.02235174447,1731451723.3632226,1731451723.2079215,4000
-7131.860510332645,-187500.02235174447,9227.805939651244,-187500.02235174447,-187500.02235174447,-187500.02235174447,-187500.02235174447,-187500.02235174447,1731451723.367211,1731451723.2079215,4000
-7174.150010842087,-187500.02235174447,9211.44446270996,-187500.02235174447,-187500.02235174447,-187500.02235174447,-187500.02235174447,-187500.02235174447,1731451723.371331,1731451723.2079215,4000
-7139.79537961428,-187500.02235174447,9231.203404808452,-187500.02235174447,-187500.02235174447,-187500.02235174447,-187500.02235174447,-187500.02235174447,1731451723.3752563,1731451723.2079215,4000
-7093.348454636152,-187500.02235174447,9248.727172461411,-187500.02235174447,-187500.02235174447,-187500.02235174447,-187500.02235174447,-187500.02235174447,1731451723.3793497,1731451723.2079215,4000
-7120.237603215886,-187500.02235174447,9233.796207165267,-187500.02235174447,-187500.02235174447,-187500.02235174447,-187500.02235174447,-187500.02235174447,1731451723.3832965,1731451723.2079215,4000
-7166.952749127478,-187500.02235174447,9217.658247668534,-187500.02235174447,-187500.02235174447,-187500.02235174447,-187500.02235174447,-187500.02235174447,1731451723.3870876,1731451723.2079215,4000
-7148.199635529475,-187500.02235174447,9228.834119896188,-187500.02235174447,-187500.02235174447,-187500.02235174447,-187500.02235174447,-187500.02235174447,1731451723.3902612,1731451723.2079215,4000
-7096.008312226333,-187500.02235174447,9246.69316371598,-187500.02235174447,-187500.02235174447,-187500.02235174447,-187500.02235174447,-187500.02235174447,1731451723.3940427,1731451723.2079215,4000
-7112.906231034545,-187500.02235174447,9236.411361266535,-187500.02235174447,-187500.02235174447,-187500.02235174447,-187500.02235174447,-187500.02235174447,1731451723.3992753,1731451723.2079215,4000
-7167.243321805397,-187500.02235174447,9216.652419168046,-187500.02235174447,-187500.02235174447,-187500.02235174447,-187500.02235174447,-187500.02235174447,1731451723.4031813,1731451723.2079215,4000
-7158.7943624012905,-187500.02235174447,9228.096512329164,-187500.02235174447,-187500.02235174447,-187500.02235174447,-187500.02235174447,-187500.02235174447,1731451723.4072115,1731451723.2079215,4000
-7103.920829763512,-187500.02235174447,9248.280137572305,-187500.02235174447,-187500.02235174447,-187500.02235174447,-187500.02235174447,-187500.02235174447,1731451723.4100363,1731451723.2079215,4000
-7102.69148381847,-187500.02235174447,9243.16158809204,-187500.02235174447,-187500.02235174447,-187500.02235174447,-187500.02235174447,-187500.02235174447,1731451723.4144151,1731451723.2079215,4000
-7152.066487320243,-187500.02235174447,9223.44734948246,-187500.02235174447,-187500.02235174447,-187500.02235174447,-187500.02235174447,-187500.02235174447,1731451723.4180856,1731451723.2079215,4000
-7158.526141467827,-187500.02235174447,9223.804977393744,-187500.02235174447,-187500.02235174447,-187500.02235174447,-187500.02235174447,-187500.02235174447,1731451723.4222956,1731451723.2079215,4000
-7106.357169909141,-187500.02235174447,9246.49199801588,-187500.02235174447,-187500.02235174447,-187500.02235174447,-187500.02235174447,-187500.02235174447,1731451723.4271054,1731451723.2079215,4000
-7088.855754000635,-187500.02235174447,9250.604718995655,-187500.02235174447,-187500.02235174447,-187500.02235174447,-187500.02235174447,-187500.02235174447,1731451723.4313748,1731451723.2079215,4000
-7138.789551113791,-187500.02235174447,9228.521195473812,-187500.02235174447,-187500.02235174447,-187500.02235174447,-187500.02235174447,-187500.02235174447,1731451723.435206,1731451723.2079215,4000
-7159.46491473495,-187500.02235174447,9224.49788147186,-187500.02235174447,-187500.02235174447,-187500.02235174447,-187500.02235174447,-187500.02235174447,1731451723.438141,1731451723.2079215,4000
-7107.072425731711,-187500.02235174447,9250.202387595462,-187500.02235174447,-187500.02235174447,-187500.02235174447,-187500.02235174447,-187500.02235174447,1731451723.4422476,1731451723.2079215,4000
-7078.7304137623805,-187500.02235174447,9259.88069294461,-187500.02235174447,-187500.02235174447,-187500.02235174447,-187500.02235174447,-187500.02235174447,1731451723.4462528,1731451723.2079215,4000
-7126.920774808023,-187500.02235174447,9236.523119988817,-187500.02235174447,-187500.02235174447,-187500.02235174447,-187500.02235174447,-187500.02235174447,1731451723.450217,1731451723.2079215,4000
-7161.297757780285,-187500.02235174447,9224.117901816118,-187500.02235174447,-187500.02235174447,-187500.02235174447,-187500.02235174447,-187500.02235174447,1731451723.4553804,1731451723.2079215,4000
-7120.192899726975,-187500.02235174447,9242.938070647488,-187500.02235174447,-187500.02235174447,-187500.02235174447,-187500.02235174447,-187500.02235174447,1731451723.4592755,1731451723.2079215,4000
-7084.988902209867,-187500.02235174447,9252.459913785447,-187500.02235174447,-187500.02235174447,-187500.02235174447,-187500.02235174447,-187500.02235174447,1731451723.463356,1731451723.2079215,4000
-7123.12097825062,-187500.02235174447,9233.907965887543,-187500.02235174447,-187500.02235174447,-187500.02235174447,-187500.02235174447,-187500.02235174447,1731451723.4663594,1731451723.2079215,4000
-7165.790458415802,-187500.02235174447,9218.641724424568,-187500.02235174447,-187500.02235174447,-187500.02235174447,-187500.02235174447,-187500.02235174447,1731451723.470284,1731451723.2079215,4000
-7129.714742864936,-187500.02235174447,9240.144102590571,-187500.02235174447,-187500.02235174447,-187500.02235174447,-187500.02235174447,-187500.02235174447,1731451723.4743516,1731451723.2079215,4000
-7078.171620150998,-187500.02235174447,9259.6348237556,-187500.02235174447,-187500.02235174447,-187500.02235174447,-187500.02235174447,-187500.02235174447,1731451723.4783604,1731451723.2079215,4000
-7103.294980918763,-187500.02235174447,9240.568785735224,-187500.02235174447,-187500.02235174447,-187500.02235174447,-187500.02235174447,-187500.02235174447,1731451723.483467,1731451723.2079215,4000
-7164.918740382045,-187500.02235174447,9218.217041279917,-187500.02235174447,-187500.02235174447,-187500.02235174447,-187500.02235174447,-187500.02235174447,1731451723.4872806,1731451723.2079215,4000
-7145.964461083944,-187500.02235174447,9231.24810829736,-187500.02235174447,-187500.02235174447,-187500.02235174447,-187500.02235174447,-187500.02235174447,1731451723.491236,1731451723.2079215,4000
-7091.180335423986,-187500.02235174447,9255.656213242555,-187500.02235174447,-187500.02235174447,-187500.02235174447,-187500.02235174447,-187500.02235174447,1731451723.4942777,1731451723.2079215,4000
-7102.624428585104,-187500.02235174447,9248.347192805672,-187500.02235174447,-187500.02235174447,-187500.02235174447,-187500.02235174447,-187500.02235174447,1731451723.498349,1731451723.2079215,4000
-7156.022746088833,-187500.02235174447,9229.34821001866,-187500.02235174447,-187500.02235174447,-187500.02235174447,-187500.02235174447,-187500.02235174447,1731451723.502198,1731451723.2079215,4000
-7151.686507664503,-187500.02235174447,9230.7787216638,-187500.02235174447,-187500.02235174447,-187500.02235174447,-187500.02235174447,-187500.02235174447,1731451723.5064557,1731451723.2079215,4000
-7096.365940137618,-187500.02235174447,9252.705782974455,-187500.02235174447,-187500.02235174447,-187500.02235174447,-187500.02235174447,-187500.02235174447,1731451723.510275,1731451723.2079215,4000
-7095.673036059504,-187500.02235174447,9247.229605582908,-187500.02235174447,-187500.02235174447,-187500.02235174447,-187500.02235174447,-187500.02235174447,1731451723.5153885,1731451723.2079215,4000
-7148.892539607589,-187500.02235174447,9226.35307626165,-187500.02235174447,-187500.02235174447,-187500.02235174447,-187500.02235174447,-187500.02235174447,1731451723.5192356,1731451723.2079215,4000
-7159.956653112967,-187500.02235174447,9228.096512329164,-187500.02235174447,-187500.02235174447,-187500.02235174447,-187500.02235174447,-187500.02235174447,1731451723.522437,1731451723.2079215,4000
-7107.385350154084,-187500.02235174447,9250.001221895363,-187500.02235174447,-187500.02235174447,-187500.02235174447,-187500.02235174447,-187500.02235174447,1731451723.5262969,1731451723.2079215,4000
-7089.995692967856,-187500.02235174447,9250.135332362095,-187500.02235174447,-187500.02235174447,-187500.02235174447,-187500.02235174447,-187500.02235174447,1731451723.5303855,1731451723.2079215,4000
-7138.163702269042,-187500.02235174447,9228.521195473812,-187500.02235174447,-187500.02235174447,-187500.02235174447,-187500.02235174447,-187500.02235174447,1731451723.5343215,1731451723.2079215,4000
-7156.872112378134,-187500.02235174447,9226.621297195114,-187500.02235174447,-187500.02235174447,-187500.02235174447,-187500.02235174447,-187500.02235174447,1731451723.538376,1731451723.2079215,4000
-7109.061730988233,-187500.02235174447,9247.319012560729,-187500.02235174447,-187500.02235174447,-187500.02235174447,-187500.02235174447,-187500.02235174447,1731451723.5432773,1731451723.2079215,4000
-7080.6079602966265,-187500.02235174447,9257.131428376608,-187500.02235174447,-187500.02235174447,-187500.02235174447,-187500.02235174447,-187500.02235174447,1731451723.546294,1731451723.2079215,4000
-7118.561222381738,-187500.02235174447,9239.674715957011,-187500.02235174447,-187500.02235174447,-187500.02235174447,-187500.02235174447,-187500.02235174447,1731451723.5504332,1731451723.2079215,4000
-7149.473684963427,-187500.02235174447,9230.01876235232,-187500.02235174447,-187500.02235174447,-187500.02235174447,-187500.02235174447,-187500.02235174447,1731451723.5544696,1731451723.2079215,4000
-7108.659399588037,-187500.02235174447,9248.905986417054,-187500.02235174447,-187500.02235174447,-187500.02235174447,-187500.02235174447,-187500.02235174447,1731451723.5585222,1731451723.2079215,4000
-7073.410698582018,-187500.02235174447,9257.712573732446,-187500.02235174447,-187500.02235174447,-187500.02235174447,-187500.02235174447,-187500.02235174447,1731451723.5624676,1731451723.2079215,4000
-7108.815861799224,-187500.02235174447,9238.221852567418,-187500.02235174447,-187500.02235174447,-187500.02235174447,-187500.02235174447,-187500.02235174447,1731451723.5664475,1731451723.2079215,4000
-7153.318185009741,-187500.02235174447,9219.49109071387,-187500.02235174447,-187500.02235174447,-187500.02235174447,-187500.02235174447,-187500.02235174447,1731451723.5715015,1731451723.2079215,4000
-7127.747789352869,-187500.02235174447,9231.78455016429,-187500.02235174447,-187500.02235174447,-187500.02235174447,-187500.02235174447,-187500.02235174447,1731451723.5745757,1731451723.2079215,4000
-7081.92671321949,-187500.02235174447,9247.49782651637,-187500.02235174447,-187500.02235174447,-187500.02235174447,-187500.02235174447,-187500.02235174447,1731451723.5795622,1731451723.2079215,4000
-7103.429091385495,-187500.02235174447,9234.600869965658,-187500.02235174447,-187500.02235174447,-187500.02235174447,-187500.02235174447,-187500.02235174447,1731451723.5824072,1731451723.2079215,4000
-7151.641804175592,-187500.02235174447,9215.423073223004,-187500.02235174447,-187500.02235174447,-187500.02235174447,-187500.02235174447,-187500.02235174447,1731451723.586332,1731451723.2079215,4000
-7135.481492934406,-187500.02235174447,9226.218965794917,-187500.02235174447,-187500.02235174447,-187500.02235174447,-187500.02235174447,-187500.02235174447,1731451723.5924623,1731451723.2079215,4000
-7085.055957443233,-187500.02235174447,9248.905986417054,-187500.02235174447,-187500.02235174447,-187500.02235174447,-187500.02235174447,-187500.02235174447,1731451723.5954423,1731451723.2079215,4000
-7094.197820925453,-187500.02235174447,9239.49590200137,-187500.02235174447,-187500.02235174447,-187500.02235174447,-187500.02235174447,-187500.02235174447,1731451723.5994785,1731451723.2079215,4000
-7149.920719852534,-187500.02235174447,9216.093625556665,-187500.02235174447,-187500.02235174447,-187500.02235174447,-187500.02235174447,-187500.02235174447,1731451723.6023767,1731451723.2079215,4000
-7149.004298329866,-187500.02235174447,9219.580497691692,-187500.02235174447,-187500.02235174447,-187500.02235174447,-187500.02235174447,-187500.02235174447,1731451723.6054313,1731451723.2079215,4000
-7094.197820925453,-187500.02235174447,9241.060524113242,-187500.02235174447,-187500.02235174447,-187500.02235174447,-187500.02235174447,-187500.02235174447,1731451723.6103935,1731451723.2079215,4000
-7086.933503977479,-187500.02235174447,9239.339439790185,-187500.02235174447,-187500.02235174447,-187500.02235174447,-187500.02235174447,-187500.02235174447,1731451723.6145475,1731451723.2079215,4000
-7139.169530769531,-187500.02235174447,9218.418206980015,-187500.02235174447,-187500.02235174447,-187500.02235174447,-187500.02235174447,-187500.02235174447,1731451723.6183617,1731451723.2079215,4000
-7150.971251841933,-187500.02235174447,9217.25591626834,-187500.02235174447,-187500.02235174447,-187500.02235174447,-187500.02235174447,-187500.02235174447,1731451723.6224637,1731451723.2079215,4000
-7101.7974140402575,-187500.02235174447,9236.8807479001,-187500.02235174447,-187500.02235174447,-187500.02235174447,-187500.02235174447,-187500.02235174447,1731451723.6274836,1731451723.2079215,4000
-7084.2512946428415,-187500.02235174447,9240.524082246317,-187500.02235174447,-187500.02235174447,-187500.02235174447,-187500.02235174447,-187500.02235174447,1731451723.630606,1731451723.2079215,4000
-7135.012106300844,-187500.02235174447,9213.992561577865,-187500.02235174447,-187500.02235174447,-187500.02235174447,-187500.02235174447,-187500.02235174447,1731451723.6335485,1731451723.2079215,4000
-7150.010126830355,-187500.02235174447,9216.719474401412,-187500.02235174447,-187500.02235174447,-187500.02235174447,-187500.02235174447,-187500.02235174447,1731451723.6385024,1731451723.2079215,4000
-7102.646780329559,-187500.02235174447,9240.97111713542,-187500.02235174447,-187500.02235174447,-187500.02235174447,-187500.02235174447,-187500.02235174447,1731451723.6424923,1731451723.2079215,4000
-7068.649777013037,-187500.02235174447,9251.096457373676,-187500.02235174447,-187500.02235174447,-187500.02235174447,-187500.02235174447,-187500.02235174447,1731451723.6466012,1731451723.2079215,4000
-7106.915963520523,-187500.02235174447,9233.907965887543,-187500.02235174447,-187500.02235174447,-187500.02235174447,-187500.02235174447,-187500.02235174447,1731451723.650566,1731451723.2079215,4000
-7142.2987749932745,-187500.02235174447,9222.195651792965,-187500.02235174447,-187500.02235174447,-187500.02235174447,-187500.02235174447,-187500.02235174447,1731451723.654524,1731451723.2079215,4000
-7106.223059442408,-187500.02235174447,9239.8311781682,-187500.02235174447,-187500.02235174447,-187500.02235174447,-187500.02235174447,-187500.02235174447,1731451723.6594238,1731451723.2079215,4000
-7066.772230478791,-187500.02235174447,9251.141160862584,-187500.02235174447,-187500.02235174447,-187500.02235174447,-187500.02235174447,-187500.02235174447,1731451723.6625853,1731451723.2079215,4000
-7100.299847161752,-187500.02235174447,9231.628087953102,-187500.02235174447,-187500.02235174447,-187500.02235174447,-187500.02235174447,-187500.02235174447,1731451723.6665556,1731451723.2079215,4000
-7147.46202796245,-187500.02235174447,9216.898288357055,-187500.02235174447,-187500.02235174447,-187500.02235174447,-187500.02235174447,-187500.02235174447,1731451723.670634,1731451723.2079215,4000
-7121.757521838847,-187500.02235174447,9228.454140240448,-187500.02235174447,-187500.02235174447,-187500.02235174447,-187500.02235174447,-187500.02235174447,1731451723.6745796,1731451723.2079215,4000
-7073.433050326473,-187500.02235174447,9245.329707304203,-187500.02235174447,-187500.02235174447,-187500.02235174447,-187500.02235174447,-187500.02235174447,1731451723.6786213,1731451723.2079215,4000
-7091.895591246556,-187500.02235174447,9233.81855890972,-187500.02235174447,-187500.02235174447,-187500.02235174447,-187500.02235174447,-187500.02235174447,1731451723.682609,1731451723.2079215,4000
-7143.237548260397,-187500.02235174447,9213.858451111131,-187500.02235174447,-187500.02235174447,-187500.02235174447,-187500.02235174447,-187500.02235174447,1731451723.685598,1731451723.2079215,4000
-7131.972269054922,-187500.02235174447,9220.67573317,-187500.02235174447,-187500.02235174447,-187500.02235174447,-187500.02235174447,-187500.02235174447,1731451723.689644,1731451723.2079215,4000
-7082.396099853051,-187500.02235174447,9238.937108389988,-187500.02235174447,-187500.02235174447,-187500.02235174447,-187500.02235174447,-187500.02235174447,1731451723.6944673,1731451723.2079215,4000
-7088.922809234001,-187500.02235174447,9231.896308886566,-187500.02235174447,-187500.02235174447,-187500.02235174447,-187500.02235174447,-187500.02235174447,1731451723.698718,1731451723.2079215,4000
-7140.063600547744,-187500.02235174447,9214.461948211429,-187500.02235174447,-187500.02235174447,-187500.02235174447,-187500.02235174447,-187500.02235174447,1731451723.7026715,1731451723.2079215,4000
-7143.952804082966,-187500.02235174447,9218.06057906873,-187500.02235174447,-187500.02235174447,-187500.02235174447,-187500.02235174447,-187500.02235174447,1731451723.7067287,1731451723.2079215,4000
-7090.085099945677,-187500.02235174447,9238.668887456524,-187500.02235174447,-187500.02235174447,-187500.02235174447,-187500.02235174447,-187500.02235174447,1731451723.7105432,1731451723.2079215,4000
-7081.054995185733,-187500.02235174447,9239.78647467929,-187500.02235174447,-187500.02235174447,-187500.02235174447,-187500.02235174447,-187500.02235174447,1731451723.713502,1731451723.2079215,4000
-7129.804149842757,-187500.02235174447,9221.480395970391,-187500.02235174447,-187500.02235174447,-187500.02235174447,-187500.02235174447,-187500.02235174447,1731451723.7175894,1731451723.2079215,4000
-7143.975155827422,-187500.02235174447,9217.032398823789,-187500.02235174447,-187500.02235174447,-187500.02235174447,-187500.02235174447,-187500.02235174447,1731451723.722732,1731451723.2079215,4000
-7094.734262792381,-187500.02235174447,9235.271422299316,-187500.02235174447,-187500.02235174447,-187500.02235174447,-187500.02235174447,-187500.02235174447,1731451723.7265084,1731451723.2079215,4000
-7074.081250915677,-187500.02235174447,9239.8311781682,-187500.02235174447,-187500.02235174447,-187500.02235174447,-187500.02235174447,-187500.02235174447,1731451723.730618,1731451723.2079215,4000
-7124.104455006655,-187500.02235174447,9216.652419168046,-187500.02235174447,-187500.02235174447,-187500.02235174447,-187500.02235174447,-187500.02235174447,1731451723.7345705,1731451723.2079215,4000
-7152.938205354,-187500.02235174447,9210.438634209471,-187500.02235174447,-187500.02235174447,-187500.02235174447,-187500.02235174447,-187500.02235174447,1731451723.73868,1731451723.2079215,4000
-7108.614696099126,-187500.02235174447,9231.382218764093,-187500.02235174447,-187500.02235174447,-187500.02235174447,-187500.02235174447,-187500.02235174447,1731451723.7425616,1731451723.2079215,4000
-7072.762497992814,-187500.02235174447,9239.719419445924,-187500.02235174447,-187500.02235174447,-187500.02235174447,-187500.02235174447,-187500.02235174447,1731451723.7466557,1731451723.2079215,4000
-7108.100605976654,-187500.02235174447,9214.81957612271,-187500.02235174447,-187500.02235174447,-187500.02235174447,-187500.02235174447,-187500.02235174447,1731451723.7497163,1731451723.2079215,4000
-7142.857568604657,-187500.02235174447,9201.117956771608,-187500.02235174447,-187500.02235174447,-187500.02235174447,-187500.02235174447,-187500.02235174447,1731451723.753595,1731451723.2079215,4000
-7114.8284810577015,-187500.02235174447,9219.15581454704,-187500.02235174447,-187500.02235174447,-187500.02235174447,-187500.02235174447,-187500.02235174447,1731451723.75761,1731451723.2079215,4000
-7068.49331480185,-187500.02235174447,9245.150893348562,-187500.02235174447,-187500.02235174447,-187500.02235174447,-187500.02235174447,-187500.02235174447,1731451723.7615469,1731451723.2079215,4000
-7098.109376205132,-187500.02235174447,9231.695143186467,-187500.02235174447,-187500.02235174447,-187500.02235174447,-187500.02235174447,-187500.02235174447,1731451723.7666588,1731451723.2079215,4000
-7144.5339494388045,-187500.02235174447,9218.753483146846,-187500.02235174447,-187500.02235174447,-187500.02235174447,-187500.02235174447,-187500.02235174447,1731451723.7706275,1731451723.2079215,4000
-7120.058789260243,-187500.02235174447,9231.806901908743,-187500.02235174447,-187500.02235174447,-187500.02235174447,-187500.02235174447,-187500.02235174447,1731451723.7746296,1731451723.2079215,4000
-7069.096811902144,-187500.02235174447,9246.9837363939,-187500.02235174447,-187500.02235174447,-187500.02235174447,-187500.02235174447,-187500.02235174447,1731451723.77773,1731451723.2079215,4000
-7083.580742309183,-187500.02235174447,9236.97015487792,-187500.02235174447,-187500.02235174447,-187500.02235174447,-187500.02235174447,-187500.02235174447,1731451723.7818134,1731451723.2079215,4000
-7137.202577257464,-187500.02235174447,9218.172337791008,-187500.02235174447,-187500.02235174447,-187500.02235174447,-187500.02235174447,-187500.02235174447,1731451723.7857623,1731451723.2079215,4000
-7127.099588763665,-187500.02235174447,9224.453177982949,-187500.02235174447,-187500.02235174447,-187500.02235174447,-187500.02235174447,-187500.02235174447,1731451723.7896087,1731451723.2079215,4000
-7066.705175245425,-187500.02235174447,9241.395800280072,-187500.02235174447,-187500.02235174447,-187500.02235174447,-187500.02235174447,-187500.02235174447,1731451723.7945917,1731451723.2079215,4000
-7069.566198535705,-187500.02235174447,9230.39874200806,-187500.02235174447,-187500.02235174447,-187500.02235174447,-187500.02235174447,-187500.02235174447,1731451723.7987874,1731451723.2079215,4000
-7137.627260402115,-187500.02235174447,9208.941067330965,-187500.02235174447,-187500.02235174447,-187500.02235174447,-187500.02235174447,-187500.02235174447,1731451723.8026507,1731451723.2079215,4000
-7148.043173318288,-187500.02235174447,9217.099454057152,-187500.02235174447,-187500.02235174447,-187500.02235174447,-187500.02235174447,-187500.02235174447,1731451723.805676,1731451723.2079215,4000
-7091.649722057548,-187500.02235174447,9239.272384556816,-187500.02235174447,-187500.02235174447,-187500.02235174447,-187500.02235174447,-187500.02235174447,1731451723.8096387,1731451723.2079215,4000
-7075.377652094085,-187500.02235174447,9238.043038611777,-187500.02235174447,-187500.02235174447,-187500.02235174447,-187500.02235174447,-187500.02235174447,1731451723.815793,1731451723.2079215,4000
-7128.597155642171,-187500.02235174447,9211.288000498773,-187500.02235174447,-187500.02235174447,-187500.02235174447,-187500.02235174447,-187500.02235174447,1731451723.8189287,1731451723.2079215,4000
-7144.757466883358,-187500.02235174447,9207.935238830476,-187500.02235174447,-187500.02235174447,-187500.02235174447,-187500.02235174447,-187500.02235174447,1731451723.8217404,1731451723.2079215,4000
-7098.176431438498,-187500.02235174447,9225.324896016706,-187500.02235174447,-187500.02235174447,-187500.02235174447,-187500.02235174447,-187500.02235174447,1731451723.826678,1731451723.2079215,4000
-7075.802335238735,-187500.02235174447,9229.057637340742,-187500.02235174447,-187500.02235174447,-187500.02235174447,-187500.02235174447,-187500.02235174447,1731451723.8299253,1731451723.2079215,4000
-7117.60009737016,-187500.02235174447,9203.800166106244,-187500.02235174447,-187500.02235174447,-187500.02235174447,-187500.02235174447,-187500.02235174447,1731451723.83371,1731451723.2079215,4000
-7142.879920349112,-187500.02235174447,9191.193782233451,-187500.02235174447,-187500.02235174447,-187500.02235174447,-187500.02235174447,-187500.02235174447,1731451723.837684,1731451723.2079215,4000
-7116.996600269867,-187500.02235174447,9210.10335804264,-187500.02235174447,-187500.02235174447,-187500.02235174447,-187500.02235174447,-187500.02235174447,1731451723.841708,1731451723.2079215,4000
-7080.339739363163,-187500.02235174447,9234.86909089912,-187500.02235174447,-187500.02235174447,-187500.02235174447,-187500.02235174447,-187500.02235174447,1731451723.845708,1731451723.2079215,4000
-7109.709931577437,-187500.02235174447,9217.68059941299,-187500.02235174447,-187500.02235174447,-187500.02235174447,-187500.02235174447,-187500.02235174447,1731451723.849732,1731451723.2079215,4000
-7151.5747489422265,-187500.02235174447,9196.759366602822,-187500.02235174447,-187500.02235174447,-187500.02235174447,-187500.02235174447,-187500.02235174447,1731451723.8547208,1731451723.2079215,4000
-7116.147233980565,-187500.02235174447,9207.376445219094,-187500.02235174447,-187500.02235174447,-187500.02235174447,-187500.02235174447,-187500.02235174447,1731451723.8578012,1731451723.2079215,4000
-7060.714907731403,-187500.02235174447,9225.079026827696,-187500.02235174447,-187500.02235174447,-187500.02235174447,-187500.02235174447,-187500.02235174447,1731451723.8617933,1731451723.2079215,4000
-7090.599190068149,-187500.02235174447,9214.081968555683,-187500.02235174447,-187500.02235174447,-187500.02235174447,-187500.02235174447,-187500.02235174447,1731451723.8658197,1731451723.2079215,4000
-7149.5183884523385,-187500.02235174447,9198.48045092588,-187500.02235174447,-187500.02235174447,-187500.02235174447,-187500.02235174447,-187500.02235174447,1731451723.8698325,1731451723.2079215,4000
-7130.6758678765145,-187500.02235174447,9206.348264974147,-187500.02235174447,-187500.02235174447,-187500.02235174447,-187500.02235174447,-187500.02235174447,1731451723.8737347,1731451723.2079215,4000
-7074.282416615774,-187500.02235174447,9226.35307626165,-187500.02235174447,-187500.02235174447,-187500.02235174447,-187500.02235174447,-187500.02235174447,1731451723.8779776,1731451723.2079215,4000
-7085.078309187688,-187500.02235174447,9216.317143001215,-187500.02235174447,-187500.02235174447,-187500.02235174447,-187500.02235174447,-187500.02235174447,1731451723.8827746,1731451723.2079215,4000
-7134.945051067478,-187500.02235174447,9204.336607973171,-187500.02235174447,-187500.02235174447,-187500.02235174447,-187500.02235174447,-187500.02235174447,1731451723.885888,1731451723.2079215,4000
-7132.821635344224,-187500.02235174447,9210.259820253828,-187500.02235174447,-187500.02235174447,-187500.02235174447,-187500.02235174447,-187500.02235174447,1731451723.8899553,1731451723.2079215,4000
-7082.843134742157,-187500.02235174447,9225.81663439472,-187500.02235174447,-187500.02235174447,-187500.02235174447,-187500.02235174447,-187500.02235174447,1731451723.8938727,1731451723.2079215,4000
-7080.406794596529,-187500.02235174447,9223.648515182556,-187500.02235174447,-187500.02235174447,-187500.02235174447,-187500.02235174447,-187500.02235174447,1731451723.8979788,1731451723.2079215,4000
-7133.380428955607,-187500.02235174447,9200.246238737853,-187500.02235174447,-187500.02235174447,-187500.02235174447,-187500.02235174447,-187500.02235174447,1731451723.901936,1731451723.2079215,4000
-7140.242414503386,-187500.02235174447,9198.279285225784,-187500.02235174447,-187500.02235174447,-187500.02235174447,-187500.02235174447,-187500.02235174447,1731451723.9061673,1731451723.2079215,4000
-7087.268780144308,-187500.02235174447,9221.011009336831,-187500.02235174447,-187500.02235174447,-187500.02235174447,-187500.02235174447,-187500.02235174447,1731451723.911261,1731451723.2079215,4000
-7076.718756761403,-187500.02235174447,9225.079026827696,-187500.02235174447,-187500.02235174447,-187500.02235174447,-187500.02235174447,-187500.02235174447,1731451723.9140525,1731451723.2079215,4000
-7128.820673086724,-187500.02235174447,9201.810860849722,-187500.02235174447,-187500.02235174447,-187500.02235174447,-187500.02235174447,-187500.02235174447,1731451723.9188423,1731451723.2079215,4000
-7151.597100686682,-187500.02235174447,9194.68065436848,-187500.02235174447,-187500.02235174447,-187500.02235174447,-187500.02235174447,-187500.02235174447,1731451723.921974,1731451723.2079215,4000
-7104.323161163708,-187500.02235174447,9215.49012845637,-187500.02235174447,-187500.02235174447,-187500.02235174447,-187500.02235174447,-187500.02235174447,1731451723.925878,1731451723.2079215,4000
-7071.443745069951,-187500.02235174447,9224.319067516217,-187500.02235174447,-187500.02235174447,-187500.02235174447,-187500.02235174447,-187500.02235174447,1731451723.9300556,1731451723.2079215,4000
-7105.194879197465,-187500.02235174447,9205.744767873855,-187500.02235174447,-187500.02235174447,-187500.02235174447,-187500.02235174447,-187500.02235174447,1731451723.9340727,1731451723.2079215,4000
-7152.535873953805,-187500.02235174447,9194.591247390656,-187500.02235174447,-187500.02235174447,-187500.02235174447,-187500.02235174447,-187500.02235174447,1731451723.940047,1731451723.2079215,4000
-7116.951896780956,-187500.02235174447,9216.942991845965,-187500.02235174447,-187500.02235174447,-187500.02235174447,-187500.02235174447,-187500.02235174447,1731451723.942954,1731451723.2079215,4000
-7073.745974748847,-187500.02235174447,9226.531890217291,-187500.02235174447,-187500.02235174447,-187500.02235174447,-187500.02235174447,-187500.02235174447,1731451723.946986,1731451723.2079215,4000
-7099.383425639085,-187500.02235174447,9203.844869595156,-187500.02235174447,-187500.02235174447,-187500.02235174447,-187500.02235174447,-187500.02235174447,1731451723.9500508,1731451723.2079215,4000
-7148.646670418581,-187500.02235174447,9178.542694871749,-187500.02235174447,-187500.02235174447,-187500.02235174447,-187500.02235174447,-187500.02235174447,1731451723.9540603,1731451723.2079215,4000
-7132.531062666305,-187500.02235174447,9187.081061253675,-187500.02235174447,-187500.02235174447,-187500.02235174447,-187500.02235174447,-187500.02235174447,1731451723.9582374,1731451723.2079215,4000
-7087.559352822227,-187500.02235174447,9205.58830566267,-187500.02235174447,-187500.02235174447,-187500.02235174447,-187500.02235174447,-187500.02235174447,1731451723.962165,1731451723.2079215,4000
-7107.1394809650765,-187500.02235174447,9222.933259359988,-187500.02235174447,-187500.02235174447,-187500.02235174447,-187500.02235174447,-187500.02235174447,1731451723.9662452,1731451723.2079215,4000
-7147.104400051165,-187500.02235174447,9218.440558724473,-187500.02235174447,-187500.02235174447,-187500.02235174447,-187500.02235174447,-187500.02235174447,1731451723.9690456,1731451723.2079215,4000
-7103.160870452031,-187500.02235174447,9217.099454057152,-187500.02235174447,-187500.02235174447,-187500.02235174447,-187500.02235174447,-187500.02235174447,1731451723.9731748,1731451723.2079215,4000
-7043.459361011906,-187500.02235174447,9227.87299488461,-187500.02235174447,-187500.02235174447,-187500.02235174447,-187500.02235174447,-187500.02235174447,1731451723.9782252,1731451723.2079215,4000
-7083.670149287003,-187500.02235174447,9218.507613957836,-187500.02235174447,-187500.02235174447,-187500.02235174447,-187500.02235174447,-187500.02235174447,1731451723.9822435,1731451723.2079215,4000
-7156.17920830002,-187500.02235174447,9205.096567284652,-187500.02235174447,-187500.02235174447,-187500.02235174447,-187500.02235174447,-187500.02235174447,1731451723.9862213,1731451723.2079215,4000
-7142.924623838023,-187500.02235174447,9222.128596559596,-187500.02235174447,-187500.02235174447,-187500.02235174447,-187500.02235174447,-187500.02235174447,1731451723.990211,1731451723.2079215,4000
-7097.461175615928,-187500.02235174447,9246.559053249246,-187500.02235174447,-187500.02235174447,-187500.02235174447,-187500.02235174447,-187500.02235174447,1731451723.99304,1731451723.2079215,4000
-7093.683730802982,-187500.02235174447,9240.8817101576,-187500.02235174447,-187500.02235174447,-187500.02235174447,-187500.02235174447,-187500.02235174447,1731451723.9971511,1731451723.2079215,4000
-7139.3706964696285,-187500.02235174447,9207.085872541174,-187500.02235174447,-187500.02235174447,-187500.02235174447,-187500.02235174447,-187500.02235174447,1731451724.0010598,1731451723.2079215,4000
-7129.692391120481,-187500.02235174447,9188.645683365548,-187500.02235174447,-187500.02235174447,-187500.02235174447,-187500.02235174447,-187500.02235174447,1731451724.0061924,1731451723.2079215,4000
-7059.954948419923,-187500.02235174447,9185.024700763786,-187500.02235174447,-187500.02235174447,-187500.02235174447,-187500.02235174447,-187500.02235174447,1731451724.0100083,1731451723.2079215,4000
-7082.530210319783,-187500.02235174447,9198.145174759053,-187500.02235174447,-187500.02235174447,-187500.02235174447,-187500.02235174447,-187500.02235174447,1731451724.0139716,1731451723.2079215,4000
-7165.455182248972,-187500.02235174447,9231.561032719736,-187500.02235174447,-187500.02235174447,-187500.02235174447,-187500.02235174447,-187500.02235174447,1731451724.018006,1731451723.2079215,4000
-7172.317167796751,-187500.02235174447,9234.265593798827,-187500.02235174447,-187500.02235174447,-187500.02235174447,-187500.02235174447,-187500.02235174447,1731451724.0211012,1731451723.2079215,4000
-7117.868318303624,-187500.02235174447,9235.718457188425,-187500.02235174447,-187500.02235174447,-187500.02235174447,-187500.02235174447,-187500.02235174447,1731451724.025148,1731451723.2079215,4000
-7086.151192921543,-187500.02235174447,9240.188806079484,-187500.02235174447,-187500.02235174447,-187500.02235174447,-187500.02235174447,-187500.02235174447,1731451724.0291772,1731451723.2079215,4000
-7130.452350431961,-187500.02235174447,9219.200518035952,-187500.02235174447,-187500.02235174447,-187500.02235174447,-187500.02235174447,-187500.02235174447,1731451724.033185,1731451723.2079215,4000
-7166.952749127478,-187500.02235174447,9205.431843451484,-187500.02235174447,-187500.02235174447,-187500.02235174447,-187500.02235174447,-187500.02235174447,1731451724.0381956,1731451723.2079215,4000
-7129.513577164838,-187500.02235174447,9218.977000591398,-187500.02235174447,-187500.02235174447,-187500.02235174447,-187500.02235174447,-187500.02235174447,1731451724.04221,1731451723.2079215,4000
-7079.624483540593,-187500.02235174447,9226.554241961749,-187500.02235174447,-187500.02235174447,-187500.02235174447,-187500.02235174447,-187500.02235174447,1731451724.0461028,1731451723.2079215,4000
-7100.545716350761,-187500.02235174447,9208.404625464038,-187500.02235174447,-187500.02235174447,-187500.02235174447,-187500.02235174447,-187500.02235174447,1731451724.0491748,1731451723.2079215,4000
-7149.205464029964,-187500.02235174447,9194.099509012642,-187500.02235174447,-187500.02235174447,-187500.02235174447,-187500.02235174447,-187500.02235174447,1731451724.053223,1731451723.2079215,4000
-7134.766237111836,-187500.02235174447,9207.667017897013,-187500.02235174447,-187500.02235174447,-187500.02235174447,-187500.02235174447,-187500.02235174447,1731451724.0572555,1731451723.2079215,4000
-7103.540850107772,-187500.02235174447,9224.654343683043,-187500.02235174447,-187500.02235174447,-187500.02235174447,-187500.02235174447,-187500.02235174447,1731451724.0611355,1731451723.2079215,4000
-7111.922754278512,-187500.02235174447,9219.24522152486,-187500.02235174447,-187500.02235174447,-187500.02235174447,-187500.02235174447,-187500.02235174447,1731451724.0661752,1731451723.2079215,4000
-7069.633253769071,-187500.02235174447,9176.508686126315,-187500.02235174447,-187500.02235174447,-187500.02235174447,-187500.02235174447,-187500.02235174447,1731451724.0701869,1731451723.2079215,4000
-6975.063022978667,-187500.02235174447,9120.495214521316,-187500.02235174447,-187500.02235174447,-187500.02235174447,-187500.02235174447,-187500.02235174447,1731451724.0741775,1731451723.2079215,4000
-7132.464007432939,-187500.02235174447,9151.00534570281,-187500.02235174447,-187500.02235174447,-187500.02235174447,-187500.02235174447,-187500.02235174447,1731451724.077081,1731451723.2079215,4000
-7192.61255176217,-187500.02235174447,9267.145009892583,-187500.02235174447,-187500.02235174447,-187500.02235174447,-187500.02235174447,-187500.02235174447,1731451724.0811603,1731451723.2079215,4000
-7181.593141745704,-187500.02235174447,9260.685355745,-187500.02235174447,-187500.02235174447,-187500.02235174447,-187500.02235174447,-187500.02235174447,1731451724.0853431,1731451723.2079215,4000
-7186.175249359042,-187500.02235174447,9234.600869965658,-187500.02235174447,-187500.02235174447,-187500.02235174447,-187500.02235174447,-187500.02235174447,1731451724.089188,1731451723.2079215,4000
-7115.096701991165,-187500.02235174447,9255.8350271982,-187500.02235174447,-187500.02235174447,-187500.02235174447,-187500.02235174447,-187500.02235174447,1731451724.0942967,1731451723.2079215,4000
-7028.528395715761,-187500.02235174447,9243.139236347584,-187500.02235174447,-187500.02235174447,-187500.02235174447,-187500.02235174447,-187500.02235174447,1731451724.0982077,1731451723.2079215,4000
-7117.443635158973,-187500.02235174447,9169.110258711607,-187500.02235174447,-187500.02235174447,-187500.02235174447,-187500.02235174447,-187500.02235174447,1731451724.1011508,1731451723.2079215,4000
-7155.933339111011,-187500.02235174447,9187.706910098424,-187500.02235174447,-187500.02235174447,-187500.02235174447,-187500.02235174447,-187500.02235174447,1731451724.105363,1731451723.2079215,4000
-7137.739019124391,-187500.02235174447,9231.337515275183,-187500.02235174447,-187500.02235174447,-187500.02235174447,-187500.02235174447,-187500.02235174447,1731451724.1091323,1731451723.2079215,4000
-7132.687524877492,-187500.02235174447,9262.093515645684,-187500.02235174447,-187500.02235174447,-187500.02235174447,-187500.02235174447,-187500.02235174447,1731451724.1134374,1731451723.2079215,4000
-7194.177173874042,-187500.02235174447,9203.800166106244,-187500.02235174447,-187500.02235174447,-187500.02235174447,-187500.02235174447,-187500.02235174447,1731451724.1173737,1731451723.2079215,4000
-7209.197546148008,-187500.02235174447,9180.040261750251,-187500.02235174447,-187500.02235174447,-187500.02235174447,-187500.02235174447,-187500.02235174447,1731451724.12145,1731451723.2079215,4000
-7099.562239594727,-187500.02235174447,9224.989619849875,-187500.02235174447,-187500.02235174447,-187500.02235174447,-187500.02235174447,-187500.02235174447,1731451724.1261773,1731451723.2079215,4000
-7028.237823037842,-187500.02235174447,9236.567823477724,-187500.02235174447,-187500.02235174447,-187500.02235174447,-187500.02235174447,-187500.02235174447,1731451724.1293824,1731451723.2079215,4000
-7084.206591153931,-187500.02235174447,9191.685520611469,-187500.02235174447,-187500.02235174447,-187500.02235174447,-187500.02235174447,-187500.02235174447,1731451724.133407,1731451723.2079215,4000
-7120.215251471431,-187500.02235174447,9209.410453964529,-187500.02235174447,-187500.02235174447,-187500.02235174447,-187500.02235174447,-187500.02235174447,1731451724.1374547,1731451723.2079215,4000
-7062.614806010104,-187500.02235174447,9232.030419353296,-187500.02235174447,-187500.02235174447,-187500.02235174447,-187500.02235174447,-187500.02235174447,1731451724.1414125,1731451723.2079215,4000
-7055.417544295496,-187500.02235174447,9240.188806079484,-187500.02235174447,-187500.02235174447,-187500.02235174447,-187500.02235174447,-187500.02235174447,1731451724.147451,1731451723.2079215,4000
-7139.504806936361,-187500.02235174447,9220.29575351426,-187500.02235174447,-187500.02235174447,-187500.02235174447,-187500.02235174447,-187500.02235174447,1731451724.1504395,1731451723.2079215,4000
-7147.663193662548,-187500.02235174447,9170.227845934372,-187500.02235174447,-187500.02235174447,-187500.02235174447,-187500.02235174447,-187500.02235174447,1731451724.1544616,1731451723.2079215,4000
-7147.551434940271,-187500.02235174447,9176.016947748298,-187500.02235174447,-187500.02235174447,-187500.02235174447,-187500.02235174447,-187500.02235174447,1731451724.157418,1731451723.2079215,4000
-7052.82474193868,-187500.02235174447,9233.572689720711,-187500.02235174447,-187500.02235174447,-187500.02235174447,-187500.02235174447,-187500.02235174447,1731451724.1615744,1731451723.2079215,4000
-7047.840302925147,-187500.02235174447,9169.400831389528,-187500.02235174447,-187500.02235174447,-187500.02235174447,-187500.02235174447,-187500.02235174447,1731451724.165436,1731451723.2079215,4000
-7221.647467809614,-187500.02235174447,9158.269662650784,-187500.02235174447,-187500.02235174447,-187500.02235174447,-187500.02235174447,-187500.02235174447,1731451724.1695151,1731451723.2079215,4000
-7246.212034965996,-187500.02235174447,9207.041169052263,-187500.02235174447,-187500.02235174447,-187500.02235174447,-187500.02235174447,-187500.02235174447,1731451724.1735144,1731451723.2079215,4000
-7170.081993351221,-187500.02235174447,9232.6786199425,-187500.02235174447,-187500.02235174447,-187500.02235174447,-187500.02235174447,-187500.02235174447,1731451724.177389,1731451723.2079215,4000
-7089.7051202899365,-187500.02235174447,9288.870905503143,-187500.02235174447,-187500.02235174447,-187500.02235174447,-187500.02235174447,-187500.02235174447,1731451724.1824713,1731451723.2079215,4000
-7117.778911325802,-187500.02235174447,9235.24907055486,-187500.02235174447,-187500.02235174447,-187500.02235174447,-187500.02235174447,-187500.02235174447,1731451724.1852183,1731451723.2079215,4000
-7096.209477926431,-187500.02235174447,9166.09277321014,-187500.02235174447,-187500.02235174447,-187500.02235174447,-187500.02235174447,-187500.02235174447,1731451724.1893525,1731451723.2079215,4000
-7063.419468810495,-187500.02235174447,9181.00138676183,-187500.02235174447,-187500.02235174447,-187500.02235174447,-187500.02235174447,-187500.02235174447,1731451724.1933064,1731451723.2079215,4000
-7043.124084845077,-187500.02235174447,9245.217948581929,-187500.02235174447,-187500.02235174447,-187500.02235174447,-187500.02235174447,-187500.02235174447,1731451724.1974056,1731451723.2079215,4000
-7153.966385598945,-187500.02235174447,9275.504562318867,-187500.02235174447,-187500.02235174447,-187500.02235174447,-187500.02235174447,-187500.02235174447,1731451724.2013829,1731451723.2079215,4000
-7183.224819090941,-187500.02235174447,9253.97983240841,-187500.02235174447,-187500.02235174447,-187500.02235174447,-187500.02235174447,-187500.02235174447,1731451724.2054322,1731451723.2079215,4000
-7053.025907638777,-187500.02235174447,9243.54156774778,-187500.02235174447,-187500.02235174447,-187500.02235174447,-187500.02235174447,-187500.02235174447,1731451724.209381,1731451723.2079215,4000
-7111.565126367227,-187500.02235174447,9224.564936705225,-187500.02235174447,-187500.02235174447,-187500.02235174447,-187500.02235174447,-187500.02235174447,1731451724.212534,1731451723.2079215,4000
-7152.580577442715,-187500.02235174447,9197.385215447572,-187500.02235174447,-187500.02235174447,-187500.02235174447,-187500.02235174447,-187500.02235174447,1731451724.217389,1731451723.2079215,4000
-7058.032698396766,-187500.02235174447,9118.28239182024,-187500.02235174447,-187500.02235174447,-187500.02235174447,-187500.02235174447,-187500.02235174447,1731451724.2215452,1731451723.2079215,4000
-6997.0794912671445,-187500.02235174447,9096.51179272077,-187500.02235174447,-187500.02235174447,-187500.02235174447,-187500.02235174447,-187500.02235174447,1731451724.225579,1731451723.2079215,4000
-7117.443635158973,-187500.02235174447,9178.095659982642,-187500.02235174447,-187500.02235174447,-187500.02235174447,-187500.02235174447,-187500.02235174447,1731451724.2295127,1731451723.2079215,4000
-7290.8037651543345,-187500.02235174447,9269.961329693951,-187500.02235174447,-187500.02235174447,-187500.02235174447,-187500.02235174447,-187500.02235174447,1731451724.2335396,1731451723.2079215,4000
-7272.363575978706,-187500.02235174447,9210.237468509373,-187500.02235174447,-187500.02235174447,-187500.02235174447,-187500.02235174447,-187500.02235174447,1731451724.2375576,1731451723.2079215,4000
-7172.428926519028,-187500.02235174447,9201.721453871902,-187500.02235174447,-187500.02235174447,-187500.02235174447,-187500.02235174447,-187500.02235174447,1731451724.2405517,1731451723.2079215,4000
-7045.135741846054,-187500.02235174447,9300.762033553368,-187500.02235174447,-187500.02235174447,-187500.02235174447,-187500.02235174447,-187500.02235174447,1731451724.2445035,1731451723.2079215,4000
-7024.907413114001,-187500.02235174447,9313.03314125933,-187500.02235174447,-187500.02235174447,-187500.02235174447,-187500.02235174447,-187500.02235174447,1731451724.2496133,1731451723.2079215,4000
-7022.046389823722,-187500.02235174447,9203.286075983771,-187500.02235174447,-187500.02235174447,-187500.02235174447,-187500.02235174447,-187500.02235174447,1731451724.2535791,1731451723.2079215,4000
-7179.2238568334415,-187500.02235174447,9259.344251077682,-187500.02235174447,-187500.02235174447,-187500.02235174447,-187500.02235174447,-187500.02235174447,1731451724.2575884,1731451723.2079215,4000
-7146.858530862157,-187500.02235174447,9356.820208647276,-187500.02235174447,-187500.02235174447,-187500.02235174447,-187500.02235174447,-187500.02235174447,1731451724.2616255,1731451723.2079215,4000
-7172.384223030117,-187500.02235174447,9331.003943801396,-187500.02235174447,-187500.02235174447,-187500.02235174447,-187500.02235174447,-187500.02235174447,1731451724.2655976,1731451723.2079215,4000
-7180.073223122743,-187500.02235174447,9251.789361451789,-187500.02235174447,-187500.02235174447,-187500.02235174447,-187500.02235174447,-187500.02235174447,1731451724.2684536,1731451723.2079215,4000
-6937.288574849198,-187500.02235174447,9128.631249503049,-187500.02235174447,-187500.02235174447,-187500.02235174447,-187500.02235174447,-187500.02235174447,1731451724.2725327,1731451723.2079215,4000
-7053.9646809059,-187500.02235174447,9145.57387180017,-187500.02235174447,-187500.02235174447,-187500.02235174447,-187500.02235174447,-187500.02235174447,1731451724.2777178,1731451723.2079215,4000
-7255.24213972594,-187500.02235174447,9353.46744697898,-187500.02235174447,-187500.02235174447,-187500.02235174447,-187500.02235174447,-187500.02235174447,1731451724.2816412,1731451723.2079215,4000
-7261.38886945115,-187500.02235174447,9319.761016340375,-187500.02235174447,-187500.02235174447,-187500.02235174447,-187500.02235174447,-187500.02235174447,1731451724.2855036,1731451723.2079215,4000
-7273.928198090577,-187500.02235174447,9285.875771746132,-187500.02235174447,-187500.02235174447,-187500.02235174447,-187500.02235174447,-187500.02235174447,1731451724.28966,1731451723.2079215,4000
-7169.65731020657,-187500.02235174447,9312.56375462577,-187500.02235174447,-187500.02235174447,-187500.02235174447,-187500.02235174447,-187500.02235174447,1731451724.2934885,1731451723.2079215,4000
-7084.87714348759,-187500.02235174447,9360.865874393689,-187500.02235174447,-187500.02235174447,-187500.02235174447,-187500.02235174447,-187500.02235174447,1731451724.296698,1731451723.2079215,4000
-7074.483582315873,-187500.02235174447,9244.30152705926,-187500.02235174447,-187500.02235174447,-187500.02235174447,-187500.02235174447,-187500.02235174447,1731451724.3006563,1731451723.2079215,4000
-7297.799861168845,-187500.02235174447,9233.751503676356,-187500.02235174447,-187500.02235174447,-187500.02235174447,-187500.02235174447,-187500.02235174447,1731451724.3056712,1731451723.2079215,4000
-7217.914726485578,-187500.02235174447,9378.43434553556,-187500.02235174447,-187500.02235174447,-187500.02235174447,-187500.02235174447,-187500.02235174447,1731451724.3095536,1731451723.2079215,4000
-7082.753727764336,-187500.02235174447,9360.75411567141,-187500.02235174447,-187500.02235174447,-187500.02235174447,-187500.02235174447,-187500.02235174447,1731451724.3147376,1731451723.2079215,4000
-7225.29080215583,-187500.02235174447,9290.659045059569,-187500.02235174447,-187500.02235174447,-187500.02235174447,-187500.02235174447,-187500.02235174447,1731451724.3185763,1731451723.2079215,4000
-7156.827408889224,-187500.02235174447,9228.655305940543,-187500.02235174447,-187500.02235174447,-187500.02235174447,-187500.02235174447,-187500.02235174447,1731451724.3215384,1731451723.2079215,4000
-7092.387329624574,-187500.02235174447,9221.547451203758,-187500.02235174447,-187500.02235174447,-187500.02235174447,-187500.02235174447,-187500.02235174447,1731451724.32464,1731451723.2079215,4000
-7103.496146618861,-187500.02235174447,9279.8408007432,-187500.02235174447,-187500.02235174447,-187500.02235174447,-187500.02235174447,-187500.02235174447,1731451724.328755,1731451723.2079215,4000
-7157.140333311598,-187500.02235174447,9290.74845203739,-187500.02235174447,-187500.02235174447,-187500.02235174447,-187500.02235174447,-187500.02235174447,1731451724.3326638,1731451723.2079215,4000
-7237.4501511395165,-187500.02235174447,9301.566696353755,-187500.02235174447,-187500.02235174447,-187500.02235174447,-187500.02235174447,-187500.02235174447,1731451724.3375993,1731451723.2079215,4000
-7135.101513278665,-187500.02235174447,9336.815397359776,-187500.02235174447,-187500.02235174447,-187500.02235174447,-187500.02235174447,-187500.02235174447,1731451724.3416872,1731451723.2079215,4000
-7015.922011842968,-187500.02235174447,9266.429754070015,-187500.02235174447,-187500.02235174447,-187500.02235174447,-187500.02235174447,-187500.02235174447,1731451724.3445916,1731451723.2079215,4000
-7236.757247061401,-187500.02235174447,9254.5833295087,-187500.02235174447,-187500.02235174447,-187500.02235174447,-187500.02235174447,-187500.02235174447,1731451724.3485992,1731451723.2079215,4000
-7320.30806783534,-187500.02235174447,9362.22933080546,-187500.02235174447,-187500.02235174447,-187500.02235174447,-187500.02235174447,-187500.02235174447,1731451724.352791,1731451723.2079215,4000
-7190.980874416933,-187500.02235174447,9357.244891791928,-187500.02235174447,-187500.02235174447,-187500.02235174447,-187500.02235174447,-187500.02235174447,1731451724.3567908,1731451723.2079215,4000
-7131.480530676906,-187500.02235174447,9332.948545569008,-187500.02235174447,-187500.02235174447,-187500.02235174447,-187500.02235174447,-187500.02235174447,1731451724.3607335,1731451723.2079215,4000
-7177.793345188302,-187500.02235174447,9284.422908356535,-187500.02235174447,-187500.02235174447,-187500.02235174447,-187500.02235174447,-187500.02235174447,1731451724.36578,1731451723.2079215,4000
-7111.922754278512,-187500.02235174447,9209.67867489799,-187500.02235174447,-187500.02235174447,-187500.02235174447,-187500.02235174447,-187500.02235174447,1731451724.3697371,1731451723.2079215,4000
-7148.400801229573,-187500.02235174447,9256.952614420965,-187500.02235174447,-187500.02235174447,-187500.02235174447,-187500.02235174447,-187500.02235174447,1731451724.3728144,1731451723.2079215,4000
-7133.872167333623,-187500.02235174447,9300.69497832,-187500.02235174447,-187500.02235174447,-187500.02235174447,-187500.02235174447,-187500.02235174447,1731451724.3765907,1731451723.2079215,4000
-7081.59143705266,-187500.02235174447,9351.27697602236,-187500.02235174447,-187500.02235174447,-187500.02235174447,-187500.02235174447,-187500.02235174447,1731451724.380724,1731451723.2079215,4000
-7119.768216582324,-187500.02235174447,9339.89993809461,-187500.02235174447,-187500.02235174447,-187500.02235174447,-187500.02235174447,-187500.02235174447,1731451724.384699,1731451723.2079215,4000
-7241.8534447972115,-187500.02235174447,9332.099179279709,-187500.02235174447,-187500.02235174447,-187500.02235174447,-187500.02235174447,-187500.02235174447,1731451724.3886795,1731451723.2079215,4000
-7234.320906915773,-187500.02235174447,9284.780536267825,-187500.02235174447,-187500.02235174447,-187500.02235174447,-187500.02235174447,-187500.02235174447,1731451724.3926308,1731451723.2079215,4000
-7244.468598898483,-187500.02235174447,9283.88646648961,-187500.02235174447,-187500.02235174447,-187500.02235174447,-187500.02235174447,-187500.02235174447,1731451724.3977025,1731451723.2079215,4000
-7232.979802248455,-187500.02235174447,9301.03025448683,-187500.02235174447,-187500.02235174447,-187500.02235174447,-187500.02235174447,-187500.02235174447,1731451724.4006743,1731451723.2079215,4000
-7199.653351265592,-187500.02235174447,9294.07886196123,-187500.02235174447,-187500.02235174447,-187500.02235174447,-187500.02235174447,-187500.02235174447,1731451724.4046807,1731451723.2079215,4000
-7127.099588763665,-187500.02235174447,9315.491833149414,-187500.02235174447,-187500.02235174447,-187500.02235174447,-187500.02235174447,-187500.02235174447,1731451724.4086778,1731451723.2079215,4000
-7116.057827002744,-187500.02235174447,9315.60359187169,-187500.02235174447,-187500.02235174447,-187500.02235174447,-187500.02235174447,-187500.02235174447,1731451724.4126863,1731451723.2079215,4000
-7200.4133105770725,-187500.02235174447,9225.548413461258,-187500.02235174447,-187500.02235174447,-187500.02235174447,-187500.02235174447,-187500.02235174447,1731451724.4167,1731451723.2079215,4000
-7220.28401139784,-187500.02235174447,9175.972244259388,-187500.02235174447,-187500.02235174447,-187500.02235174447,-187500.02235174447,-187500.02235174447,1731451724.4216971,1731451723.2079215,4000
-7183.224819090941,-187500.02235174447,9251.565844007237,-187500.02235174447,-187500.02235174447,-187500.02235174447,-187500.02235174447,-187500.02235174447,1731451724.4247031,1731451723.2079215,4000
-7216.19364216252,-187500.02235174447,9322.756150097388,-187500.02235174447,-187500.02235174447,-187500.02235174447,-187500.02235174447,-187500.02235174447,1731451724.4287229,1731451723.2079215,4000
-7185.236476091919,-187500.02235174447,9349.287670765838,-187500.02235174447,-187500.02235174447,-187500.02235174447,-187500.02235174447,-187500.02235174447,1731451724.4327276,1731451723.2079215,4000
-7183.314226068763,-187500.02235174447,9340.458731705992,-187500.02235174447,-187500.02235174447,-187500.02235174447,-187500.02235174447,-187500.02235174447,1731451724.4367435,1731451723.2079215,4000
-7195.808851219279,-187500.02235174447,9291.910742749064,-187500.02235174447,-187500.02235174447,-187500.02235174447,-187500.02235174447,-187500.02235174447,1731451724.4407036,1731451723.2079215,4000
-7167.220970060942,-187500.02235174447,9350.271147521871,-187500.02235174447,-187500.02235174447,-187500.02235174447,-187500.02235174447,-187500.02235174447,1731451724.4447134,1731451723.2079215,4000
-7208.124662414153,-187500.02235174447,9375.886246667653,-187500.02235174447,-187500.02235174447,-187500.02235174447,-187500.02235174447,-187500.02235174447,1731451724.449749,1731451723.2079215,4000
-7285.8193261408,-187500.02235174447,9375.841543178743,-187500.02235174447,-187500.02235174447,-187500.02235174447,-187500.02235174447,-187500.02235174447,1731451724.4527009,1731451723.2079215,4000
-7208.906973470089,-187500.02235174447,9362.832827905757,-187500.02235174447,-187500.02235174447,-187500.02235174447,-187500.02235174447,-187500.02235174447,1731451724.455742,1731451723.2079215,4000
-7146.322088995229,-187500.02235174447,9378.32258681328,-187500.02235174447,-187500.02235174447,-187500.02235174447,-187500.02235174447,-187500.02235174447,1731451724.460781,1731451723.2079215,4000
-7172.585388730216,-187500.02235174447,9367.75021168592,-187500.02235174447,-187500.02235174447,-187500.02235174447,-187500.02235174447,-187500.02235174447,1731451724.4647665,1731451723.2079215,4000
-7161.253054291375,-187500.02235174447,9295.375263139638,-187500.02235174447,-187500.02235174447,-187500.02235174447,-187500.02235174447,-187500.02235174447,1731451724.4687636,1731451723.2079215,4000
-7189.282141838329,-187500.02235174447,9297.40927188507,-187500.02235174447,-187500.02235174447,-187500.02235174447,-187500.02235174447,-187500.02235174447,1731451724.4727793,1731451723.2079215,4000
-7265.523942175382,-187500.02235174447,9353.981537101452,-187500.02235174447,-187500.02235174447,-187500.02235174447,-187500.02235174447,-187500.02235174447,1731451724.4767528,1731451723.2079215,4000
-7240.847616296723,-187500.02235174447,9407.357502860728,-187500.02235174447,-187500.02235174447,-187500.02235174447,-187500.02235174447,-187500.02235174447,1731451724.4807513,1731451723.2079215,4000
-7285.171125551597,-187500.02235174447,9332.546214168811,-187500.02235174447,-187500.02235174447,-187500.02235174447,-187500.02235174447,-187500.02235174447,1731451724.483812,1731451723.2079215,4000
-7207.319999613763,-187500.02235174447,9244.457989270448,-187500.02235174447,-187500.02235174447,-187500.02235174447,-187500.02235174447,-187500.02235174447,1731451724.4888663,1731451723.2079215,4000
-7232.868043526179,-187500.02235174447,9331.495682179411,-187500.02235174447,-187500.02235174447,-187500.02235174447,-187500.02235174447,-187500.02235174447,1731451724.492792,1731451723.2079215,4000
-7220.306363142296,-187500.02235174447,9399.333226601271,-187500.02235174447,-187500.02235174447,-187500.02235174447,-187500.02235174447,-187500.02235174447,1731451724.4970405,1731451723.2079215,4000
-7268.608482910215,-187500.02235174447,9338.46942644947,-187500.02235174447,-187500.02235174447,-187500.02235174447,-187500.02235174447,-187500.02235174447,1731451724.5007656,1731451723.2079215,4000
-7219.032313708343,-187500.02235174447,9284.780536267825,-187500.02235174447,-187500.02235174447,-187500.02235174447,-187500.02235174447,-187500.02235174447,1731451724.5050163,1731451723.2079215,4000
-7147.46202796245,-187500.02235174447,9257.936091176998,-187500.02235174447,-187500.02235174447,-187500.02235174447,-187500.02235174447,-187500.02235174447,1731451724.508875,1731451723.2079215,4000
-7154.815751888246,-187500.02235174447,9391.24189510845,-187500.02235174447,-187500.02235174447,-187500.02235174447,-187500.02235174447,-187500.02235174447,1731451724.511917,1731451723.2079215,4000
-7356.115562452742,-187500.02235174447,9376.534447256858,-187500.02235174447,-187500.02235174447,-187500.02235174447,-187500.02235174447,-187500.02235174447,1731451724.5158958,1731451723.2079215,4000
-7350.572329827825,-187500.02235174447,9338.670592149569,-187500.02235174447,-187500.02235174447,-187500.02235174447,-187500.02235174447,-187500.02235174447,1731451724.5208504,1731451723.2079215,4000
-7286.44517498555,-187500.02235174447,9359.971804615476,-187500.02235174447,-187500.02235174447,-187500.02235174447,-187500.02235174447,-187500.02235174447,1731451724.5248322,1731451723.2079215,4000
-7214.338447372729,-187500.02235174447,9334.42376070306,-187500.02235174447,-187500.02235174447,-187500.02235174447,-187500.02235174447,-187500.02235174447,1731451724.529009,1731451723.2079215,4000
-7264.361651463706,-187500.02235174447,9265.893312203088,-187500.02235174447,-187500.02235174447,-187500.02235174447,-187500.02235174447,-187500.02235174447,1731451724.5328395,1731451723.2079215,4000
-7348.471265849026,-187500.02235174447,9295.777594539832,-187500.02235174447,-187500.02235174447,-187500.02235174447,-187500.02235174447,-187500.02235174447,1731451724.537026,1731451723.2079215,4000
-7231.14695920312,-187500.02235174447,9346.091371308728,-187500.02235174447,-187500.02235174447,-187500.02235174447,-187500.02235174447,-187500.02235174447,1731451724.5399573,1731451723.2079215,4000
-7143.662231405048,-187500.02235174447,9323.806682086788,-187500.02235174447,-187500.02235174447,-187500.02235174447,-187500.02235174447,-187500.02235174447,1731451724.5451,1731451723.2079215,4000
-7206.180060646541,-187500.02235174447,9328.522900166858,-187500.02235174447,-187500.02235174447,-187500.02235174447,-187500.02235174447,-187500.02235174447,1731451724.5488489,1731451723.2079215,4000
-7322.520890536415,-187500.02235174447,9296.157574195571,-187500.02235174447,-187500.02235174447,-187500.02235174447,-187500.02235174447,-187500.02235174447,1731451724.552974,1731451723.2079215,4000
-7319.168128868119,-187500.02235174447,9301.432585887023,-187500.02235174447,-187500.02235174447,-187500.02235174447,-187500.02235174447,-187500.02235174447,1731451724.5571306,1731451723.2079215,4000
-7241.026430252366,-187500.02235174447,9377.406165290617,-187500.02235174447,-187500.02235174447,-187500.02235174447,-187500.02235174447,-187500.02235174447,1731451724.5600972,1731451723.2079215,4000
-7231.973973747966,-187500.02235174447,9343.99030732993,-187500.02235174447,-187500.02235174447,-187500.02235174447,-187500.02235174447,-187500.02235174447,1731451724.5641897,1731451723.2079215,4000
-7269.659014899614,-187500.02235174447,9295.196449183995,-187500.02235174447,-187500.02235174447,-187500.02235174447,-187500.02235174447,-187500.02235174447,1731451724.5679996,1731451723.2079215,4000
-7220.574584075759,-187500.02235174447,9255.253881842362,-187500.02235174447,-187500.02235174447,-187500.02235174447,-187500.02235174447,-187500.02235174447,1731451724.5721517,1731451723.2079215,4000
-7232.935098759544,-187500.02235174447,9269.089611660196,-187500.02235174447,-187500.02235174447,-187500.02235174447,-187500.02235174447,-187500.02235174447,1731451724.5760164,1731451723.2079215,4000
-7280.521962704893,-187500.02235174447,9287.149821180084,-187500.02235174447,-187500.02235174447,-187500.02235174447,-187500.02235174447,-187500.02235174447,1731451724.581,1731451723.2079215,4000
-7237.561909861793,-187500.02235174447,9279.058489687264,-187500.02235174447,-187500.02235174447,-187500.02235174447,-187500.02235174447,-187500.02235174447,1731451724.5849893,1731451723.2079215,4000
-7281.39368073865,-187500.02235174447,9282.053623444275,-187500.02235174447,-187500.02235174447,-187500.02235174447,-187500.02235174447,-187500.02235174447,1731451724.5881364,1731451723.2079215,4000
-7263.177009007574,-187500.02235174447,9322.666743119567,-187500.02235174447,-187500.02235174447,-187500.02235174447,-187500.02235174447,-187500.02235174447,1731451724.5921457,1731451723.2079215,4000
-7276.029262069376,-187500.02235174447,9351.99223184493,-187500.02235174447,-187500.02235174447,-187500.02235174447,-187500.02235174447,-187500.02235174447,1731451724.5961783,1731451723.2079215,4000
-7265.479238686471,-187500.02235174447,9308.093405734708,-187500.02235174447,-187500.02235174447,-187500.02235174447,-187500.02235174447,-187500.02235174447,1731451724.6002245,1731451723.2079215,4000
-7332.713286008035,-187500.02235174447,9291.709577048969,-187500.02235174447,-187500.02235174447,-187500.02235174447,-187500.02235174447,-187500.02235174447,1731451724.6051843,1731451723.2079215,4000
-7291.25080004344,-187500.02235174447,9309.79213831331,-187500.02235174447,-187500.02235174447,-187500.02235174447,-187500.02235174447,-187500.02235174447,1731451724.6090145,1731451723.2079215,4000
-7237.517206372882,-187500.02235174447,9297.968065496452,-187500.02235174447,-187500.02235174447,-187500.02235174447,-187500.02235174447,-187500.02235174447,1731451724.6130643,1731451723.2079215,4000
-7211.812700249279,-187500.02235174447,9247.609585238646,-187500.02235174447,-187500.02235174447,-187500.02235174447,-187500.02235174447,-187500.02235174447,1731451724.6160953,1731451723.2079215,4000
-7275.492820202448,-187500.02235174447,9235.338477532683,-187500.02235174447,-187500.02235174447,-187500.02235174447,-187500.02235174447,-187500.02235174447,1731451724.6202414,1731451723.2079215,4000
-7299.811518169823,-187500.02235174447,9311.893202292107,-187500.02235174447,-187500.02235174447,-187500.02235174447,-187500.02235174447,-187500.02235174447,1731451724.6242113,1731451723.2079215,4000
-7254.81745658129,-187500.02235174447,9291.441356115503,-187500.02235174447,-187500.02235174447,-187500.02235174447,-187500.02235174447,-187500.02235174447,1731451724.6281145,1731451723.2079215,4000
-7294.804727411834,-187500.02235174447,9316.31884769426,-187500.02235174447,-187500.02235174447,-187500.02235174447,-187500.02235174447,-187500.02235174447,1731451724.6332667,1731451723.2079215,4000
-7330.4334080735935,-187500.02235174447,9330.8027781013,-187500.02235174447,-187500.02235174447,-187500.02235174447,-187500.02235174447,-187500.02235174447,1731451724.637242,1731451723.2079215,4000
-7305.019474627909,-187500.02235174447,9320.185699485028,-187500.02235174447,-187500.02235174447,-187500.02235174447,-187500.02235174447,-187500.02235174447,1731451724.6411457,1731451723.2079215,4000
-7215.053703195299,-187500.02235174447,9342.872720107163,-187500.02235174447,-187500.02235174447,-187500.02235174447,-187500.02235174447,-187500.02235174447,1731451724.644254,1731451723.2079215,4000
-7242.591052364237,-187500.02235174447,9314.12837673764,-187500.02235174447,-187500.02235174447,-187500.02235174447,-187500.02235174447,-187500.02235174447,1731451724.648395,1731451723.2079215,4000
-7309.936858408077,-187500.02235174447,9258.360774321647,-187500.02235174447,-187500.02235174447,-187500.02235174447,-187500.02235174447,-187500.02235174447,1731451724.6520865,1731451723.2079215,4000
-7355.6685275636355,-187500.02235174447,9327.740589110925,-187500.02235174447,-187500.02235174447,-187500.02235174447,-187500.02235174447,-187500.02235174447,1731451724.6562152,1731451723.2079215,4000
-7219.926383486555,-187500.02235174447,9356.61904294718,-187500.02235174447,-187500.02235174447,-187500.02235174447,-187500.02235174447,-187500.02235174447,1731451724.660176,1731451723.2079215,4000
-7260.941834562044,-187500.02235174447,9325.147786754109,-187500.02235174447,-187500.02235174447,-187500.02235174447,-187500.02235174447,-187500.02235174447,1731451724.6652973,1731451723.2079215,4000
-7303.231335071485,-187500.02235174447,9309.680379591036,-187500.02235174447,-187500.02235174447,-187500.02235174447,-187500.02235174447,-187500.02235174447,1731451724.668177,1731451723.2079215,4000
-7303.25368681594,-187500.02235174447,9299.17505969704,-187500.02235174447,-187500.02235174447,-187500.02235174447,-187500.02235174447,-187500.02235174447,1731451724.6723034,1731451723.2079215,4000
-7241.339354674739,-187500.02235174447,9315.961219782976,-187500.02235174447,-187500.02235174447,-187500.02235174447,-187500.02235174447,-187500.02235174447,1731451724.67619,1731451723.2079215,4000
-7209.421063592561,-187500.02235174447,9293.005978227377,-187500.02235174447,-187500.02235174447,-187500.02235174447,-187500.02235174447,-187500.02235174447,1731451724.6803455,1731451723.2079215,4000
-7289.663826187114,-187500.02235174447,9290.144954937095,-187500.02235174447,-187500.02235174447,-187500.02235174447,-187500.02235174447,-187500.02235174447,1731451724.6841533,1731451723.2079215,4000
-7337.496559321471,-187500.02235174447,9333.015600802377,-187500.02235174447,-187500.02235174447,-187500.02235174447,-187500.02235174447,-187500.02235174447,1731451724.688349,1731451723.2079215,4000
-7242.836921553246,-187500.02235174447,9369.873627409175,-187500.02235174447,-187500.02235174447,-187500.02235174447,-187500.02235174447,-187500.02235174447,1731451724.6932328,1731451723.2079215,4000
-7242.300479686318,-187500.02235174447,9339.47525494996,-187500.02235174447,-187500.02235174447,-187500.02235174447,-187500.02235174447,-187500.02235174447,1731451724.69641,1731451723.2079215,4000
-7260.204226995019,-187500.02235174447,9321.996190785909,-187500.02235174447,-187500.02235174447,-187500.02235174447,-187500.02235174447,-187500.02235174447,1731451724.7006257,1731451723.2079215,4000
-7272.005948067421,-187500.02235174447,9324.007847786886,-187500.02235174447,-187500.02235174447,-187500.02235174447,-187500.02235174447,-187500.02235174447,1731451724.704465,1731451723.2079215,4000
-7301.622009470703,-187500.02235174447,9378.747269957932,-187500.02235174447,-187500.02235174447,-187500.02235174447,-187500.02235174447,-187500.02235174447,1731451724.7091813,1731451723.2079215,4000
-7249.944776290033,-187500.02235174447,9394.505249798924,-187500.02235174447,-187500.02235174447,-187500.02235174447,-187500.02235174447,-187500.02235174447,1731451724.7123969,1731451723.2079215,4000
-7244.66976459858,-187500.02235174447,9330.691019379025,-187500.02235174447,-187500.02235174447,-187500.02235174447,-187500.02235174447,-187500.02235174447,1731451724.7168748,1731451723.2079215,4000
-7354.97562348552,-187500.02235174447,9302.55017310979,-187500.02235174447,-187500.02235174447,-187500.02235174447,-187500.02235174447,-187500.02235174447,1731451724.7214067,1731451723.2079215,4000
-7357.948405498077,-187500.02235174447,9350.025278332863,-187500.02235174447,-187500.02235174447,-187500.02235174447,-187500.02235174447,-187500.02235174447,1731451724.7242107,1731451723.2079215,4000
-7241.272299441373,-187500.02235174447,9362.832827905757,-187500.02235174447,-187500.02235174447,-187500.02235174447,-187500.02235174447,-187500.02235174447,1731451724.7284737,1731451723.2079215,4000
-7206.358874602184,-187500.02235174447,9333.999077558408,-187500.02235174447,-187500.02235174447,-187500.02235174447,-187500.02235174447,-187500.02235174447,1731451724.73249,1731451723.2079215,4000
-7235.706715072002,-187500.02235174447,9392.04655790884,-187500.02235174447,-187500.02235174447,-187500.02235174447,-187500.02235174447,-187500.02235174447,1731451724.7365017,1731451723.2079215,4000
-7276.431593469571,-187500.02235174447,9448.998802780963,-187500.02235174447,-187500.02235174447,-187500.02235174447,-187500.02235174447,-187500.02235174447,1731451724.74024,1731451723.2079215,4000
-7321.02332365791,-187500.02235174447,9425.641229825167,-187500.02235174447,-187500.02235174447,-187500.02235174447,-187500.02235174447,-187500.02235174447,1731451724.7444067,1731451723.2079215,4000
-7260.718317117491,-187500.02235174447,9399.042653923352,-187500.02235174447,-187500.02235174447,-187500.02235174447,-187500.02235174447,-187500.02235174447,1731451724.7484136,1731451723.2079215,4000
-7224.284973655341,-187500.02235174447,9350.6064236887,-187500.02235174447,-187500.02235174447,-187500.02235174447,-187500.02235174447,-187500.02235174447,1731451724.7522707,1731451723.2079215,4000
-7324.465492304027,-187500.02235174447,9385.00575840542,-187500.02235174447,-187500.02235174447,-187500.02235174447,-187500.02235174447,-187500.02235174447,1731451724.7554855,1731451723.2079215,4000
-7287.540410463859,-187500.02235174447,9438.33702067578,-187500.02235174447,-187500.02235174447,-187500.02235174447,-187500.02235174447,-187500.02235174447,1731451724.7602715,1731451723.2079215,4000
-7250.8611978127,-187500.02235174447,9422.377875134693,-187500.02235174447,-187500.02235174447,-187500.02235174447,-187500.02235174447,-187500.02235174447,1731451724.7645328,1731451723.2079215,4000
-7313.289620076373,-187500.02235174447,9387.57620901778,-187500.02235174447,-187500.02235174447,-187500.02235174447,-187500.02235174447,-187500.02235174447,1731451724.7683296,1731451723.2079215,4000
-7357.45666712006,-187500.02235174447,9401.277828368882,-187500.02235174447,-187500.02235174447,-187500.02235174447,-187500.02235174447,-187500.02235174447,1731451724.7722826,1731451723.2079215,4000
-7277.102145803231,-187500.02235174447,9437.621764853213,-187500.02235174447,-187500.02235174447,-187500.02235174447,-187500.02235174447,-187500.02235174447,1731451724.7763915,1731451723.2079215,4000
-7237.986593006443,-187500.02235174447,9433.48669212898,-187500.02235174447,-187500.02235174447,-187500.02235174447,-187500.02235174447,-187500.02235174447,1731451724.7804873,1731451723.2079215,4000
-7288.903866875633,-187500.02235174447,9399.91437195711,-187500.02235174447,-187500.02235174447,-187500.02235174447,-187500.02235174447,-187500.02235174447,1731451724.7834868,1731451723.2079215,4000
-7324.420788815116,-187500.02235174447,9385.251627594427,-187500.02235174447,-187500.02235174447,-187500.02235174447,-187500.02235174447,-187500.02235174447,1731451724.7883568,1731451723.2079215,4000
-7266.8650468427,-187500.02235174447,9406.6198952937,-187500.02235174447,-187500.02235174447,-187500.02235174447,-187500.02235174447,-187500.02235174447,1731451724.7922904,1731451723.2079215,4000
-7220.328714886751,-187500.02235174447,9416.946401232051,-187500.02235174447,-187500.02235174447,-187500.02235174447,-187500.02235174447,-187500.02235174447,1731451724.7965238,1731451723.2079215,4000
-7310.607410741736,-187500.02235174447,9427.898756015153,-187500.02235174447,-187500.02235174447,-187500.02235174447,-187500.02235174447,-187500.02235174447,1731451724.800502,1731451723.2079215,4000
-7315.748311966457,-187500.02235174447,9389.878438696676,-187500.02235174447,-187500.02235174447,-187500.02235174447,-187500.02235174447,-187500.02235174447,1731451724.8035407,1731451723.2079215,4000
-7271.089526544753,-187500.02235174447,9433.129064217695,-187500.02235174447,-187500.02235174447,-187500.02235174447,-187500.02235174447,-187500.02235174447,1731451724.807622,1731451723.2079215,4000
-7302.806651926834,-187500.02235174447,9455.190235995084,-187500.02235174447,-187500.02235174447,-187500.02235174447,-187500.02235174447,-187500.02235174447,1731451724.8115053,1731451723.2079215,4000
-7280.901942360633,-187500.02235174447,9395.846354466245,-187500.02235174447,-187500.02235174447,-187500.02235174447,-187500.02235174447,-187500.02235174447,1731451724.8166308,1731451723.2079215,4000
-7374.131068483719,-187500.02235174447,9406.977523204983,-187500.02235174447,-187500.02235174447,-187500.02235174447,-187500.02235174447,-187500.02235174447,1731451724.8203757,1731451723.2079215,4000
-7285.349939507239,-187500.02235174447,9475.820896127332,-187500.02235174447,-187500.02235174447,-187500.02235174447,-187500.02235174447,-187500.02235174447,1731451724.824551,1731451723.2079215,4000
-7248.357802433706,-187500.02235174447,9505.951047653083,-187500.02235174447,-187500.02235174447,-187500.02235174447,-187500.02235174447,-187500.02235174447,1731451724.82853,1731451723.2079215,4000
-7275.381061480172,-187500.02235174447,9460.509951175449,-187500.02235174447,-187500.02235174447,-187500.02235174447,-187500.02235174447,-187500.02235174447,1731451724.8315403,1731451723.2079215,4000
-7298.179840824586,-187500.02235174447,9439.991049765476,-187500.02235174447,-187500.02235174447,-187500.02235174447,-187500.02235174447,-187500.02235174447,1731451724.8355172,1731451723.2079215,4000
-7307.187593840074,-187500.02235174447,9443.567328878324,-187500.02235174447,-187500.02235174447,-187500.02235174447,-187500.02235174447,-187500.02235174447,1731451724.839574,1731451723.2079215,4000
-7218.071188696765,-187500.02235174447,9445.802503323854,-187500.02235174447,-187500.02235174447,-187500.02235174447,-187500.02235174447,-187500.02235174447,1731451724.8434129,1731451723.2079215,4000
-7191.427909306039,-187500.02235174447,9425.752988547443,-187500.02235174447,-187500.02235174447,-187500.02235174447,-187500.02235174447,-187500.02235174447,1731451724.8486028,1731451723.2079215,4000
-7342.145722168175,-187500.02235174447,9445.802503323854,-187500.02235174447,-187500.02235174447,-187500.02235174447,-187500.02235174447,-187500.02235174447,1731451724.852472,1731451723.2079215,4000
-7384.502277910981,-187500.02235174447,9456.084305773296,-187500.02235174447,-187500.02235174447,-187500.02235174447,-187500.02235174447,-187500.02235174447,1731451724.85667,1731451723.2079215,4000
-7288.926218620089,-187500.02235174447,9472.803410625866,-187500.02235174447,-187500.02235174447,-187500.02235174447,-187500.02235174447,-187500.02235174447,1731451724.8593853,1731451723.2079215,4000
-7219.926383486555,-187500.02235174447,9465.67320414462,-187500.02235174447,-187500.02235174447,-187500.02235174447,-187500.02235174447,-187500.02235174447,1731451724.8637073,1731451723.2079215,4000
-7321.78328296939,-187500.02235174447,9448.507064402946,-187500.02235174447,-187500.02235174447,-187500.02235174447,-187500.02235174447,-187500.02235174447,1731451724.8673973,1731451723.2079215,4000
-7324.867823704222,-187500.02235174447,9443.29910794486,-187500.02235174447,-187500.02235174447,-187500.02235174447,-187500.02235174447,-187500.02235174447,1731451724.873734,1731451723.2079215,4000
-7297.933971635577,-187500.02235174447,9459.325308719315,-187500.02235174447,-187500.02235174447,-187500.02235174447,-187500.02235174447,-187500.02235174447,1731451724.877463,1731451723.2079215,4000
-7266.462715442505,-187500.02235174447,9498.418509771647,-187500.02235174447,-187500.02235174447,-187500.02235174447,-187500.02235174447,-187500.02235174447,1731451724.880582,1731451723.2079215,4000
-7303.745425193957,-187500.02235174447,9457.559520907344,-187500.02235174447,-187500.02235174447,-187500.02235174447,-187500.02235174447,-187500.02235174447,1731451724.885581,1731451723.2079215,4000
-7302.359617037728,-187500.02235174447,9422.355523390235,-187500.02235174447,-187500.02235174447,-187500.02235174447,-187500.02235174447,-187500.02235174447,1731451724.889634,1731451723.2079215,4000
-7284.075890073287,-187500.02235174447,9454.519683661423,-187500.02235174447,-187500.02235174447,-187500.02235174447,-187500.02235174447,-187500.02235174447,1731451724.892449,1731451723.2079215,4000
-7271.8494858562335,-187500.02235174447,9501.100719106284,-187500.02235174447,-187500.02235174447,-187500.02235174447,-187500.02235174447,-187500.02235174447,1731451724.895667,1731451723.2079215,4000
-7286.065195329809,-187500.02235174447,9461.448724442567,-187500.02235174447,-187500.02235174447,-187500.02235174447,-187500.02235174447,-187500.02235174447,1731451724.8998108,1731451723.2079215,4000
-7282.555971450326,-187500.02235174447,9440.952174777052,-187500.02235174447,-187500.02235174447,-187500.02235174447,-187500.02235174447,-187500.02235174447,1731451724.9048164,1731451723.2079215,4000
-7302.20315482654,-187500.02235174447,9458.49829417447,-187500.02235174447,-187500.02235174447,-187500.02235174447,-187500.02235174447,-187500.02235174447,1731451724.9085972,1731451723.2079215,4000
-7320.464530046526,-187500.02235174447,9463.862712843742,-187500.02235174447,-187500.02235174447,-187500.02235174447,-187500.02235174447,-187500.02235174447,1731451724.9116523,1731451723.2079215,4000
-7300.213849570018,-187500.02235174447,9481.230018285516,-187500.02235174447,-187500.02235174447,-187500.02235174447,-187500.02235174447,-187500.02235174447,1731451724.9157288,1731451723.2079215,4000
-7321.470358547015,-187500.02235174447,9470.098849546774,-187500.02235174447,-187500.02235174447,-187500.02235174447,-187500.02235174447,-187500.02235174447,1731451724.9197464,1731451723.2079215,4000
-7304.348922294251,-187500.02235174447,9477.318463005837,-187500.02235174447,-187500.02235174447,-187500.02235174447,-187500.02235174447,-187500.02235174447,1731451724.923905,1731451723.2079215,4000
-7209.868098481667,-187500.02235174447,9501.525402250934,-187500.02235174447,-187500.02235174447,-187500.02235174447,-187500.02235174447,-187500.02235174447,1731451724.9277024,1731451723.2079215,4000
-7277.39271848115,-187500.02235174447,9476.73731765,-187500.02235174447,-187500.02235174447,-187500.02235174447,-187500.02235174447,-187500.02235174447,1731451724.9317288,1731451723.2079215,4000
-7371.404155660171,-187500.02235174447,9441.44391315507,-187500.02235174447,-187500.02235174447,-187500.02235174447,-187500.02235174447,-187500.02235174447,1731451724.936754,1731451723.2079215,4000
-7340.916376223133,-187500.02235174447,9475.127992049216,-187500.02235174447,-187500.02235174447,-187500.02235174447,-187500.02235174447,-187500.02235174447,1731451724.939816,1731451723.2079215,4000
-7254.012793780898,-187500.02235174447,9471.708175147554,-187500.02235174447,-187500.02235174447,-187500.02235174447,-187500.02235174447,-187500.02235174447,1731451724.9435532,1731451723.2079215,4000
-7267.021509053888,-187500.02235174447,9442.896776544663,-187500.02235174447,-187500.02235174447,-187500.02235174447,-187500.02235174447,-187500.02235174447,1731451724.9478867,1731451723.2079215,4000
-7326.611259771736,-187500.02235174447,9482.772288652932,-187500.02235174447,-187500.02235174447,-187500.02235174447,-187500.02235174447,-187500.02235174447,1731451724.9516597,1731451723.2079215,4000
-7360.988242743999,-187500.02235174447,9476.089117060796,-187500.02235174447,-187500.02235174447,-187500.02235174447,-187500.02235174447,-187500.02235174447,1731451724.9557288,1731451723.2079215,4000
-7318.251707345451,-187500.02235174447,9489.388405011705,-187500.02235174447,-187500.02235174447,-187500.02235174447,-187500.02235174447,-187500.02235174447,1731451724.961801,1731451723.2079215,4000
-7286.7580994079235,-187500.02235174447,9499.580800483323,-187500.02235174447,-187500.02235174447,-187500.02235174447,-187500.02235174447,-187500.02235174447,1731451724.9648342,1731451723.2079215,4000
-7271.178933522575,-187500.02235174447,9451.904529560154,-187500.02235174447,-187500.02235174447,-187500.02235174447,-187500.02235174447,-187500.02235174447,1731451724.9676378,1731451723.2079215,4000
-7297.084605346276,-187500.02235174447,9450.67518361511,-187500.02235174447,-187500.02235174447,-187500.02235174447,-187500.02235174447,-187500.02235174447,1731451724.9716249,1731451723.2079215,4000
-7313.647247987658,-187500.02235174447,9509.348512810291,-187500.02235174447,-187500.02235174447,-187500.02235174447,-187500.02235174447,-187500.02235174447,1731451724.975602,1731451723.2079215,4000
-7268.742593376946,-187500.02235174447,9491.936503879608,-187500.02235174447,-187500.02235174447,-187500.02235174447,-187500.02235174447,-187500.02235174447,1731451724.979792,1731451723.2079215,4000
-7328.622916772714,-187500.02235174447,9469.182428024104,-187500.02235174447,-187500.02235174447,-187500.02235174447,-187500.02235174447,-187500.02235174447,1731451724.9837554,1731451723.2079215,4000
-7271.380099222672,-187500.02235174447,9503.291190062904,-187500.02235174447,-187500.02235174447,-187500.02235174447,-187500.02235174447,-187500.02235174447,1731451724.987678,1731451723.2079215,4000
-7305.578268239292,-187500.02235174447,9490.617750956744,-187500.02235174447,-187500.02235174447,-187500.02235174447,-187500.02235174447,-187500.02235174447,1731451724.9926853,1731451723.2079215,4000
-7285.6405121851585,-187500.02235174447,9512.723626223044,-187500.02235174447,-187500.02235174447,-187500.02235174447,-187500.02235174447,-187500.02235174447,1731451724.9958022,1731451723.2079215,4000
-7296.078776845787,-187500.02235174447,9486.817954399345,-187500.02235174447,-187500.02235174447,-187500.02235174447,-187500.02235174447,-187500.02235174447,1731451724.9998076,1731451723.2079215,4000
-7360.8317805328115,-187500.02235174447,9472.646948414678,-187500.02235174447,-187500.02235174447,-187500.02235174447,-187500.02235174447,-187500.02235174447,1731451725.0037751,1731451723.2079215,4000
-7287.607465697225,-187500.02235174447,9493.478774247023,-187500.02235174447,-187500.02235174447,-187500.02235174447,-187500.02235174447,-187500.02235174447,1731451725.0079436,1731451723.2079215,4000
-7224.352028888707,-187500.02235174447,9485.92388462113,-187500.02235174447,-187500.02235174447,-187500.02235174447,-187500.02235174447,-187500.02235174447,1731451725.011835,1731451723.2079215,4000
-7350.013536216443,-187500.02235174447,9492.651759702178,-187500.02235174447,-187500.02235174447,-187500.02235174447,-187500.02235174447,-187500.02235174447,1731451725.0159829,1731451723.2079215,4000
-7375.874504551233,-187500.02235174447,9474.904474604664,-187500.02235174447,-187500.02235174447,-187500.02235174447,-187500.02235174447,-187500.02235174447,1731451725.0209093,1731451723.2079215,4000
-7299.900925147645,-187500.02235174447,9484.135745064706,-187500.02235174447,-187500.02235174447,-187500.02235174447,-187500.02235174447,-187500.02235174447,1731451725.023884,1731451723.2079215,4000
-7276.990387080955,-187500.02235174447,9520.412626315669,-187500.02235174447,-187500.02235174447,-187500.02235174447,-187500.02235174447,-187500.02235174447,1731451725.0277991,1731451723.2079215,4000
-7240.33352617425,-187500.02235174447,9486.482678232513,-187500.02235174447,-187500.02235174447,-187500.02235174447,-187500.02235174447,-187500.02235174447,1731451725.0319238,1731451723.2079215,4000
-7282.958302850521,-187500.02235174447,9451.837474326789,-187500.02235174447,-187500.02235174447,-187500.02235174447,-187500.02235174447,-187500.02235174447,1731451725.0358992,1731451723.2079215,4000
-7384.569333144347,-187500.02235174447,9498.88789640521,-187500.02235174447,-187500.02235174447,-187500.02235174447,-187500.02235174447,-187500.02235174447,1731451725.0398908,1731451723.2079215,4000
-7309.333361307784,-187500.02235174447,9513.997675656996,-187500.02235174447,-187500.02235174447,-187500.02235174447,-187500.02235174447,-187500.02235174447,1731451725.0438356,1731451723.2079215,4000
-7298.649227458147,-187500.02235174447,9496.384501026214,-187500.02235174447,-187500.02235174447,-187500.02235174447,-187500.02235174447,-187500.02235174447,1731451725.0479116,1731451723.2079215,4000
-7352.002841472965,-187500.02235174447,9492.294131790894,-187500.02235174447,-187500.02235174447,-187500.02235174447,-187500.02235174447,-187500.02235174447,1731451725.050727,1731451723.2079215,4000
-7344.537358824892,-187500.02235174447,9496.429204515123,-187500.02235174447,-187500.02235174447,-187500.02235174447,-187500.02235174447,-187500.02235174447,1731451725.0548613,1731451723.2079215,4000
-7249.788314078845,-187500.02235174447,9518.17745187014,-187500.02235174447,-187500.02235174447,-187500.02235174447,-187500.02235174447,-187500.02235174447,1731451725.0598316,1731451723.2079215,4000
-7277.884456859167,-187500.02235174447,9529.956821198086,-187500.02235174447,-187500.02235174447,-187500.02235174447,-187500.02235174447,-187500.02235174447,1731451725.0639188,1731451723.2079215,4000
-7371.292396937895,-187500.02235174447,9479.6877479181,-187500.02235174447,-187500.02235174447,-187500.02235174447,-187500.02235174447,-187500.02235174447,1731451725.069003,1731451723.2079215,4000
-7326.901832449656,-187500.02235174447,9461.292262231382,-187500.02235174447,-187500.02235174447,-187500.02235174447,-187500.02235174447,-187500.02235174447,1731451725.0748646,1731451723.2079215,4000
-7247.150808233119,-187500.02235174447,9466.522570433925,-187500.02235174447,-187500.02235174447,-187500.02235174447,-187500.02235174447,-187500.02235174447,1731451725.077952,1731451723.2079215,4000
-7297.77750942439,-187500.02235174447,9508.45444303208,-187500.02235174447,-187500.02235174447,-187500.02235174447,-187500.02235174447,-187500.02235174447,1731451725.0808852,1731451723.2079215,4000
-7199.51924079886,-187500.02235174447,9498.463213260558,-187500.02235174447,-187500.02235174447,-187500.02235174447,-187500.02235174447,-187500.02235174447,1731451725.0848076,1731451723.2079215,4000
-7337.7647802549345,-187500.02235174447,9473.473962959524,-187500.02235174447,-187500.02235174447,-187500.02235174447,-187500.02235174447,-187500.02235174447,1731451725.0879495,1731451723.2079215,4000
-7432.647935467713,-187500.02235174447,9493.5905329693,-187500.02235174447,-187500.02235174447,-187500.02235174447,-187500.02235174447,-187500.02235174447,1731451725.0920246,1731451723.2079215,4000
-7305.466509517016,-187500.02235174447,9529.196861886605,-187500.02235174447,-187500.02235174447,-187500.02235174447,-187500.02235174447,-187500.02235174447,1731451725.096012,1731451723.2079215,4000
-7325.560727782336,-187500.02235174447,9513.282419834426,-187500.02235174447,-187500.02235174447,-187500.02235174447,-187500.02235174447,-187500.02235174447,1731451725.100014,1731451723.2079215,4000
-7342.905681479655,-187500.02235174447,9445.19900622356,-187500.02235174447,-187500.02235174447,-187500.02235174447,-187500.02235174447,-187500.02235174447,1731451725.1030936,1731451723.2079215,4000
-7339.284698877896,-187500.02235174447,9458.788866852388,-187500.02235174447,-187500.02235174447,-187500.02235174447,-187500.02235174447,-187500.02235174447,1731451725.1070807,1731451723.2079215,4000
-7243.976860520466,-187500.02235174447,9505.325198808338,-187500.02235174447,-187500.02235174447,-187500.02235174447,-187500.02235174447,-187500.02235174447,1731451725.1110182,1731451723.2079215,4000
-7284.791145895857,-187500.02235174447,9522.35722808328,-187500.02235174447,-187500.02235174447,-187500.02235174447,-187500.02235174447,-187500.02235174447,1731451725.1148431,1731451723.2079215,4000
-7342.570405312826,-187500.02235174447,9490.237771301005,-187500.02235174447,-187500.02235174447,-187500.02235174447,-187500.02235174447,-187500.02235174447,1731451725.1211407,1731451723.2079215,4000
-7318.095245134265,-187500.02235174447,9468.936558835096,-187500.02235174447,-187500.02235174447,-187500.02235174447,-187500.02235174447,-187500.02235174447,1731451725.124126,1731451723.2079215,4000
-7301.353788537239,-187500.02235174447,9514.020027401451,-187500.02235174447,-187500.02235174447,-187500.02235174447,-187500.02235174447,-187500.02235174447,1731451725.128002,1731451723.2079215,4000
-7291.429613999083,-187500.02235174447,9487.667320688644,-187500.02235174447,-187500.02235174447,-187500.02235174447,-187500.02235174447,-187500.02235174447,1731451725.1309104,1731451723.2079215,4000
-7329.4946348064705,-187500.02235174447,9479.754803151463,-187500.02235174447,-187500.02235174447,-187500.02235174447,-187500.02235174447,-187500.02235174447,1731451725.1349363,1731451723.2079215,4000
-7305.041826372365,-187500.02235174447,9500.184297583615,-187500.02235174447,-187500.02235174447,-187500.02235174447,-187500.02235174447,-187500.02235174447,1731451725.1389987,1731451723.2079215,4000
-7296.771680923901,-187500.02235174447,9506.59924824229,-187500.02235174447,-187500.02235174447,-187500.02235174447,-187500.02235174447,-187500.02235174447,1731451725.1429756,1731451723.2079215,4000
-7304.639494972169,-187500.02235174447,9496.049224859384,-187500.02235174447,-187500.02235174447,-187500.02235174447,-187500.02235174447,-187500.02235174447,1731451725.1478589,1731451723.2079215,4000
-7344.783228013901,-187500.02235174447,9477.229056028016,-187500.02235174447,-187500.02235174447,-187500.02235174447,-187500.02235174447,-187500.02235174447,1731451725.1520724,1731451723.2079215,4000
-7343.509178579949,-187500.02235174447,9456.64309938468,-187500.02235174447,-187500.02235174447,-187500.02235174447,-187500.02235174447,-187500.02235174447,1731451725.156104,1731451723.2079215,4000
-7314.027227643398,-187500.02235174447,9506.152213353183,-187500.02235174447,-187500.02235174447,-187500.02235174447,-187500.02235174447,-187500.02235174447,1731451725.1588929,1731451723.2079215,4000
-7296.145832079153,-187500.02235174447,9503.470004018547,-187500.02235174447,-187500.02235174447,-187500.02235174447,-187500.02235174447,-187500.02235174447,1731451725.1629112,1731451723.2079215,4000
-7343.196254157574,-187500.02235174447,9470.992919324985,-187500.02235174447,-187500.02235174447,-187500.02235174447,-187500.02235174447,-187500.02235174447,1731451725.1670997,1731451723.2079215,4000
-7380.009577275465,-187500.02235174447,9479.240713028994,-187500.02235174447,-187500.02235174447,-187500.02235174447,-187500.02235174447,-187500.02235174447,1731451725.171208,1731451723.2079215,4000
-7294.022416355899,-187500.02235174447,9482.079384574818,-187500.02235174447,-187500.02235174447,-187500.02235174447,-187500.02235174447,-187500.02235174447,1731451725.1760328,1731451723.2079215,4000
-7339.061181433342,-187500.02235174447,9457.715983118533,-187500.02235174447,-187500.02235174447,-187500.02235174447,-187500.02235174447,-187500.02235174447,1731451725.180134,1731451723.2079215,4000
-7350.572329827825,-187500.02235174447,9442.069761999815,-187500.02235174447,-187500.02235174447,-187500.02235174447,-187500.02235174447,-187500.02235174447,1731451725.18307,1731451723.2079215,4000
-7344.850283247267,-187500.02235174447,9477.83255312831,-187500.02235174447,-187500.02235174447,-187500.02235174447,-187500.02235174447,-187500.02235174447,1731451725.187182,1731451723.2079215,4000
-7307.142890351163,-187500.02235174447,9498.776137682931,-187500.02235174447,-187500.02235174447,-187500.02235174447,-187500.02235174447,-187500.02235174447,1731451725.1910405,1731451723.2079215,4000
-7225.156691689097,-187500.02235174447,9541.155045170191,-187500.02235174447,-187500.02235174447,-187500.02235174447,-187500.02235174447,-187500.02235174447,1731451725.19508,1731451723.2079215,4000
-7328.622916772714,-187500.02235174447,9518.669190248154,-187500.02235174447,-187500.02235174447,-187500.02235174447,-187500.02235174447,-187500.02235174447,1731451725.1991637,1731451723.2079215,4000
-7382.647083121191,-187500.02235174447,9472.758707136954,-187500.02235174447,-187500.02235174447,-187500.02235174447,-187500.02235174447,-187500.02235174447,1731451725.2042043,1731451723.2079215,4000
-7338.8823674776995,-187500.02235174447,9494.618713214244,-187500.02235174447,-187500.02235174447,-187500.02235174447,-187500.02235174447,-187500.02235174447,1731451725.2082336,1731451723.2079215,4000
-7228.084770212743,-187500.02235174447,9513.438882045612,-187500.02235174447,-187500.02235174447,-187500.02235174447,-187500.02235174447,-187500.02235174447,1731451725.2111423,1731451723.2079215,4000
-7281.43838422756,-187500.02235174447,9487.510858477455,-187500.02235174447,-187500.02235174447,-187500.02235174447,-187500.02235174447,-187500.02235174447,1731451725.21531,1731451723.2079215,4000
-7400.37201647425,-187500.02235174447,9464.265044243935,-187500.02235174447,-187500.02235174447,-187500.02235174447,-187500.02235174447,-187500.02235174447,1731451725.2191515,1731451723.2079215,4000
-7372.074707993831,-187500.02235174447,9484.649835187178,-187500.02235174447,-187500.02235174447,-187500.02235174447,-187500.02235174447,-187500.02235174447,1731451725.2233765,1731451723.2079215,4000
-7286.065195329809,-187500.02235174447,9505.12403310824,-187500.02235174447,-187500.02235174447,-187500.02235174447,-187500.02235174447,-187500.02235174447,1731451725.227044,1731451723.2079215,4000
-7287.272189530396,-187500.02235174447,9507.985056398518,-187500.02235174447,-187500.02235174447,-187500.02235174447,-187500.02235174447,-187500.02235174447,1731451725.23223,1731451723.2079215,4000
-7356.562597341847,-187500.02235174447,9472.177561781116,-187500.02235174447,-187500.02235174447,-187500.02235174447,-187500.02235174447,-187500.02235174447,1731451725.2361653,1731451723.2079215,4000
-7342.860977990745,-187500.02235174447,9473.965701337542,-187500.02235174447,-187500.02235174447,-187500.02235174447,-187500.02235174447,-187500.02235174447,1731451725.2392707,1731451723.2079215,4000
-7311.613239242225,-187500.02235174447,9495.713948692555,-187500.02235174447,-187500.02235174447,-187500.02235174447,-187500.02235174447,-187500.02235174447,1731451725.24302,1731451723.2079215,4000
-7295.385872767672,-187500.02235174447,9474.144515293185,-187500.02235174447,-187500.02235174447,-187500.02235174447,-187500.02235174447,-187500.02235174447,1731451725.2471275,1731451723.2079215,4000
-7337.273041876918,-187500.02235174447,9458.341831963282,-187500.02235174447,-187500.02235174447,-187500.02235174447,-187500.02235174447,-187500.02235174447,1731451725.251038,1731451723.2079215,4000
-7325.02428591541,-187500.02235174447,9461.359317464749,-187500.02235174447,-187500.02235174447,-187500.02235174447,-187500.02235174447,-187500.02235174447,1731451725.255302,1731451723.2079215,4000
-7284.187648795563,-187500.02235174447,9462.231035498506,-187500.02235174447,-187500.02235174447,-187500.02235174447,-187500.02235174447,-187500.02235174447,1731451725.2603912,1731451723.2079215,4000
-7349.901777494166,-187500.02235174447,9507.180393598128,-187500.02235174447,-187500.02235174447,-187500.02235174447,-187500.02235174447,-187500.02235174447,1731451725.2633245,1731451723.2079215,4000
-7356.6073008307585,-187500.02235174447,9474.435087971102,-187500.02235174447,-187500.02235174447,-187500.02235174447,-187500.02235174447,-187500.02235174447,1731451725.266296,1731451723.2079215,4000
-7396.907496083677,-187500.02235174447,9455.927843562107,-187500.02235174447,-187500.02235174447,-187500.02235174447,-187500.02235174447,-187500.02235174447,1731451725.2710843,1731451723.2079215,4000
-7331.327477851806,-187500.02235174447,9481.051204329871,-187500.02235174447,-187500.02235174447,-187500.02235174447,-187500.02235174447,-187500.02235174447,1731451725.2752557,1731451723.2079215,4000
-7285.305236018328,-187500.02235174447,9481.49823921898,-187500.02235174447,-187500.02235174447,-187500.02235174447,-187500.02235174447,-187500.02235174447,1731451725.27931,1731451723.2079215,4000
-7370.353623670772,-187500.02235174447,9477.720794406032,-187500.02235174447,-187500.02235174447,-187500.02235174447,-187500.02235174447,-187500.02235174447,1731451725.2833216,1731451723.2079215,4000
-7360.049469476876,-187500.02235174447,9454.720849361522,-187500.02235174447,-187500.02235174447,-187500.02235174447,-187500.02235174447,-187500.02235174447,1731451725.2883432,1731451723.2079215,4000
-7239.215938951485,-187500.02235174447,9473.272797259426,-187500.02235174447,-187500.02235174447,-187500.02235174447,-187500.02235174447,-187500.02235174447,1731451725.2913263,1731451723.2079215,4000
-7278.979692337477,-187500.02235174447,9467.550750678867,-187500.02235174447,-187500.02235174447,-187500.02235174447,-187500.02235174447,-187500.02235174447,1731451725.294301,1731451723.2079215,4000
-7368.453725392071,-187500.02235174447,9441.242747454971,-187500.02235174447,-187500.02235174447,-187500.02235174447,-187500.02235174447,-187500.02235174447,1731451725.299316,1731451723.2079215,4000
-7459.71589800309,-187500.02235174447,9460.554654664356,-187500.02235174447,-187500.02235174447,-187500.02235174447,-187500.02235174447,-187500.02235174447,1731451725.3033412,1731451723.2079215,4000
-7383.65291162168,-187500.02235174447,9475.552675193869,-187500.02235174447,-187500.02235174447,-187500.02235174447,-187500.02235174447,-187500.02235174447,1731451725.3071952,1731451723.2079215,4000
-7286.601637196736,-187500.02235174447,9472.021099569927,-187500.02235174447,-187500.02235174447,-187500.02235174447,-187500.02235174447,-187500.02235174447,1731451725.3114004,1731451723.2079215,4000
-7304.818308927812,-187500.02235174447,9447.612994624737,-187500.02235174447,-187500.02235174447,-187500.02235174447,-187500.02235174447,-187500.02235174447,1731451725.3153942,1731451723.2079215,4000
-7368.520780625437,-187500.02235174447,9439.544014876368,-187500.02235174447,-187500.02235174447,-187500.02235174447,-187500.02235174447,-187500.02235174447,1731451725.319318,1731451723.2079215,4000
-7380.858943564766,-187500.02235174447,9462.812180854342,-187500.02235174447,-187500.02235174447,-187500.02235174447,-187500.02235174447,-187500.02235174447,1731451725.3223312,1731451723.2079215,4000
-7290.155564565131,-187500.02235174447,9461.806352353851,-187500.02235174447,-187500.02235174447,-187500.02235174447,-187500.02235174447,-187500.02235174447,1731451725.3273344,1731451723.2079215,4000
-7268.608482910215,-187500.02235174447,9439.6781253431,-187500.02235174447,-187500.02235174447,-187500.02235174447,-187500.02235174447,-187500.02235174447,1731451725.3314111,1731451723.2079215,4000
-7403.903592098188,-187500.02235174447,9423.808386779832,-187500.02235174447,-187500.02235174447,-187500.02235174447,-187500.02235174447,-187500.02235174447,1731451725.3353095,1731451723.2079215,4000
-7401.981342075031,-187500.02235174447,9450.228148726004,-187500.02235174447,-187500.02235174447,-187500.02235174447,-187500.02235174447,-187500.02235174447,1731451725.339399,1731451723.2079215,4000
-7331.573347040814,-187500.02235174447,9461.67224188712,-187500.02235174447,-187500.02235174447,-187500.02235174447,-187500.02235174447,-187500.02235174447,1731451725.343256,1731451723.2079215,4000
-7309.40041654115,-187500.02235174447,9476.983186839008,-187500.02235174447,-187500.02235174447,-187500.02235174447,-187500.02235174447,-187500.02235174447,1731451725.3473954,1731451723.2079215,4000
-7304.974771138999,-187500.02235174447,9448.283546958392,-187500.02235174447,-187500.02235174447,-187500.02235174447,-187500.02235174447,-187500.02235174447,1731451725.3503697,1731451723.2079215,4000
-7361.904664266666,-187500.02235174447,9428.301087415348,-187500.02235174447,-187500.02235174447,-187500.02235174447,-187500.02235174447,-187500.02235174447,1731451725.3544948,1731451723.2079215,4000
-7341.07283843432,-187500.02235174447,9438.180558464594,-187500.02235174447,-187500.02235174447,-187500.02235174447,-187500.02235174447,-187500.02235174447,1731451725.3592591,1731451723.2079215,4000
-7322.632649258691,-187500.02235174447,9442.96383177803,-187500.02235174447,-187500.02235174447,-187500.02235174447,-187500.02235174447,-187500.02235174447,1731451725.3634028,1731451723.2079215,4000
-7362.083478222308,-187500.02235174447,9435.185424707584,-187500.02235174447,-187500.02235174447,-187500.02235174447,-187500.02235174447,-187500.02235174447,1731451725.3673265,1731451723.2079215,4000
-7353.07572520682,-187500.02235174447,9426.91527925912,-187500.02235174447,-187500.02235174447,-187500.02235174447,-187500.02235174447,-187500.02235174447,1731451725.3703868,1731451723.2079215,4000
-7257.924349060578,-187500.02235174447,9445.91426204613,-187500.02235174447,-187500.02235174447,-187500.02235174447,-187500.02235174447,-187500.02235174447,1731451725.3744311,1731451723.2079215,4000
-7304.617143227714,-187500.02235174447,9447.322421946816,-187500.02235174447,-187500.02235174447,-187500.02235174447,-187500.02235174447,-187500.02235174447,1731451725.3785443,1731451723.2079215,4000
-7395.70050188309,-187500.02235174447,9406.172860404597,-187500.02235174447,-187500.02235174447,-187500.02235174447,-187500.02235174447,-187500.02235174447,1731451725.38242,1731451723.2079215,4000
-7391.31955996985,-187500.02235174447,9406.23991563796,-187500.02235174447,-187500.02235174447,-187500.02235174447,-187500.02235174447,-187500.02235174447,1731451725.3874276,1731451723.2079215,4000
-7356.428486875116,-187500.02235174447,9423.584869335278,-187500.02235174447,-187500.02235174447,-187500.02235174447,-187500.02235174447,-187500.02235174447,1731451725.391441,1731451723.2079215,4000
-7318.8775561902,-187500.02235174447,9446.227186468504,-187500.02235174447,-187500.02235174447,-187500.02235174447,-187500.02235174447,-187500.02235174447,1731451725.3953671,1731451723.2079215,4000
-7318.944611423566,-187500.02235174447,9417.885174499175,-187500.02235174447,-187500.02235174447,-187500.02235174447,-187500.02235174447,-187500.02235174447,1731451725.3983345,1731451723.2079215,4000
-7369.236036448006,-187500.02235174447,9382.167086859596,-187500.02235174447,-187500.02235174447,-187500.02235174447,-187500.02235174447,-187500.02235174447,1731451725.4024007,1731451723.2079215,4000
-7388.167964001652,-187500.02235174447,9407.871592983198,-187500.02235174447,-187500.02235174447,-187500.02235174447,-187500.02235174447,-187500.02235174447,1731451725.4065173,1731451723.2079215,4000
-7292.122518077197,-187500.02235174447,9431.96677350602,-187500.02235174447,-187500.02235174447,-187500.02235174447,-187500.02235174447,-187500.02235174447,1731451725.410283,1731451723.2079215,4000
-7314.943649166066,-187500.02235174447,9435.140721218671,-187500.02235174447,-187500.02235174447,-187500.02235174447,-187500.02235174447,-187500.02235174447,1731451725.4153852,1731451723.2079215,4000
-7395.476984438537,-187500.02235174447,9420.947363489551,-187500.02235174447,-187500.02235174447,-187500.02235174447,-187500.02235174447,-187500.02235174447,1731451725.419372,1731451723.2079215,4000
-7374.332234183817,-187500.02235174447,9413.638343052668,-187500.02235174447,-187500.02235174447,-187500.02235174447,-187500.02235174447,-187500.02235174447,1731451725.423524,1731451723.2079215,4000
-7326.812425471834,-187500.02235174447,9453.200930738562,-187500.02235174447,-187500.02235174447,-187500.02235174447,-187500.02235174447,-187500.02235174447,1731451725.426301,1731451723.2079215,4000
-7308.886326418677,-187500.02235174447,9429.10575021574,-187500.02235174447,-187500.02235174447,-187500.02235174447,-187500.02235174447,-187500.02235174447,1731451725.4305124,1731451723.2079215,4000
-7374.712213839557,-187500.02235174447,9415.582944820278,-187500.02235174447,-187500.02235174447,-187500.02235174447,-187500.02235174447,-187500.02235174447,1731451725.4343216,1731451723.2079215,4000
-7379.495487152993,-187500.02235174447,9410.173822662096,-187500.02235174447,-187500.02235174447,-187500.02235174447,-187500.02235174447,-187500.02235174447,1731451725.438423,1731451723.2079215,4000
-7290.44613724305,-187500.02235174447,9423.808386779832,-187500.02235174447,-187500.02235174447,-187500.02235174447,-187500.02235174447,-187500.02235174447,1731451725.443527,1731451723.2079215,4000
-7263.847561341234,-187500.02235174447,9416.409959365124,-187500.02235174447,-187500.02235174447,-187500.02235174447,-187500.02235174447,-187500.02235174447,1731451725.447573,1731451723.2079215,4000
-7367.31378642485,-187500.02235174447,9401.546049302346,-187500.02235174447,-187500.02235174447,-187500.02235174447,-187500.02235174447,-187500.02235174447,1731451725.4525895,1731451723.2079215,4000
-7410.385597990227,-187500.02235174447,9386.8162497063,-187500.02235174447,-187500.02235174447,-187500.02235174447,-187500.02235174447,-187500.02235174447,1731451725.4565816,1731451723.2079215,4000
-7362.910492767155,-187500.02235174447,9411.537279073867,-187500.02235174447,-187500.02235174447,-187500.02235174447,-187500.02235174447,-187500.02235174447,1731451725.4593563,1731451723.2079215,4000
-7306.964076395521,-187500.02235174447,9408.944476717052,-187500.02235174447,-187500.02235174447,-187500.02235174447,-187500.02235174447,-187500.02235174447,1731451725.462442,1731451723.2079215,4000
-7269.614311410703,-187500.02235174447,9378.501400768924,-187500.02235174447,-187500.02235174447,-187500.02235174447,-187500.02235174447,-187500.02235174447,1731451725.466498,1731451723.2079215,4000
-7387.989150046009,-187500.02235174447,9369.717165197988,-187500.02235174447,-187500.02235174447,-187500.02235174447,-187500.02235174447,-187500.02235174447,1731451725.4705105,1731451723.2079215,4000
-7427.730551687545,-187500.02235174447,9396.494555055448,-187500.02235174447,-187500.02235174447,-187500.02235174447,-187500.02235174447,-187500.02235174447,1731451725.4757192,1731451723.2079215,4000
-7328.511158050437,-187500.02235174447,9418.466319855012,-187500.02235174447,-187500.02235174447,-187500.02235174447,-187500.02235174447,-187500.02235174447,1731451725.4795156,1731451723.2079215,4000
-7358.618957831736,-187500.02235174447,9406.06110168232,-187500.02235174447,-187500.02235174447,-187500.02235174447,-187500.02235174447,-187500.02235174447,1731451725.4824772,1731451723.2079215,4000
-7375.293359195395,-187500.02235174447,9373.785182688856,-187500.02235174447,-187500.02235174447,-187500.02235174447,-187500.02235174447,-187500.02235174447,1731451725.4865224,1731451723.2079215,4000
-7304.818308927812,-187500.02235174447,9388.514982284902,-187500.02235174447,-187500.02235174447,-187500.02235174447,-187500.02235174447,-187500.02235174447,1731451725.4905577,1731451723.2079215,4000
-7271.067174800298,-187500.02235174447,9406.23991563796,-187500.02235174447,-187500.02235174447,-187500.02235174447,-187500.02235174447,-187500.02235174447,1731451725.4945033,1731451723.2079215,4000
-7378.847286563789,-187500.02235174447,9385.989235161453,-187500.02235174447,-187500.02235174447,-187500.02235174447,-187500.02235174447,-187500.02235174447,1731451725.4985695,1731451723.2079215,4000
-7433.340839545827,-187500.02235174447,9377.517924012893,-187500.02235174447,-187500.02235174447,-187500.02235174447,-187500.02235174447,-187500.02235174447,1731451725.5034823,1731451723.2079215,4000
-7384.278760466428,-187500.02235174447,9393.38766257616,-187500.02235174447,-187500.02235174447,-187500.02235174447,-187500.02235174447,-187500.02235174447,1731451725.5065165,1731451723.2079215,4000
-7317.178823611596,-187500.02235174447,9406.418729593604,-187500.02235174447,-187500.02235174447,-187500.02235174447,-187500.02235174447,-187500.02235174447,1731451725.5105045,1731451723.2079215,4000
-7330.008724928943,-187500.02235174447,9395.354616088223,-187500.02235174447,-187500.02235174447,-187500.02235174447,-187500.02235174447,-187500.02235174447,1731451725.5145128,1731451723.2079215,4000
-7353.411001373649,-187500.02235174447,9370.499476253925,-187500.02235174447,-187500.02235174447,-187500.02235174447,-187500.02235174447,-187500.02235174447,1731451725.5184872,1731451723.2079215,4000
-7357.300204908873,-187500.02235174447,9387.307988084316,-187500.02235174447,-187500.02235174447,-187500.02235174447,-187500.02235174447,-187500.02235174447,1731451725.522635,1731451723.2079215,4000
-7338.122408166219,-187500.02235174447,9402.037787680363,-187500.02235174447,-187500.02235174447,-187500.02235174447,-187500.02235174447,-187500.02235174447,1731451725.5266373,1731451723.2079215,4000
-7337.78713199939,-187500.02235174447,9382.32354907078,-187500.02235174447,-187500.02235174447,-187500.02235174447,-187500.02235174447,-187500.02235174447,1731451725.531584,1731451723.2079215,4000
-7397.376882717238,-187500.02235174447,9355.367345257682,-187500.02235174447,-187500.02235174447,-187500.02235174447,-187500.02235174447,-187500.02235174447,1731451725.534476,1731451723.2079215,4000
-7394.158231515674,-187500.02235174447,9360.642356949134,-187500.02235174447,-187500.02235174447,-187500.02235174447,-187500.02235174447,-187500.02235174447,1731451725.5384724,1731451723.2079215,4000
-7296.659922201625,-187500.02235174447,9384.022281649386,-187500.02235174447,-187500.02235174447,-187500.02235174447,-187500.02235174447,-187500.02235174447,1731451725.5425043,1731451723.2079215,4000
-7343.039791946387,-187500.02235174447,9379.32841531377,-187500.02235174447,-187500.02235174447,-187500.02235174447,-187500.02235174447,-187500.02235174447,1731451725.5467489,1731451723.2079215,4000
-7382.535324398915,-187500.02235174447,9373.136982099652,-187500.02235174447,-187500.02235174447,-187500.02235174447,-187500.02235174447,-187500.02235174447,1731451725.550506,1731451723.2079215,4000
-7348.270100148929,-187500.02235174447,9386.011586905908,-187500.02235174447,-187500.02235174447,-187500.02235174447,-187500.02235174447,-187500.02235174447,1731451725.554764,1731451723.2079215,4000
-7355.757934541457,-187500.02235174447,9390.727804985978,-187500.02235174447,-187500.02235174447,-187500.02235174447,-187500.02235174447,-187500.02235174447,1731451725.559647,1731451723.2079215,4000
-7322.230317858496,-187500.02235174447,9391.6665782531,-187500.02235174447,-187500.02235174447,-187500.02235174447,-187500.02235174447,-187500.02235174447,1731451725.5628626,1731451723.2079215,4000
-7349.45474260506,-187500.02235174447,9358.787162159344,-187500.02235174447,-187500.02235174447,-187500.02235174447,-187500.02235174447,-187500.02235174447,1731451725.5667908,1731451723.2079215,4000
-7364.273949178929,-187500.02235174447,9353.7580196569,-187500.02235174447,-187500.02235174447,-187500.02235174447,-187500.02235174447,-187500.02235174447,1731451725.570891,1731451723.2079215,4000
-7362.195236944585,-187500.02235174447,9370.655938465112,-187500.02235174447,-187500.02235174447,-187500.02235174447,-187500.02235174447,-187500.02235174447,1731451725.5749464,1731451723.2079215,4000
-7341.721039023524,-187500.02235174447,9380.133078114162,-187500.02235174447,-187500.02235174447,-187500.02235174447,-187500.02235174447,-187500.02235174447,1731451725.5789433,1731451723.2079215,4000
-7322.3867800696835,-187500.02235174447,9351.165217300084,-187500.02235174447,-187500.02235174447,-187500.02235174447,-187500.02235174447,-187500.02235174447,1731451725.5829356,1731451723.2079215,4000
-7391.163097758663,-187500.02235174447,9328.969935055964,-187500.02235174447,-187500.02235174447,-187500.02235174447,-187500.02235174447,-187500.02235174447,1731451725.5867665,1731451723.2079215,4000
-7378.847286563789,-187500.02235174447,9338.75999912739,-187500.02235174447,-187500.02235174447,-187500.02235174447,-187500.02235174447,-187500.02235174447,1731451725.590817,1731451723.2079215,4000
-7283.785317395368,-187500.02235174447,9381.608293248211,-187500.02235174447,-187500.02235174447,-187500.02235174447,-187500.02235174447,-187500.02235174447,1731451725.5957873,1731451723.2079215,4000
-7357.635481075702,-187500.02235174447,9366.431458763058,-187500.02235174447,-187500.02235174447,-187500.02235174447,-187500.02235174447,-187500.02235174447,1731451725.5997903,1731451723.2079215,4000
-7420.555641717392,-187500.02235174447,9312.27318194785,-187500.02235174447,-187500.02235174447,-187500.02235174447,-187500.02235174447,-187500.02235174447,1731451725.6028855,1731451723.2079215,4000
-7375.718042340046,-187500.02235174447,9345.577281186255,-187500.02235174447,-187500.02235174447,-187500.02235174447,-187500.02235174447,-187500.02235174447,1731451725.6068816,1731451723.2079215,4000
