Fp1,Fp2,C3,C4,P7,P8,O1,O2,time_board,time_marker,marker
-28350.28211477782,-187500.02235174447,1036.9421287706052,-187500.02235174447,-187500.02235174447,-187500.02235174447,-187500.02235174447,-187500.02235174447,1730328779.318125,1730328779.31433,4000
-28323.92940806501,-187500.02235174447,1010.1870906576028,-187500.02235174447,-187500.02235174447,-187500.02235174447,-187500.02235174447,-187500.02235174447,1730328779.321934,1730328779.31433,4000
-28376.81363544627,-187500.02235174447,932.4700751865,-187500.02235174447,-187500.02235174447,-187500.02235174447,-187500.02235174447,-187500.02235174447,1730328779.3251517,1730328779.31433,4000
-28413.24697890842,-187500.02235174447,948.9656625945166,-187500.02235174447,-187500.02235174447,-187500.02235174447,-187500.02235174447,-187500.02235174447,1730328779.3291128,1730328779.31433,4000
-28365.682466707527,-187500.02235174447,1024.1569309421695,-187500.02235174447,-187500.02235174447,-187500.02235174447,-187500.02235174447,-187500.02235174447,1730328779.3329904,1730328779.31433,4000
-28314.36286143814,-187500.02235174447,1027.1297129547254,-187500.02235174447,-187500.02235174447,-187500.02235174447,-187500.02235174447,-187500.02235174447,1730328779.33699,1730328779.31433,4000
-28358.8428329042,-187500.02235174447,950.2397120284692,-187500.02235174447,-187500.02235174447,-187500.02235174447,-187500.02235174447,-187500.02235174447,1730328779.340912,1730328779.31433,4000
-28414.14104868663,-187500.02235174447,941.0084415684272,-187500.02235174447,-187500.02235174447,-187500.02235174447,-187500.02235174447,-187500.02235174447,1730328779.346132,1730328779.31433,4000
-28378.57942325824,-187500.02235174447,1012.2881546364016,-187500.02235174447,-187500.02235174447,-187500.02235174447,-187500.02235174447,-187500.02235174447,1730328779.3500693,1730328779.31433,4000
-28317.693271361983,-187500.02235174447,1025.0062972314713,-187500.02235174447,-187500.02235174447,-187500.02235174447,-187500.02235174447,-187500.02235174447,1730328779.3531177,1730328779.31433,4000
-28347.443443231998,-187500.02235174447,953.2795492743908,-187500.02235174447,-187500.02235174447,-187500.02235174447,-187500.02235174447,-187500.02235174447,1730328779.3570282,1730328779.31433,4000
-28403.389859603627,-187500.02235174447,935.2640432434134,-187500.02235174447,-187500.02235174447,-187500.02235174447,-187500.02235174447,-187500.02235174447,1730328779.361069,1730328779.31433,4000
-28381.418094804063,-187500.02235174447,1006.6555150336642,-187500.02235174447,-187500.02235174447,-187500.02235174447,-187500.02235174447,-187500.02235174447,1730328779.365108,1730328779.31433,4000
-28330.94785582398,-187500.02235174447,1037.2550531929796,-187500.02235174447,-187500.02235174447,-187500.02235174447,-187500.02235174447,-187500.02235174447,1730328779.3691344,1730328779.31433,4000
-28344.60477168617,-187500.02235174447,973.664340217631,-187500.02235174447,-187500.02235174447,-187500.02235174447,-187500.02235174447,-187500.02235174447,1730328779.3741257,1730328779.31433,4000
-28408.28489163934,-187500.02235174447,927.5973948952432,-187500.02235174447,-187500.02235174447,-187500.02235174447,-187500.02235174447,-187500.02235174447,1730328779.3791397,1730328779.31433,4000
-28392.839836220723,-187500.02235174447,994.0044276719605,-187500.02235174447,-187500.02235174447,-187500.02235174447,-187500.02235174447,-187500.02235174447,1730328779.3821309,1730328779.31433,4000
-28314.45226841596,-187500.02235174447,1054.175323745647,-187500.02235174447,-187500.02235174447,-187500.02235174447,-187500.02235174447,-187500.02235174447,1730328779.385153,1730328779.31433,4000
-28310.76423058084,-187500.02235174447,1006.34259061129,-187500.02235174447,-187500.02235174447,-187500.02235174447,-187500.02235174447,-187500.02235174447,1730328779.3900871,1730328779.31433,4000
-28380.0993418812,-187500.02235174447,946.6857846600752,-187500.02235174447,-187500.02235174447,-187500.02235174447,-187500.02235174447,-187500.02235174447,1730328779.3931465,1730328779.31433,4000
-28391.342269342214,-187500.02235174447,988.1035671357594,-187500.02235174447,-187500.02235174447,-187500.02235174447,-187500.02235174447,-187500.02235174447,1730328779.39701,1730328779.31433,4000
-28329.36088196765,-187500.02235174447,1047.4250969201444,-187500.02235174447,-187500.02235174447,-187500.02235174447,-187500.02235174447,-187500.02235174447,1730328779.401174,1730328779.31433,4000
-28318.45323067346,-187500.02235174447,1017.563166327854,-187500.02235174447,-187500.02235174447,-187500.02235174447,-187500.02235174447,-187500.02235174447,1730328779.4050064,1730328779.31433,4000
-28384.79320821681,-187500.02235174447,949.3679939947122,-187500.02235174447,-187500.02235174447,-187500.02235174447,-187500.02235174447,-187500.02235174447,1730328779.409165,1730328779.31433,4000
-28410.542417829325,-187500.02235174447,970.4233372716114,-187500.02235174447,-187500.02235174447,-187500.02235174447,-187500.02235174447,-187500.02235174447,1730328779.413198,1730328779.31433,4000
-28349.52215546634,-187500.02235174447,1040.272538694446,-187500.02235174447,-187500.02235174447,-187500.02235174447,-187500.02235174447,-187500.02235174447,1730328779.4182084,1730328779.31433,4000
-28317.067422517237,-187500.02235174447,1024.9392419981054,-187500.02235174447,-187500.02235174447,-187500.02235174447,-187500.02235174447,-187500.02235174447,1730328779.4210582,1730328779.31433,4000
-28372.34328655521,-187500.02235174447,945.0094038259272,-187500.02235174447,-187500.02235174447,-187500.02235174447,-187500.02235174447,-187500.02235174447,1730328779.425177,1730328779.31433,4000
-28403.121638670164,-187500.02235174447,954.1065638192372,-187500.02235174447,-187500.02235174447,-187500.02235174447,-187500.02235174447,-187500.02235174447,1730328779.429218,1730328779.31433,4000
-28379.62995524764,-187500.02235174447,1023.4193233751444,-187500.02235174447,-187500.02235174447,-187500.02235174447,-187500.02235174447,-187500.02235174447,1730328779.433221,1730328779.31433,4000
-28334.79235587029,-187500.02235174447,1026.6379745767088,-187500.02235174447,-187500.02235174447,-187500.02235174447,-187500.02235174447,-187500.02235174447,1730328779.4372065,1730328779.31433,4000
-28368.543489997806,-187500.02235174447,955.7382411644747,-187500.02235174447,-187500.02235174447,-187500.02235174447,-187500.02235174447,-187500.02235174447,1730328779.441259,1730328779.31433,4000
-28420.86892376768,-187500.02235174447,940.695517146053,-187500.02235174447,-187500.02235174447,-187500.02235174447,-187500.02235174447,-187500.02235174447,1730328779.4461756,1730328779.31433,4000
-28391.208158875485,-187500.02235174447,1008.600116801276,-187500.02235174447,-187500.02235174447,-187500.02235174447,-187500.02235174447,-187500.02235174447,1730328779.4492798,1730328779.31433,4000
-28339.709739650458,-187500.02235174447,1017.9878494725048,-187500.02235174447,-187500.02235174447,-187500.02235174447,-187500.02235174447,-187500.02235174447,1730328779.4522564,1730328779.31433,4000
-28364.497824251397,-187500.02235174447,953.8830463746842,-187500.02235174447,-187500.02235174447,-187500.02235174447,-187500.02235174447,-187500.02235174447,1730328779.457266,1730328779.31433,4000
-28423.57348484677,-187500.02235174447,937.9015490891396,-187500.02235174447,-187500.02235174447,-187500.02235174447,-187500.02235174447,-187500.02235174447,1730328779.4612832,1730328779.31433,4000
-28408.217836405976,-187500.02235174447,1006.9684394560384,-187500.02235174447,-187500.02235174447,-187500.02235174447,-187500.02235174447,-187500.02235174447,1730328779.4651551,1730328779.31433,4000
-28343.66599841905,-187500.02235174447,1044.7205358410522,-187500.02235174447,-187500.02235174447,-187500.02235174447,-187500.02235174447,-187500.02235174447,1730328779.4691672,1730328779.31433,4000
-28361.05565560528,-187500.02235174447,976.726529208008,-187500.02235174447,-187500.02235174447,-187500.02235174447,-187500.02235174447,-187500.02235174447,1730328779.4743571,1730328779.31433,4000
-28425.696900570027,-187500.02235174447,928.5138164179108,-187500.02235174447,-187500.02235174447,-187500.02235174447,-187500.02235174447,-187500.02235174447,1730328779.477384,1730328779.31433,4000
-28419.706633056,-187500.02235174447,988.371788069223,-187500.02235174447,-187500.02235174447,-187500.02235174447,-187500.02235174447,-187500.02235174447,1730328779.481118,1730328779.31433,4000
-28359.33457128222,-187500.02235174447,1032.1812072016248,-187500.02235174447,-187500.02235174447,-187500.02235174447,-187500.02235174447,-187500.02235174447,1730328779.4853532,1730328779.31433,4000
-28338.14511753859,-187500.02235174447,994.0044276719605,-187500.02235174447,-187500.02235174447,-187500.02235174447,-187500.02235174447,-187500.02235174447,1730328779.4891553,1730328779.31433,4000
-28393.577443787748,-187500.02235174447,949.2115317835252,-187500.02235174447,-187500.02235174447,-187500.02235174447,-187500.02235174447,-187500.02235174447,1730328779.493326,1730328779.31433,4000
-28413.515199841884,-187500.02235174447,992.2609916044464,-187500.02235174447,-187500.02235174447,-187500.02235174447,-187500.02235174447,-187500.02235174447,1730328779.4971611,1730328779.31433,4000
-28356.98763811441,-187500.02235174447,1053.3930126897112,-187500.02235174447,-187500.02235174447,-187500.02235174447,-187500.02235174447,-187500.02235174447,1730328779.501362,1730328779.31433,4000
-28325.628140643614,-187500.02235174447,1017.9654977280496,-187500.02235174447,-187500.02235174447,-187500.02235174447,-187500.02235174447,-187500.02235174447,1730328779.5043497,1730328779.31433,4000
-28383.027420404844,-187500.02235174447,942.9083398471284,-187500.02235174447,-187500.02235174447,-187500.02235174447,-187500.02235174447,-187500.02235174447,1730328779.5083475,1730328779.31433,4000
-28396.550225800303,-187500.02235174447,967.2493895589578,-187500.02235174447,-187500.02235174447,-187500.02235174447,-187500.02235174447,-187500.02235174447,1730328779.5131917,1730328779.31433,4000
-28324.890533076592,-187500.02235174447,1044.273500951946,-187500.02235174447,-187500.02235174447,-187500.02235174447,-187500.02235174447,-187500.02235174447,1730328779.5174172,1730328779.31433,4000
-28329.00325405637,-187500.02235174447,1025.6097943317643,-187500.02235174447,-187500.02235174447,-187500.02235174447,-187500.02235174447,-187500.02235174447,1730328779.521466,1730328779.31433,4000
-28402.60754854769,-187500.02235174447,948.2951102608574,-187500.02235174447,-187500.02235174447,-187500.02235174447,-187500.02235174447,-187500.02235174447,1730328779.5252123,1730328779.31433,4000
-28447.981589791965,-187500.02235174447,947.825723627296,-187500.02235174447,-187500.02235174447,-187500.02235174447,-187500.02235174447,-187500.02235174447,1730328779.5294187,1730328779.31433,4000
-28399.18773164603,-187500.02235174447,1023.5757855863316,-187500.02235174447,-187500.02235174447,-187500.02235174447,-187500.02235174447,-187500.02235174447,1730328779.5324247,1730328779.31433,4000
-28339.0391873168,-187500.02235174447,1034.6846025806192,-187500.02235174447,-187500.02235174447,-187500.02235174447,-187500.02235174447,-187500.02235174447,1730328779.5364535,1730328779.31433,4000
-28377.03715289082,-187500.02235174447,958.9345406215836,-187500.02235174447,-187500.02235174447,-187500.02235174447,-187500.02235174447,-187500.02235174447,1730328779.5412369,1730328779.31433,4000
-28436.738662330947,-187500.02235174447,940.337889234768,-187500.02235174447,-187500.02235174447,-187500.02235174447,-187500.02235174447,-187500.02235174447,1730328779.5454526,1730328779.31433,4000
-28400.68529852453,-187500.02235174447,1027.688506566108,-187500.02235174447,-187500.02235174447,-187500.02235174447,-187500.02235174447,-187500.02235174447,1730328779.5493484,1730328779.31433,4000
-28340.022664072832,-187500.02235174447,1052.633053378231,-187500.02235174447,-187500.02235174447,-187500.02235174447,-187500.02235174447,-187500.02235174447,1730328779.553466,1730328779.31433,4000
-28359.871013149143,-187500.02235174447,981.4203955436224,-187500.02235174447,-187500.02235174447,-187500.02235174447,-187500.02235174447,-187500.02235174447,1730328779.5562756,1730328779.31433,4000
-28420.15366794511,-187500.02235174447,949.7032701615418,-187500.02235174447,-187500.02235174447,-187500.02235174447,-187500.02235174447,-187500.02235174447,1730328779.560603,1730328779.31433,4000
-28416.77855453236,-187500.02235174447,1011.7293610250188,-187500.02235174447,-187500.02235174447,-187500.02235174447,-187500.02235174447,-187500.02235174447,1730328779.564374,1730328779.31433,4000
-28354.61835320215,-187500.02235174447,1053.5271231564432,-187500.02235174447,-187500.02235174447,-187500.02235174447,-187500.02235174447,-187500.02235174447,1730328779.569372,1730328779.31433,4000
-28361.592097472203,-187500.02235174447,995.4125875726448,-187500.02235174447,-187500.02235174447,-187500.02235174447,-187500.02235174447,-187500.02235174447,1730328779.5733552,1730328779.31433,4000
-28427.596798848725,-187500.02235174447,948.6750899165976,-187500.02235174447,-187500.02235174447,-187500.02235174447,-187500.02235174447,-187500.02235174447,1730328779.5774686,1730328779.31433,4000
-28420.19837143402,-187500.02235174447,1008.8012825013736,-187500.02235174447,-187500.02235174447,-187500.02235174447,-187500.02235174447,-187500.02235174447,1730328779.5813253,1730328779.31433,4000
-28352.0926060787,-187500.02235174447,1058.1315825142362,-187500.02235174447,-187500.02235174447,-187500.02235174447,-187500.02235174447,-187500.02235174447,1730328779.5845344,1730328779.31433,4000
-28337.94395183849,-187500.02235174447,1010.9470499690832,-187500.02235174447,-187500.02235174447,-187500.02235174447,-187500.02235174447,-187500.02235174447,1730328779.5883255,1730328779.31433,4000
-28398.159551401088,-187500.02235174447,951.7372789069748,-187500.02235174447,-187500.02235174447,-187500.02235174447,-187500.02235174447,-187500.02235174447,1730328779.5924382,1730328779.31433,4000
-28410.58712131824,-187500.02235174447,1001.112282408748,-187500.02235174447,-187500.02235174447,-187500.02235174447,-187500.02235174447,-187500.02235174447,1730328779.5965405,1730328779.31433,4000
-28354.03720784631,-187500.02235174447,1069.1956960196133,-187500.02235174447,-187500.02235174447,-187500.02235174447,-187500.02235174447,-187500.02235174447,1730328779.6015172,1730328779.31433,4000
-28336.401681471078,-187500.02235174447,1035.981003759027,-187500.02235174447,-187500.02235174447,-187500.02235174447,-187500.02235174447,-187500.02235174447,1730328779.605325,1730328779.31433,4000
-28402.227568891954,-187500.02235174447,953.436011485578,-187500.02235174447,-187500.02235174447,-187500.02235174447,-187500.02235174447,-187500.02235174447,1730328779.609475,1730328779.31433,4000
-28439.778499576867,-187500.02235174447,969.6186744712204,-187500.02235174447,-187500.02235174447,-187500.02235174447,-187500.02235174447,-187500.02235174447,1730328779.6124744,1730328779.31433,4000
-28385.19553961701,-187500.02235174447,1039.624338105242,-187500.02235174447,-187500.02235174447,-187500.02235174447,-187500.02235174447,-187500.02235174447,1730328779.6164503,1730328779.31433,4000
-28337.854544860667,-187500.02235174447,1036.3833351592225,-187500.02235174447,-187500.02235174447,-187500.02235174447,-187500.02235174447,-187500.02235174447,1730328779.620614,1730328779.31433,4000
-28383.049772149297,-187500.02235174447,962.4884679899774,-187500.02235174447,-187500.02235174447,-187500.02235174447,-187500.02235174447,-187500.02235174447,1730328779.6245744,1730328779.31433,4000
-28438.079766998264,-187500.02235174447,957.95106386555,-187500.02235174447,-187500.02235174447,-187500.02235174447,-187500.02235174447,-187500.02235174447,1730328779.6295888,1730328779.31433,4000
-28399.85828397969,-187500.02235174447,1037.500922381988,-187500.02235174447,-187500.02235174447,-187500.02235174447,-187500.02235174447,-187500.02235174447,1730328779.633656,1730328779.31433,4000
-28339.016835572344,-187500.02235174447,1050.1520097436917,-187500.02235174447,-187500.02235174447,-187500.02235174447,-187500.02235174447,-187500.02235174447,1730328779.636572,1730328779.31433,4000
-28377.57359475775,-187500.02235174447,965.371843024712,-187500.02235174447,-187500.02235174447,-187500.02235174447,-187500.02235174447,-187500.02235174447,1730328779.640663,1730328779.31433,4000
-28434.14585997413,-187500.02235174447,948.8092003833297,-187500.02235174447,-187500.02235174447,-187500.02235174447,-187500.02235174447,-187500.02235174447,1730328779.644647,1730328779.31433,4000
-28403.792191003824,-187500.02235174447,1024.1345791977144,-187500.02235174447,-187500.02235174447,-187500.02235174447,-187500.02235174447,-187500.02235174447,1730328779.6484623,1730328779.31433,4000
-28330.724338379427,-187500.02235174447,1049.4814574100326,-187500.02235174447,-187500.02235174447,-187500.02235174447,-187500.02235174447,-187500.02235174447,1730328779.6524353,1730328779.31433,4000
-28362.061484105765,-187500.02235174447,970.5797994827984,-187500.02235174447,-187500.02235174447,-187500.02235174447,-187500.02235174447,-187500.02235174447,1730328779.657576,1730328779.31433,4000
-28413.24697890842,-187500.02235174447,919.8413395692515,-187500.02235174447,-187500.02235174447,-187500.02235174447,-187500.02235174447,-187500.02235174447,1730328779.6615956,1730328779.31433,4000
-28402.04875493631,-187500.02235174447,966.4894302474772,-187500.02235174447,-187500.02235174447,-187500.02235174447,-187500.02235174447,-187500.02235174447,1730328779.6645052,1730328779.31433,4000
-28356.67471369204,-187500.02235174447,1043.1335619847252,-187500.02235174447,-187500.02235174447,-187500.02235174447,-187500.02235174447,-187500.02235174447,1730328779.6685345,1730328779.31433,4000
-28350.796204900293,-187500.02235174447,1021.3853146297116,-187500.02235174447,-187500.02235174447,-187500.02235174447,-187500.02235174447,-187500.02235174447,1730328779.6725087,1730328779.31433,4000
-28425.07105172528,-187500.02235174447,961.0803080892932,-187500.02235174447,-187500.02235174447,-187500.02235174447,-187500.02235174447,-187500.02235174447,1730328779.67671,1730328779.31433,4000
-28438.549153631822,-187500.02235174447,1000.4864335639994,-187500.02235174447,-187500.02235174447,-187500.02235174447,-187500.02235174447,-187500.02235174447,1730328779.6805704,1730328779.31433,4000
-28378.31120232477,-187500.02235174447,1063.0936697833145,-187500.02235174447,-187500.02235174447,-187500.02235174447,-187500.02235174447,-187500.02235174447,1730328779.68552,1730328779.31433,4000
-28343.375425741127,-187500.02235174447,1032.114151968259,-187500.02235174447,-187500.02235174447,-187500.02235174447,-187500.02235174447,-187500.02235174447,1730328779.6896205,1730328779.31433,4000
-28402.24992063641,-187500.02235174447,957.7498981654524,-187500.02235174447,-187500.02235174447,-187500.02235174447,-187500.02235174447,-187500.02235174447,1730328779.6928332,1730328779.31433,4000
-28431.083670983757,-187500.02235174447,986.3154275793348,-187500.02235174447,-187500.02235174447,-187500.02235174447,-187500.02235174447,-187500.02235174447,1730328779.696597,1730328779.31433,4000
-28366.822405674742,-187500.02235174447,1062.6019314052978,-187500.02235174447,-187500.02235174447,-187500.02235174447,-187500.02235174447,-187500.02235174447,1730328779.7007291,1730328779.31433,4000
-28338.56980068324,-187500.02235174447,1037.366811915256,-187500.02235174447,-187500.02235174447,-187500.02235174447,-187500.02235174447,-187500.02235174447,1730328779.7045968,1730328779.31433,4000
-28402.384031103134,-187500.02235174447,958.4204504991116,-187500.02235174447,-187500.02235174447,-187500.02235174447,-187500.02235174447,-187500.02235174447,1730328779.7086928,1730328779.31433,4000
-28430.23430469445,-187500.02235174447,969.1269360932037,-187500.02235174447,-187500.02235174447,-187500.02235174447,-187500.02235174447,-187500.02235174447,1730328779.7137136,1730328779.31433,4000
-28391.61049027568,-187500.02235174447,1035.6457275921975,-187500.02235174447,-187500.02235174447,-187500.02235174447,-187500.02235174447,-187500.02235174447,1730328779.7167091,1730328779.31433,4000
-28349.9915420999,-187500.02235174447,1031.4435996345997,-187500.02235174447,-187500.02235174447,-187500.02235174447,-187500.02235174447,-187500.02235174447,1730328779.7196236,1730328779.31433,4000
-28415.124525442665,-187500.02235174447,967.4282035146005,-187500.02235174447,-187500.02235174447,-187500.02235174447,-187500.02235174447,-187500.02235174447,1730328779.7247236,1730328779.31433,4000
-28460.87854634268,-187500.02235174447,939.5779299232876,-187500.02235174447,-187500.02235174447,-187500.02235174447,-187500.02235174447,-187500.02235174447,1730328779.7288103,1730328779.31433,4000
-28418.320824899773,-187500.02235174447,995.0773114058152,-187500.02235174447,-187500.02235174447,-187500.02235174447,-187500.02235174447,-187500.02235174447,1730328779.7327764,1730328779.31433,4000
-28353.38900725711,-187500.02235174447,1041.4571811505773,-187500.02235174447,-187500.02235174447,-187500.02235174447,-187500.02235174447,-187500.02235174447,1730328779.736683,1730328779.31433,4000
-28399.031269434843,-187500.02235174447,997.2901341068904,-187500.02235174447,-187500.02235174447,-187500.02235174447,-187500.02235174447,-187500.02235174447,1730328779.7408037,1730328779.31433,4000
-28486.560700721828,-187500.02235174447,957.0793458317931,-187500.02235174447,-187500.02235174447,-187500.02235174447,-187500.02235174447,-187500.02235174447,1730328779.7448435,1730328779.31433,4000
-28441.432528666563,-187500.02235174447,1026.7720850434405,-187500.02235174447,-187500.02235174447,-187500.02235174447,-187500.02235174447,-187500.02235174447,1730328779.7475815,1730328779.31433,4000
-28380.9487081705,-187500.02235174447,1062.5795796608425,-187500.02235174447,-187500.02235174447,-187500.02235174447,-187500.02235174447,-187500.02235174447,1730328779.752828,1730328779.31433,4000
-28401.177036902554,-187500.02235174447,997.9830381850052,-187500.02235174447,-187500.02235174447,-187500.02235174447,-187500.02235174447,-187500.02235174447,1730328779.7567344,1730328779.31433,4000
-28466.37707547869,-187500.02235174447,945.6576044151312,-187500.02235174447,-187500.02235174447,-187500.02235174447,-187500.02235174447,-187500.02235174447,1730328779.7608273,1730328779.31433,4000
-28458.12928177468,-187500.02235174447,1009.2930208793904,-187500.02235174447,-187500.02235174447,-187500.02235174447,-187500.02235174447,-187500.02235174447,1730328779.764748,1730328779.31433,4000
-28390.895234453117,-187500.02235174447,1052.20837023358,-187500.02235174447,-187500.02235174447,-187500.02235174447,-187500.02235174447,-187500.02235174447,1730328779.768712,1730328779.31433,4000
-28395.72321125546,-187500.02235174447,1000.4864335639994,-187500.02235174447,-187500.02235174447,-187500.02235174447,-187500.02235174447,-187500.02235174447,1730328779.772657,1730328779.31433,4000
-28454.12831951717,-187500.02235174447,937.56627292231,-187500.02235174447,-187500.02235174447,-187500.02235174447,-187500.02235174447,-187500.02235174447,1730328779.775708,1730328779.31433,4000
-28454.73181661747,-187500.02235174447,948.2727585164022,-187500.02235174447,-187500.02235174447,-187500.02235174447,-187500.02235174447,-187500.02235174447,1730328779.7797573,1730328779.31433,4000
-28299.74482056437,-187500.02235174447,955.179447553092,-187500.02235174447,-187500.02235174447,-187500.02235174447,-187500.02235174447,-187500.02235174447,1730328779.7847962,1730328779.31433,4000
-28251.666218241004,-187500.02235174447,924.1999297380364,-187500.02235174447,-187500.02235174447,-187500.02235174447,-187500.02235174447,-187500.02235174447,1730328779.7886648,1730328779.31433,4000
-28469.34985749124,-187500.02235174447,943.5118369474218,-187500.02235174447,-187500.02235174447,-187500.02235174447,-187500.02235174447,-187500.02235174447,1730328779.7927687,1730328779.31433,4000
-28470.35568599173,-187500.02235174447,1008.8683377347396,-187500.02235174447,-187500.02235174447,-187500.02235174447,-187500.02235174447,-187500.02235174447,1730328779.7967763,1730328779.31433,4000
-28456.408197451616,-187500.02235174447,1083.7019781711076,-187500.02235174447,-187500.02235174447,-187500.02235174447,-187500.02235174447,-187500.02235174447,1730328779.8009272,1730328779.31433,4000
-28433.34119717374,-187500.02235174447,1082.852611881806,-187500.02235174447,-187500.02235174447,-187500.02235174447,-187500.02235174447,-187500.02235174447,1730328779.8039255,1730328779.31433,4000
-28434.52583962987,-187500.02235174447,973.95491289555,-187500.02235174447,-187500.02235174447,-187500.02235174447,-187500.02235174447,-187500.02235174447,1730328779.8077412,1730328779.31433,4000
-28394.33740309923,-187500.02235174447,954.6430056861648,-187500.02235174447,-187500.02235174447,-187500.02235174447,-187500.02235174447,-187500.02235174447,1730328779.8128672,1730328779.31433,4000
-28396.99726068941,-187500.02235174447,1030.1248467117366,-187500.02235174447,-187500.02235174447,-187500.02235174447,-187500.02235174447,-187500.02235174447,1730328779.8169,1730328779.31433,4000
-28375.204309845485,-187500.02235174447,1058.332748214334,-187500.02235174447,-187500.02235174447,-187500.02235174447,-187500.02235174447,-187500.02235174447,1730328779.820861,1730328779.31433,4000
-28439.97966527697,-187500.02235174447,995.1220148947256,-187500.02235174447,-187500.02235174447,-187500.02235174447,-187500.02235174447,-187500.02235174447,1730328779.8248932,1730328779.31433,4000
-28525.877419218712,-187500.02235174447,1021.0053349739712,-187500.02235174447,-187500.02235174447,-187500.02235174447,-187500.02235174447,-187500.02235174447,1730328779.827906,1730328779.31433,4000
-28471.652087170136,-187500.02235174447,1096.3307137883562,-187500.02235174447,-187500.02235174447,-187500.02235174447,-187500.02235174447,-187500.02235174447,1730328779.8319535,1730328779.31433,4000
-28378.4006093026,-187500.02235174447,1096.97891437756,-187500.02235174447,-187500.02235174447,-187500.02235174447,-187500.02235174447,-187500.02235174447,1730328779.8359685,1730328779.31433,4000
-28421.785345290347,-187500.02235174447,1019.4854163510104,-187500.02235174447,-187500.02235174447,-187500.02235174447,-187500.02235174447,-187500.02235174447,1730328779.840908,1730328779.31433,4000
-28477.06120932832,-187500.02235174447,983.1861833555918,-187500.02235174447,-187500.02235174447,-187500.02235174447,-187500.02235174447,-187500.02235174447,1730328779.8449323,1730328779.31433,4000
-28484.191415809564,-187500.02235174447,1033.3882014022115,-187500.02235174447,-187500.02235174447,-187500.02235174447,-187500.02235174447,-187500.02235174447,1730328779.8488824,1730328779.31433,4000
-28433.989397762944,-187500.02235174447,1068.1898675191246,-187500.02235174447,-187500.02235174447,-187500.02235174447,-187500.02235174447,-187500.02235174447,1730328779.8518183,1730328779.31433,4000
-28407.56963581677,-187500.02235174447,997.24543061798,-187500.02235174447,-187500.02235174447,-187500.02235174447,-187500.02235174447,-187500.02235174447,1730328779.8557713,1730328779.31433,4000
-28439.510278643404,-187500.02235174447,909.4701301419892,-187500.02235174447,-187500.02235174447,-187500.02235174447,-187500.02235174447,-187500.02235174447,1730328779.860016,1730328779.31433,4000
-28456.475252684984,-187500.02235174447,943.310671247324,-187500.02235174447,-187500.02235174447,-187500.02235174447,-187500.02235174447,-187500.02235174447,1730328779.863835,1730328779.31433,4000
-28342.77192864084,-187500.02235174447,1006.3872941002004,-187500.02235174447,-187500.02235174447,-187500.02235174447,-187500.02235174447,-187500.02235174447,1730328779.8690467,1730328779.31433,4000
-28329.159716267557,-187500.02235174447,990.9422386815831,-187500.02235174447,-187500.02235174447,-187500.02235174447,-187500.02235174447,-187500.02235174447,1730328779.8727932,1730328779.31433,4000
-28316.75449809486,-187500.02235174447,993.7138549940414,-187500.02235174447,-187500.02235174447,-187500.02235174447,-187500.02235174447,-187500.02235174447,1730328779.8769653,1730328779.31433,4000
-28338.256876260864,-187500.02235174447,1018.7478087839852,-187500.02235174447,-187500.02235174447,-187500.02235174447,-187500.02235174447,-187500.02235174447,1730328779.8798392,1730328779.31433,4000
-28449.83678458176,-187500.02235174447,1035.8021898033846,-187500.02235174447,-187500.02235174447,-187500.02235174447,-187500.02235174447,-187500.02235174447,1730328779.8840146,1730328779.31433,4000
-28420.37718538966,-187500.02235174447,995.2784771059128,-187500.02235174447,-187500.02235174447,-187500.02235174447,-187500.02235174447,-187500.02235174447,1730328779.888111,1730328779.31433,4000
-28484.213767554014,-187500.02235174447,1002.9451254540832,-187500.02235174447,-187500.02235174447,-187500.02235174447,-187500.02235174447,-187500.02235174447,1730328779.8920784,1730328779.31433,4000
-28413.895179497624,-187500.02235174447,1094.8554986543058,-187500.02235174447,-187500.02235174447,-187500.02235174447,-187500.02235174447,-187500.02235174447,1730328779.8969052,1730328779.31433,4000
-28469.46161621352,-187500.02235174447,1154.5346563499756,-187500.02235174447,-187500.02235174447,-187500.02235174447,-187500.02235174447,-187500.02235174447,1730328779.900905,1730328779.31433,4000
-28435.978703019468,-187500.02235174447,1119.3530105773225,-187500.02235174447,-187500.02235174447,-187500.02235174447,-187500.02235174447,-187500.02235174447,1730328779.9049027,1730328779.31433,4000
-28443.488889156448,-187500.02235174447,1026.4815123655214,-187500.02235174447,-187500.02235174447,-187500.02235174447,-187500.02235174447,-187500.02235174447,1730328779.908021,1730328779.31433,4000
-28462.957258577026,-187500.02235174447,989.9811136700052,-187500.02235174447,-187500.02235174447,-187500.02235174447,-187500.02235174447,-187500.02235174447,1730328779.912011,1730328779.31433,4000
-28350.90796362257,-187500.02235174447,1052.4095359336775,-187500.02235174447,-187500.02235174447,-187500.02235174447,-187500.02235174447,-187500.02235174447,1730328779.916047,1730328779.31433,4000
-28281.63990755557,-187500.02235174447,1064.8147541063731,-187500.02235174447,-187500.02235174447,-187500.02235174447,-187500.02235174447,-187500.02235174447,1730328779.9200473,1730328779.31433,4000
-28364.27430680684,-187500.02235174447,1013.8304250038176,-187500.02235174447,-187500.02235174447,-187500.02235174447,-187500.02235174447,-187500.02235174447,1730328779.9240327,1730328779.31433,4000
-28527.129116908207,-187500.02235174447,1039.6466898496974,-187500.02235174447,-187500.02235174447,-187500.02235174447,-187500.02235174447,-187500.02235174447,1730328779.9290311,1730328779.31433,4000
-28415.61626382068,-187500.02235174447,1072.97314083256,-187500.02235174447,-187500.02235174447,-187500.02235174447,-187500.02235174447,-187500.02235174447,1730328779.932978,1730328779.31433,4000
-28208.214427019888,-187500.02235174447,1034.8410647918065,-187500.02235174447,-187500.02235174447,-187500.02235174447,-187500.02235174447,-187500.02235174447,1730328779.9360487,1730328779.31433,4000
-28271.805139995235,-187500.02235174447,1027.3308786548232,-187500.02235174447,-187500.02235174447,-187500.02235174447,-187500.02235174447,-187500.02235174447,1730328779.940014,1730328779.31433,4000
-28493.087410102777,-187500.02235174447,1007.9072127231614,-187500.02235174447,-187500.02235174447,-187500.02235174447,-187500.02235174447,-187500.02235174447,1730328779.94414,1730328779.31433,4000
-28405.73679277144,-187500.02235174447,1049.3473469433006,-187500.02235174447,-187500.02235174447,-187500.02235174447,-187500.02235174447,-187500.02235174447,1730328779.9478953,1730328779.31433,4000
-28347.532850209816,-187500.02235174447,1166.8281158003947,-187500.02235174447,-187500.02235174447,-187500.02235174447,-187500.02235174447,-187500.02235174447,1730328779.952066,1730328779.31433,4000
-28376.7465802129,-187500.02235174447,1148.9020167472383,-187500.02235174447,-187500.02235174447,-187500.02235174447,-187500.02235174447,-187500.02235174447,1730328779.9571176,1730328779.31433,4000
-28331.484297690906,-187500.02235174447,1011.304677880368,-187500.02235174447,-187500.02235174447,-187500.02235174447,-187500.02235174447,-187500.02235174447,1730328779.960137,1730328779.31433,4000
-28387.453065807,-187500.02235174447,1072.1908297766245,-187500.02235174447,-187500.02235174447,-187500.02235174447,-187500.02235174447,-187500.02235174447,1730328779.9639783,1730328779.31433,4000
-28195.786857102736,-187500.02235174447,1166.783412311484,-187500.02235174447,-187500.02235174447,-187500.02235174447,-187500.02235174447,-187500.02235174447,1730328779.9680717,1730328779.31433,4000
-28351.42205374504,-187500.02235174447,1103.729141203063,-187500.02235174447,-187500.02235174447,-187500.02235174447,-187500.02235174447,-187500.02235174447,1730328779.9719243,1730328779.31433,4000
-28364.11784459565,-187500.02235174447,1053.0353847784263,-187500.02235174447,-187500.02235174447,-187500.02235174447,-187500.02235174447,-187500.02235174447,1730328779.9761777,1730328779.31433,4000
-28423.14880170212,-187500.02235174447,1067.564018674376,-187500.02235174447,-187500.02235174447,-187500.02235174447,-187500.02235174447,-187500.02235174447,1730328779.9799757,1730328779.31433,4000
-28552.05131197588,-187500.02235174447,1059.5173906704654,-187500.02235174447,-187500.02235174447,-187500.02235174447,-187500.02235174447,-187500.02235174447,1730328779.9850368,1730328779.31433,4000
-28427.19446744853,-187500.02235174447,1045.8381230638174,-187500.02235174447,-187500.02235174447,-187500.02235174447,-187500.02235174447,-187500.02235174447,1730328779.9881823,1730328779.31433,4000
-28209.53317994275,-187500.02235174447,1054.242378979013,-187500.02235174447,-187500.02235174447,-187500.02235174447,-187500.02235174447,-187500.02235174447,1730328779.992062,1730328779.31433,4000
-28167.981287000333,-187500.02235174447,1076.012978078482,-187500.02235174447,-187500.02235174447,-187500.02235174447,-187500.02235174447,-187500.02235174447,1730328779.996048,1730328779.31433,4000
-28306.49504738987,-187500.02235174447,1184.1507177532576,-187500.02235174447,-187500.02235174447,-187500.02235174447,-187500.02235174447,-187500.02235174447,1730328780.0000713,1730328779.31433,4000
-28213.221217777875,-187500.02235174447,1214.035000090003,-187500.02235174447,-187500.02235174447,-187500.02235174447,-187500.02235174447,-187500.02235174447,1730328780.0042071,1730328779.31433,4000
-28290.535901848783,-187500.02235174447,1094.0284841094594,-187500.02235174447,-187500.02235174447,-187500.02235174447,-187500.02235174447,-187500.02235174447,1730328780.0081124,1730328779.31433,4000
-28267.33479110417,-187500.02235174447,1067.0052250629933,-187500.02235174447,-187500.02235174447,-187500.02235174447,-187500.02235174447,-187500.02235174447,1730328780.0130928,1730328779.31433,4000
-28249.945133917947,-187500.02235174447,1125.4773885580764,-187500.02235174447,-187500.02235174447,-187500.02235174447,-187500.02235174447,-187500.02235174447,1730328780.0161092,1730328779.31433,4000
-28290.334736148685,-187500.02235174447,1147.6726708021963,-187500.02235174447,-187500.02235174447,-187500.02235174447,-187500.02235174447,-187500.02235174447,1730328780.0200987,1730328779.31433,4000
-28130.1397836375,-187500.02235174447,1103.88560341425,-187500.02235174447,-187500.02235174447,-187500.02235174447,-187500.02235174447,-187500.02235174447,1730328780.0240448,1730328779.31433,4000
-28119.142725365487,-187500.02235174447,1115.1508826197246,-187500.02235174447,-187500.02235174447,-187500.02235174447,-187500.02235174447,-187500.02235174447,1730328780.0280445,1730328779.31433,4000
-28062.45870142683,-187500.02235174447,1142.531769577476,-187500.02235174447,-187500.02235174447,-187500.02235174447,-187500.02235174447,-187500.02235174447,1730328780.0321553,1730328779.31433,4000
-27921.73211833622,-187500.02235174447,1175.8582205603386,-187500.02235174447,-187500.02235174447,-187500.02235174447,-187500.02235174447,-187500.02235174447,1730328780.0361924,1730328779.31433,4000
-28118.00278639827,-187500.02235174447,1135.334507862867,-187500.02235174447,-187500.02235174447,-187500.02235174447,-187500.02235174447,-187500.02235174447,1730328780.0412033,1730328779.31433,4000
-28361.100359094187,-187500.02235174447,1137.0555921859257,-187500.02235174447,-187500.02235174447,-187500.02235174447,-187500.02235174447,-187500.02235174447,1730328780.0441816,1730328779.31433,4000
-28270.017000438813,-187500.02235174447,1249.3060528404776,-187500.02235174447,-187500.02235174447,-187500.02235174447,-187500.02235174447,-187500.02235174447,1730328780.0471144,1730328779.31433,4000
-28276.4766545864,-187500.02235174447,1133.009926439515,-187500.02235174447,-187500.02235174447,-187500.02235174447,-187500.02235174447,-187500.02235174447,1730328780.052317,1730328779.31433,4000
-28296.257948429346,-187500.02235174447,1053.750640600996,-187500.02235174447,-187500.02235174447,-187500.02235174447,-187500.02235174447,-187500.02235174447,1730328780.0566845,1730328779.31433,4000
-28200.883054838545,-187500.02235174447,1071.721443143063,-187500.02235174447,-187500.02235174447,-187500.02235174447,-187500.02235174447,-187500.02235174447,1730328780.0600765,1730328779.31433,4000
-28042.945628517347,-187500.02235174447,1116.112007631303,-187500.02235174447,-187500.02235174447,-187500.02235174447,-187500.02235174447,-187500.02235174447,1730328780.064105,1730328779.31433,4000
-27933.265618475158,-187500.02235174447,1184.7095113646403,-187500.02235174447,-187500.02235174447,-187500.02235174447,-187500.02235174447,-187500.02235174447,1730328780.0681863,1730328779.31433,4000
-28038.94466625985,-187500.02235174447,1125.8126647249062,-187500.02235174447,-187500.02235174447,-187500.02235174447,-187500.02235174447,-187500.02235174447,1730328780.0721157,1730328779.31433,4000
-28298.89545427507,-187500.02235174447,1082.6737979261634,-187500.02235174447,-187500.02235174447,-187500.02235174447,-187500.02235174447,-187500.02235174447,1730328780.0751605,1730328779.31433,4000
-28211.72365089937,-187500.02235174447,1179.3450926953665,-187500.02235174447,-187500.02235174447,-187500.02235174447,-187500.02235174447,-187500.02235174447,1730328780.0801246,1730328779.31433,4000
-28177.57018537166,-187500.02235174447,1218.6171077033412,-187500.02235174447,-187500.02235174447,-187500.02235174447,-187500.02235174447,-187500.02235174447,1730328780.0841792,1730328779.31433,4000
-28067.39843695145,-187500.02235174447,1141.9953277105485,-187500.02235174447,-187500.02235174447,-187500.02235174447,-187500.02235174447,-187500.02235174447,1730328780.0881865,1730328779.31433,4000
-28256.58360202117,-187500.02235174447,1028.4708176220438,-187500.02235174447,-187500.02235174447,-187500.02235174447,-187500.02235174447,-187500.02235174447,1730328780.092265,1730328779.31433,4000
-28256.49419504335,-187500.02235174447,1006.3649423557453,-187500.02235174447,-187500.02235174447,-187500.02235174447,-187500.02235174447,-187500.02235174447,1730328780.096249,1730328779.31433,4000
-27900.98969948169,-187500.02235174447,1095.7048649436076,-187500.02235174447,-187500.02235174447,-187500.02235174447,-187500.02235174447,-187500.02235174447,1730328780.0994115,1730328779.31433,4000
-28198.96080481539,-187500.02235174447,1165.2187901996124,-187500.02235174447,-187500.02235174447,-187500.02235174447,-187500.02235174447,-187500.02235174447,1730328780.1033764,1730328779.31433,4000
-28308.79727706877,-187500.02235174447,1112.915708174194,-187500.02235174447,-187500.02235174447,-187500.02235174447,-187500.02235174447,-187500.02235174447,1730328780.1083803,1730328779.31433,4000
-28218.49622946933,-187500.02235174447,1113.8097779524062,-187500.02235174447,-187500.02235174447,-187500.02235174447,-187500.02235174447,-187500.02235174447,1730328780.1123734,1730328779.31433,4000
-28155.06197870517,-187500.02235174447,1182.0496537744586,-187500.02235174447,-187500.02235174447,-187500.02235174447,-187500.02235174447,-187500.02235174447,1730328780.1164002,1730328779.31433,4000
-27887.869225486425,-187500.02235174447,1194.8348516028943,-187500.02235174447,-187500.02235174447,-187500.02235174447,-187500.02235174447,-187500.02235174447,1730328780.1204033,1730328779.31433,4000
-27942.139261023916,-187500.02235174447,1129.2324816265682,-187500.02235174447,-187500.02235174447,-187500.02235174447,-187500.02235174447,-187500.02235174447,1730328780.123356,1730328779.31433,4000
-28142.25442913228,-187500.02235174447,1115.195586108635,-187500.02235174447,-187500.02235174447,-187500.02235174447,-187500.02235174447,-187500.02235174447,1730328780.127433,1730328779.31433,4000
-28261.344523590156,-187500.02235174447,1122.8622344568057,-187500.02235174447,-187500.02235174447,-187500.02235174447,-187500.02235174447,-187500.02235174447,1730328780.1312563,1730328779.31433,4000
-28075.735637633283,-187500.02235174447,1157.0604034734254,-187500.02235174447,-187500.02235174447,-187500.02235174447,-187500.02235174447,-187500.02235174447,1730328780.135466,1730328779.31433,4000
-28197.262072236783,-187500.02235174447,1115.620269253286,-187500.02235174447,-187500.02235174447,-187500.02235174447,-187500.02235174447,-187500.02235174447,1730328780.140417,1730328779.31433,4000
-28487.991212366967,-187500.02235174447,1048.92266379865,-187500.02235174447,-187500.02235174447,-187500.02235174447,-187500.02235174447,-187500.02235174447,1730328780.1444352,1730328779.31433,4000
-28227.481630740363,-187500.02235174447,1184.173069497713,-187500.02235174447,-187500.02235174447,-187500.02235174447,-187500.02235174447,-187500.02235174447,1730328780.148504,1730328779.31433,4000
-28081.65884991394,-187500.02235174447,1212.224508789123,-187500.02235174447,-187500.02235174447,-187500.02235174447,-187500.02235174447,-187500.02235174447,1730328780.151427,1730328779.31433,4000
-28125.647083001983,-187500.02235174447,1182.0273020300033,-187500.02235174447,-187500.02235174447,-187500.02235174447,-187500.02235174447,-187500.02235174447,1730328780.1552987,1730328779.31433,4000
-28232.466069753897,-187500.02235174447,1108.9370976611492,-187500.02235174447,-187500.02235174447,-187500.02235174447,-187500.02235174447,-187500.02235174447,1730328780.1595376,1730328779.31433,4000
-28110.04556537218,-187500.02235174447,1076.9741030900602,-187500.02235174447,-187500.02235174447,-187500.02235174447,-187500.02235174447,-187500.02235174447,1730328780.1632707,1730328779.31433,4000
-27721.88517116132,-187500.02235174447,1134.6639555292077,-187500.02235174447,-187500.02235174447,-187500.02235174447,-187500.02235174447,-187500.02235174447,1730328780.168389,1730328779.31433,4000
-27887.57865280851,-187500.02235174447,1233.8609974218605,-187500.02235174447,-187500.02235174447,-187500.02235174447,-187500.02235174447,-187500.02235174447,1730328780.172357,1730328779.31433,4000
-28621.22996106505,-187500.02235174447,1049.5038091544875,-187500.02235174447,-187500.02235174447,-187500.02235174447,-187500.02235174447,-187500.02235174447,1730328780.1765745,1730328779.31433,4000
-28444.919400801587,-187500.02235174447,1095.1013678433142,-187500.02235174447,-187500.02235174447,-187500.02235174447,-187500.02235174447,-187500.02235174447,1730328780.1794994,1730328779.31433,4000
-28207.901502597517,-187500.02235174447,1189.1575085112463,-187500.02235174447,-187500.02235174447,-187500.02235174447,-187500.02235174447,-187500.02235174447,1730328780.1834924,1730328779.31433,4000
-28209.376717731564,-187500.02235174447,1142.2635486440122,-187500.02235174447,-187500.02235174447,-187500.02235174447,-187500.02235174447,-187500.02235174447,1730328780.187516,1730328779.31433,4000
-28140.86862097605,-187500.02235174447,1070.559152431387,-187500.02235174447,-187500.02235174447,-187500.02235174447,-187500.02235174447,-187500.02235174447,1730328780.1914186,1730328779.31433,4000
-28191.607080889597,-187500.02235174447,1105.2267080815684,-187500.02235174447,-187500.02235174447,-187500.02235174447,-187500.02235174447,-187500.02235174447,1730328780.196462,1730328779.31433,4000
-28238.16576459,-187500.02235174447,1176.394662427266,-187500.02235174447,-187500.02235174447,-187500.02235174447,-187500.02235174447,-187500.02235174447,1730328780.2004914,1730328779.31433,4000
-28177.525481882756,-187500.02235174447,1168.906828034738,-187500.02235174447,-187500.02235174447,-187500.02235174447,-187500.02235174447,-187500.02235174447,1730328780.2044976,1730328779.31433,4000
-28201.352441472107,-187500.02235174447,1102.1198156022806,-187500.02235174447,-187500.02235174447,-187500.02235174447,-187500.02235174447,-187500.02235174447,1730328780.207543,1730328779.31433,4000
-28319.615521385134,-187500.02235174447,1100.3540277903114,-187500.02235174447,-187500.02235174447,-187500.02235174447,-187500.02235174447,-187500.02235174447,1730328780.2117257,1730328779.31433,4000
-28258.461148555416,-187500.02235174447,1144.2528539005343,-187500.02235174447,-187500.02235174447,-187500.02235174447,-187500.02235174447,-187500.02235174447,1730328780.2153358,1730328779.31433,4000
-28141.159193653966,-187500.02235174447,1151.5395225929649,-187500.02235174447,-187500.02235174447,-187500.02235174447,-187500.02235174447,-187500.02235174447,1730328780.2196555,1730328779.31433,4000
-28129.648045259484,-187500.02235174447,1086.8312223948506,-187500.02235174447,-187500.02235174447,-187500.02235174447,-187500.02235174447,-187500.02235174447,1730328780.2233913,1730328779.31433,4000
-28321.04603303028,-187500.02235174447,1127.623156025786,-187500.02235174447,-187500.02235174447,-187500.02235174447,-187500.02235174447,-187500.02235174447,1730328780.2285712,1730328779.31433,4000
-28215.098764312123,-187500.02235174447,1162.9389122651712,-187500.02235174447,-187500.02235174447,-187500.02235174447,-187500.02235174447,-187500.02235174447,1730328780.2316797,1730328779.31433,4000
-28247.821718194693,-187500.02235174447,1182.228467730101,-187500.02235174447,-187500.02235174447,-187500.02235174447,-187500.02235174447,-187500.02235174447,1730328780.2356143,1730328779.31433,4000
-28378.31120232477,-187500.02235174447,1143.6717085446965,-187500.02235174447,-187500.02235174447,-187500.02235174447,-187500.02235174447,-187500.02235174447,1730328780.2394383,1730328779.31433,4000
-28230.409709264008,-187500.02235174447,1102.6339057247528,-187500.02235174447,-187500.02235174447,-187500.02235174447,-187500.02235174447,-187500.02235174447,1730328780.243604,1730328779.31433,4000
-28076.160320777934,-187500.02235174447,1097.8282806668617,-187500.02235174447,-187500.02235174447,-187500.02235174447,-187500.02235174447,-187500.02235174447,1730328780.2474256,1730328779.31433,4000
-28200.212502504888,-187500.02235174447,1171.7231478361068,-187500.02235174447,-187500.02235174447,-187500.02235174447,-187500.02235174447,-187500.02235174447,1730328780.2515576,1730328779.31433,4000
-28093.304108775155,-187500.02235174447,1177.1769734832017,-187500.02235174447,-187500.02235174447,-187500.02235174447,-187500.02235174447,-187500.02235174447,1730328780.2566922,1730328779.31433,4000
-28226.54285747324,-187500.02235174447,1110.5240715174762,-187500.02235174447,-187500.02235174447,-187500.02235174447,-187500.02235174447,-187500.02235174447,1730328780.2595804,1730328779.31433,4000
-28439.353816432216,-187500.02235174447,1107.372475549278,-187500.02235174447,-187500.02235174447,-187500.02235174447,-187500.02235174447,-187500.02235174447,1730328780.2635088,1730328779.31433,4000
-28486.49364548846,-187500.02235174447,1228.809503174961,-187500.02235174447,-187500.02235174447,-187500.02235174447,-187500.02235174447,-187500.02235174447,1730328780.2677,1730328779.31433,4000
-28366.934164397026,-187500.02235174447,1223.9591746281594,-187500.02235174447,-187500.02235174447,-187500.02235174447,-187500.02235174447,-187500.02235174447,1730328780.271686,1730328779.31433,4000
-28318.07325101772,-187500.02235174447,1117.7436849765402,-187500.02235174447,-187500.02235174447,-187500.02235174447,-187500.02235174447,-187500.02235174447,1730328780.275648,1730328779.31433,4000
-28314.13934399359,-187500.02235174447,1092.5756207198644,-187500.02235174447,-187500.02235174447,-187500.02235174447,-187500.02235174447,-187500.02235174447,1730328780.279665,1730328779.31433,4000
-28314.49697190487,-187500.02235174447,1100.3540277903114,-187500.02235174447,-187500.02235174447,-187500.02235174447,-187500.02235174447,-187500.02235174447,1730328780.2846713,1730328779.31433,4000
-28256.98593342137,-187500.02235174447,1162.4248221426992,-187500.02235174447,-187500.02235174447,-187500.02235174447,-187500.02235174447,-187500.02235174447,1730328780.287668,1730328779.31433,4000
-28217.199828290923,-187500.02235174447,1119.9565076776155,-187500.02235174447,-187500.02235174447,-187500.02235174447,-187500.02235174447,-187500.02235174447,1730328780.291667,1730328779.31433,4000
-28121.46730678884,-187500.02235174447,1100.331676045856,-187500.02235174447,-187500.02235174447,-187500.02235174447,-187500.02235174447,-187500.02235174447,1730328780.2957137,1730328779.31433,4000
-28346.348207753686,-187500.02235174447,1172.3713484253108,-187500.02235174447,-187500.02235174447,-187500.02235174447,-187500.02235174447,-187500.02235174447,1730328780.299778,1730328779.31433,4000
-28259.33286658917,-187500.02235174447,1191.2585724900453,-187500.02235174447,-187500.02235174447,-187500.02235174447,-187500.02235174447,-187500.02235174447,1730328780.3036013,1730328779.31433,4000
-28123.88129519001,-187500.02235174447,1182.1614124967352,-187500.02235174447,-187500.02235174447,-187500.02235174447,-187500.02235174447,-187500.02235174447,1730328780.3077257,1730328779.31433,4000
-28306.36093692314,-187500.02235174447,1089.3569695183005,-187500.02235174447,-187500.02235174447,-187500.02235174447,-187500.02235174447,-187500.02235174447,1730328780.311654,1730328779.31433,4000
-28480.34691576325,-187500.02235174447,1111.1275686177694,-187500.02235174447,-187500.02235174447,-187500.02235174447,-187500.02235174447,-187500.02235174447,1730328780.314628,1730328779.31433,4000
-28342.168431540544,-187500.02235174447,1162.8271535428946,-187500.02235174447,-187500.02235174447,-187500.02235174447,-187500.02235174447,-187500.02235174447,1730328780.3197165,1730328779.31433,4000
-28209.51082819829,-187500.02235174447,1091.88271664175,-187500.02235174447,-187500.02235174447,-187500.02235174447,-187500.02235174447,-187500.02235174447,1730328780.3237655,1730328779.31433,4000
-28308.57375962421,-187500.02235174447,1116.1790628646688,-187500.02235174447,-187500.02235174447,-187500.02235174447,-187500.02235174447,-187500.02235174447,1730328780.327644,1730328779.31433,4000
-28237.048177367236,-187500.02235174447,1160.457868630632,-187500.02235174447,-187500.02235174447,-187500.02235174447,-187500.02235174447,-187500.02235174447,1730328780.3317392,1730328779.31433,4000
-28241.89850591404,-187500.02235174447,1220.360543770855,-187500.02235174447,-187500.02235174447,-187500.02235174447,-187500.02235174447,-187500.02235174447,1730328780.335737,1730328779.31433,4000
-28342.10137630717,-187500.02235174447,1195.2148312586346,-187500.02235174447,-187500.02235174447,-187500.02235174447,-187500.02235174447,-187500.02235174447,1730328780.3397465,1730328779.31433,4000
-28392.884539709637,-187500.02235174447,1077.152917045703,-187500.02235174447,-187500.02235174447,-187500.02235174447,-187500.02235174447,-187500.02235174447,1730328780.3427117,1730328779.31433,4000
-28386.156664628583,-187500.02235174447,1143.3140806334115,-187500.02235174447,-187500.02235174447,-187500.02235174447,-187500.02235174447,-187500.02235174447,1730328780.346548,1730328779.31433,4000
-28283.472750600908,-187500.02235174447,1217.723037925129,-187500.02235174447,-187500.02235174447,-187500.02235174447,-187500.02235174447,-187500.02235174447,1730328780.3517368,1730328779.31433,4000
-28240.467994268896,-187500.02235174447,1204.8260813744166,-187500.02235174447,-187500.02235174447,-187500.02235174447,-187500.02235174447,-187500.02235174447,1730328780.35559,1730328779.31433,4000
-28288.814817525723,-187500.02235174447,1069.5086204419877,-187500.02235174447,-187500.02235174447,-187500.02235174447,-187500.02235174447,-187500.02235174447,1730328780.3598182,1730328779.31433,4000
-28275.2249568969,-187500.02235174447,1070.0674140533704,-187500.02235174447,-187500.02235174447,-187500.02235174447,-187500.02235174447,-187500.02235174447,1730328780.363562,1730328779.31433,4000
-28216.998662590824,-187500.02235174447,1174.7629850820283,-187500.02235174447,-187500.02235174447,-187500.02235174447,-187500.02235174447,-187500.02235174447,1730328780.3678596,1730328779.31433,4000
-28277.3260208757,-187500.02235174447,1191.5044416790536,-187500.02235174447,-187500.02235174447,-187500.02235174447,-187500.02235174447,-187500.02235174447,1730328780.3708289,1730328779.31433,4000
-28374.93608891202,-187500.02235174447,1144.8787027452831,-187500.02235174447,-187500.02235174447,-187500.02235174447,-187500.02235174447,-187500.02235174447,1730328780.374816,1730328779.31433,4000
-28362.150891083587,-187500.02235174447,1146.756249279529,-187500.02235174447,-187500.02235174447,-187500.02235174447,-187500.02235174447,-187500.02235174447,1730328780.3796694,1730328779.31433,4000
-28390.157626886088,-187500.02235174447,1208.5811744429082,-187500.02235174447,-187500.02235174447,-187500.02235174447,-187500.02235174447,-187500.02235174447,1730328780.3839135,1730328779.31433,4000
-28255.39895956504,-187500.02235174447,1187.6822933771962,-187500.02235174447,-187500.02235174447,-187500.02235174447,-187500.02235174447,-187500.02235174447,1730328780.3879683,1730328779.31433,4000
-28311.70300384796,-187500.02235174447,1106.6125162377973,-187500.02235174447,-187500.02235174447,-187500.02235174447,-187500.02235174447,-187500.02235174447,1730328780.3918345,1730328779.31433,4000
-28343.15190829657,-187500.02235174447,1131.6911735166518,-187500.02235174447,-187500.02235174447,-187500.02235174447,-187500.02235174447,-187500.02235174447,1730328780.3949382,1730328779.31433,4000
-28333.31714073624,-187500.02235174447,1197.0923777928804,-187500.02235174447,-187500.02235174447,-187500.02235174447,-187500.02235174447,-187500.02235174447,1730328780.3989227,1730328779.31433,4000
-28236.08705235565,-187500.02235174447,1198.589944671386,-187500.02235174447,-187500.02235174447,-187500.02235174447,-187500.02235174447,-187500.02235174447,1730328780.4028895,1730328779.31433,4000
-28174.61975510356,-187500.02235174447,1105.561984248398,-187500.02235174447,-187500.02235174447,-187500.02235174447,-187500.02235174447,-187500.02235174447,1730328780.4068947,1730328779.31433,4000
-28229.336825530158,-187500.02235174447,1139.4695805870988,-187500.02235174447,-187500.02235174447,-187500.02235174447,-187500.02235174447,-187500.02235174447,1730328780.4118452,1730328779.31433,4000
-28498.563587494325,-187500.02235174447,1147.1585806797243,-187500.02235174447,-187500.02235174447,-187500.02235174447,-187500.02235174447,-187500.02235174447,1730328780.4158835,1730328779.31433,4000
-28334.50178319237,-187500.02235174447,1213.0515233339695,-187500.02235174447,-187500.02235174447,-187500.02235174447,-187500.02235174447,-187500.02235174447,1730328780.4198716,1730328779.31433,4000
-28244.08897687065,-187500.02235174447,1135.7144875186073,-187500.02235174447,-187500.02235174447,-187500.02235174447,-187500.02235174447,-187500.02235174447,1730328780.422712,1730328779.31433,4000
-28379.764065714367,-187500.02235174447,1069.0392338084262,-187500.02235174447,-187500.02235174447,-187500.02235174447,-187500.02235174447,-187500.02235174447,1730328780.426689,1730328779.31433,4000
-28408.48605733944,-187500.02235174447,1172.304293191945,-187500.02235174447,-187500.02235174447,-187500.02235174447,-187500.02235174447,-187500.02235174447,1730328780.430768,1730328779.31433,4000
-28288.0772099587,-187500.02235174447,1174.7406333375734,-187500.02235174447,-187500.02235174447,-187500.02235174447,-187500.02235174447,-187500.02235174447,1730328780.4349327,1730328779.31433,4000
-28243.64194198155,-187500.02235174447,1148.231464413579,-187500.02235174447,-187500.02235174447,-187500.02235174447,-187500.02235174447,-187500.02235174447,1730328780.4399433,1730328779.31433,4000
-28383.832083205238,-187500.02235174447,1112.5357285184537,-187500.02235174447,-187500.02235174447,-187500.02235174447,-187500.02235174447,-187500.02235174447,1730328780.4440153,1730328779.31433,4000
-28260.02577066729,-187500.02235174447,1153.2829586604785,-187500.02235174447,-187500.02235174447,-187500.02235174447,-187500.02235174447,-187500.02235174447,1730328780.4467509,1730328779.31433,4000
-28233.650712210027,-187500.02235174447,1269.132050172335,-187500.02235174447,-187500.02235174447,-187500.02235174447,-187500.02235174447,-187500.02235174447,1730328780.450874,1730328779.31433,4000
-28172.317525424663,-187500.02235174447,1221.8804623938158,-187500.02235174447,-187500.02235174447,-187500.02235174447,-187500.02235174447,-187500.02235174447,1730328780.454778,1730328779.31433,4000
-28361.390931772108,-187500.02235174447,1082.8079083928951,-187500.02235174447,-187500.02235174447,-187500.02235174447,-187500.02235174447,-187500.02235174447,1730328780.4587426,1730328779.31433,4000
-28446.573429891283,-187500.02235174447,1064.859457595284,-187500.02235174447,-187500.02235174447,-187500.02235174447,-187500.02235174447,-187500.02235174447,1730328780.4629903,1730328779.31433,4000
-28395.14206589962,-187500.02235174447,1241.4382387922096,-187500.02235174447,-187500.02235174447,-187500.02235174447,-187500.02235174447,-187500.02235174447,1730328780.4683602,1730328779.31433,4000
-28305.489218889383,-187500.02235174447,1244.7015934826843,-187500.02235174447,-187500.02235174447,-187500.02235174447,-187500.02235174447,-187500.02235174447,1730328780.471773,1730328779.31433,4000
-28346.10233856468,-187500.02235174447,1149.170237680702,-187500.02235174447,-187500.02235174447,-187500.02235174447,-187500.02235174447,-187500.02235174447,1730328780.4748783,1730328779.31433,4000
-28303.52226537732,-187500.02235174447,1095.146071332225,-187500.02235174447,-187500.02235174447,-187500.02235174447,-187500.02235174447,-187500.02235174447,1730328780.4787884,1730328779.31433,4000
-28232.890752898547,-187500.02235174447,1186.0506160319587,-187500.02235174447,-187500.02235174447,-187500.02235174447,-187500.02235174447,-187500.02235174447,1730328780.48288,1730328779.31433,4000
-28233.24838080983,-187500.02235174447,1177.601656627853,-187500.02235174447,-187500.02235174447,-187500.02235174447,-187500.02235174447,-187500.02235174447,1730328780.487105,1730328779.31433,4000
-28171.57991785764,-187500.02235174447,1119.3530105773225,-187500.02235174447,-187500.02235174447,-187500.02235174447,-187500.02235174447,-187500.02235174447,1730328780.4908776,1730328779.31433,4000
-28372.075065621742,-187500.02235174447,1197.0476743039696,-187500.02235174447,-187500.02235174447,-187500.02235174447,-187500.02235174447,-187500.02235174447,1730328780.4958673,1730328779.31433,4000
-28469.90865110262,-187500.02235174447,1204.1108255518468,-187500.02235174447,-187500.02235174447,-187500.02235174447,-187500.02235174447,-187500.02235174447,1730328780.5000384,1730328779.31433,4000
-28362.776739928337,-187500.02235174447,1137.7037927751294,-187500.02235174447,-187500.02235174447,-187500.02235174447,-187500.02235174447,-187500.02235174447,1730328780.5031016,1730328779.31433,4000
-28218.78680214725,-187500.02235174447,1129.0536676709255,-187500.02235174447,-187500.02235174447,-187500.02235174447,-187500.02235174447,-187500.02235174447,1730328780.5070543,1730328779.31433,4000
-28247.26292458331,-187500.02235174447,1148.4102783692215,-187500.02235174447,-187500.02235174447,-187500.02235174447,-187500.02235174447,-187500.02235174447,1730328780.510859,1730328779.31433,4000
-28431.173077961572,-187500.02235174447,1189.559839911442,-187500.02235174447,-187500.02235174447,-187500.02235174447,-187500.02235174447,-187500.02235174447,1730328780.5149748,1730328779.31433,4000
-28402.51814156987,-187500.02235174447,1224.2497473060785,-187500.02235174447,-187500.02235174447,-187500.02235174447,-187500.02235174447,-187500.02235174447,1730328780.5190787,1730328779.31433,4000
-28266.418369581508,-187500.02235174447,1167.5433716229643,-187500.02235174447,-187500.02235174447,-187500.02235174447,-187500.02235174447,-187500.02235174447,1730328780.5228348,1730328779.31433,4000
-28313.737012593392,-187500.02235174447,1105.5396325039426,-187500.02235174447,-187500.02235174447,-187500.02235174447,-187500.02235174447,-187500.02235174447,1730328780.5280623,1730328779.31433,4000
-28362.530870739327,-187500.02235174447,1146.7338975350735,-187500.02235174447,-187500.02235174447,-187500.02235174447,-187500.02235174447,-187500.02235174447,1730328780.5308714,1730328779.31433,4000
-28270.50873881683,-187500.02235174447,1146.7786010239845,-187500.02235174447,-187500.02235174447,-187500.02235174447,-187500.02235174447,-187500.02235174447,1730328780.5351396,1730328779.31433,4000
-28336.89341984909,-187500.02235174447,1095.7942719214288,-187500.02235174447,-187500.02235174447,-187500.02235174447,-187500.02235174447,-187500.02235174447,1730328780.5388913,1730328779.31433,4000
-28338.234524516407,-187500.02235174447,1175.433537415688,-187500.02235174447,-187500.02235174447,-187500.02235174447,-187500.02235174447,-187500.02235174447,1730328780.5431364,1730328779.31433,4000
-28195.183360002444,-187500.02235174447,1218.0583140919584,-187500.02235174447,-187500.02235174447,-187500.02235174447,-187500.02235174447,-187500.02235174447,1730328780.546966,1730328779.31433,4000
-28269.614669038616,-187500.02235174447,1224.7861891730058,-187500.02235174447,-187500.02235174447,-187500.02235174447,-187500.02235174447,-187500.02235174447,1730328780.55211,1730328779.31433,4000
-28342.01196932936,-187500.02235174447,1200.4227877167211,-187500.02235174447,-187500.02235174447,-187500.02235174447,-187500.02235174447,-187500.02235174447,1730328780.5549014,1730328779.31433,4000
-28407.10024918321,-187500.02235174447,1106.366647048789,-187500.02235174447,-187500.02235174447,-187500.02235174447,-187500.02235174447,-187500.02235174447,1730328780.5580893,1730328779.31433,4000
-28348.20340254348,-187500.02235174447,1088.306437528901,-187500.02235174447,-187500.02235174447,-187500.02235174447,-187500.02235174447,-187500.02235174447,1730328780.562982,1730328779.31433,4000
-28178.397199916508,-187500.02235174447,1178.8533543173498,-187500.02235174447,-187500.02235174447,-187500.02235174447,-187500.02235174447,-187500.02235174447,1730328780.5670924,1730328779.31433,4000
-28107.69863220437,-187500.02235174447,1267.2992071269998,-187500.02235174447,-187500.02235174447,-187500.02235174447,-187500.02235174447,-187500.02235174447,1730328780.5709243,1730328779.31433,4000
-28440.67256935508,-187500.02235174447,1149.9078452477272,-187500.02235174447,-187500.02235174447,-187500.02235174447,-187500.02235174447,-187500.02235174447,1730328780.5751271,1730328779.31433,4000
-28456.67641838508,-187500.02235174447,1109.6076499948083,-187500.02235174447,-187500.02235174447,-187500.02235174447,-187500.02235174447,-187500.02235174447,1730328780.5791605,1730328779.31433,4000
-28298.470771130415,-187500.02235174447,1206.0554273194584,-187500.02235174447,-187500.02235174447,-187500.02235174447,-187500.02235174447,-187500.02235174447,1730328780.58315,1730328779.31433,4000
-28166.930755010937,-187500.02235174447,1241.5052940255755,-187500.02235174447,-187500.02235174447,-187500.02235174447,-187500.02235174447,-187500.02235174447,1730328780.586191,1730328779.31433,4000
-28267.89358471556,-187500.02235174447,1146.689194046163,-187500.02235174447,-187500.02235174447,-187500.02235174447,-187500.02235174447,-187500.02235174447,1730328780.5911553,1730328779.31433,4000
-28422.455897624004,-187500.02235174447,1116.7378564760515,-187500.02235174447,-187500.02235174447,-187500.02235174447,-187500.02235174447,-187500.02235174447,1730328780.5951393,1730328779.31433,4000
-28386.983679173434,-187500.02235174447,1147.6056155688304,-187500.02235174447,-187500.02235174447,-187500.02235174447,-187500.02235174447,-187500.02235174447,1730328780.5991316,1730328779.31433,4000
-28259.556384033727,-187500.02235174447,1200.0428080609809,-187500.02235174447,-187500.02235174447,-187500.02235174447,-187500.02235174447,-187500.02235174447,1730328780.603099,1730328779.31433,4000
-28222.519543471284,-187500.02235174447,1128.494874059543,-187500.02235174447,-187500.02235174447,-187500.02235174447,-187500.02235174447,-187500.02235174447,1730328780.6081476,1730328779.31433,4000
-28248.648732739537,-187500.02235174447,1119.978859422071,-187500.02235174447,-187500.02235174447,-187500.02235174447,-187500.02235174447,-187500.02235174447,1730328780.611319,1730328779.31433,4000
-28428.557923860302,-187500.02235174447,1187.8834590772938,-187500.02235174447,-187500.02235174447,-187500.02235174447,-187500.02235174447,-187500.02235174447,1730328780.6139855,1730328779.31433,4000
-28323.12474526462,-187500.02235174447,1212.3809710003104,-187500.02235174447,-187500.02235174447,-187500.02235174447,-187500.02235174447,-187500.02235174447,1730328780.6190336,1730328779.31433,4000
-28276.9236894755,-187500.02235174447,1153.394717382755,-187500.02235174447,-187500.02235174447,-187500.02235174447,-187500.02235174447,-187500.02235174447,1730328780.6231225,1730328779.31433,4000
-28336.580495426715,-187500.02235174447,1088.4181962511775,-187500.02235174447,-187500.02235174447,-187500.02235174447,-187500.02235174447,-187500.02235174447,1730328780.6272488,1730328779.31433,4000
-28395.83496997773,-187500.02235174447,1166.1575634667354,-187500.02235174447,-187500.02235174447,-187500.02235174447,-187500.02235174447,-187500.02235174447,1730328780.6310728,1730328779.31433,4000
-28335.2393907594,-187500.02235174447,1263.8793902253378,-187500.02235174447,-187500.02235174447,-187500.02235174447,-187500.02235174447,-187500.02235174447,1730328780.63503,1730328779.31433,4000
-28209.48847645384,-187500.02235174447,1208.4694157206316,-187500.02235174447,-187500.02235174447,-187500.02235174447,-187500.02235174447,-187500.02235174447,1730328780.639108,1730328779.31433,4000
-28265.948982947943,-187500.02235174447,1139.9613189651154,-187500.02235174447,-187500.02235174447,-187500.02235174447,-187500.02235174447,-187500.02235174447,1730328780.6421692,1730328779.31433,4000
-28352.785510156813,-187500.02235174447,1154.7805255389842,-187500.02235174447,-187500.02235174447,-187500.02235174447,-187500.02235174447,-187500.02235174447,1730328780.646314,1730328779.31433,4000
-28340.13442279511,-187500.02235174447,1164.302368676945,-187500.02235174447,-187500.02235174447,-187500.02235174447,-187500.02235174447,-187500.02235174447,1730328780.6512249,1730328779.31433,4000
-28328.578570911715,-187500.02235174447,1167.6327786007855,-187500.02235174447,-187500.02235174447,-187500.02235174447,-187500.02235174447,-187500.02235174447,1730328780.6550975,1730328779.31433,4000
-28381.23928084842,-187500.02235174447,1130.5735862938866,-187500.02235174447,-187500.02235174447,-187500.02235174447,-187500.02235174447,-187500.02235174447,1730328780.6593816,1730328779.31433,4000
-28357.680542192527,-187500.02235174447,1137.2120543971128,-187500.02235174447,-187500.02235174447,-187500.02235174447,-187500.02235174447,-187500.02235174447,1730328780.662351,1730328779.31433,4000
-28164.40500788749,-187500.02235174447,1235.5150265115533,-187500.02235174447,-187500.02235174447,-187500.02235174447,-187500.02235174447,-187500.02235174447,1730328780.66613,1730328779.31433,4000
-28297.241425185377,-187500.02235174447,1223.6686019502404,-187500.02235174447,-187500.02235174447,-187500.02235174447,-187500.02235174447,-187500.02235174447,1730328780.6702702,1730328779.31433,4000
-28318.94496905148,-187500.02235174447,1122.594013523342,-187500.02235174447,-187500.02235174447,-187500.02235174447,-187500.02235174447,-187500.02235174447,1730328780.6744003,1730328779.31433,4000
-28340.022664072832,-187500.02235174447,1130.0371444269592,-187500.02235174447,-187500.02235174447,-187500.02235174447,-187500.02235174447,-187500.02235174447,1730328780.6793697,1730328779.31433,4000
-28234.34361628814,-187500.02235174447,1211.911584366749,-187500.02235174447,-187500.02235174447,-187500.02235174447,-187500.02235174447,-187500.02235174447,1730328780.6833909,1730328779.31433,4000
-28239.328055301678,-187500.02235174447,1200.3110289944443,-187500.02235174447,-187500.02235174447,-187500.02235174447,-187500.02235174447,-187500.02235174447,1730328780.687379,1730328779.31433,4000
-28342.01196932936,-187500.02235174447,1113.0274668964703,-187500.02235174447,-187500.02235174447,-187500.02235174447,-187500.02235174447,-187500.02235174447,1730328780.690384,1730328779.31433,4000
-28397.220778133964,-187500.02235174447,1087.3900160062333,-187500.02235174447,-187500.02235174447,-187500.02235174447,-187500.02235174447,-187500.02235174447,1730328780.694394,1730328779.31433,4000
-28309.959567780446,-187500.02235174447,1193.0690637909252,-187500.02235174447,-187500.02235174447,-187500.02235174447,-187500.02235174447,-187500.02235174447,1730328780.6983435,1730328779.31433,4000
-28276.342544119663,-187500.02235174447,1208.782340143006,-187500.02235174447,-187500.02235174447,-187500.02235174447,-187500.02235174447,-187500.02235174447,1730328780.7023327,1730328779.31433,4000
-28336.625198915623,-187500.02235174447,1205.7872063859948,-187500.02235174447,-187500.02235174447,-187500.02235174447,-187500.02235174447,-187500.02235174447,1730328780.707384,1730328779.31433,4000
-28312.150038737065,-187500.02235174447,1155.8981127617494,-187500.02235174447,-187500.02235174447,-187500.02235174447,-187500.02235174447,-187500.02235174447,1730328780.7114408,1730328779.31433,4000
-28300.013041497838,-187500.02235174447,1179.970941540115,-187500.02235174447,-187500.02235174447,-187500.02235174447,-187500.02235174447,-187500.02235174447,1730328780.715386,1730328779.31433,4000
-28288.0772099587,-187500.02235174447,1220.6064129598633,-187500.02235174447,-187500.02235174447,-187500.02235174447,-187500.02235174447,-187500.02235174447,1730328780.7184708,1730328779.31433,4000
-28253.87904094208,-187500.02235174447,1178.1828019836903,-187500.02235174447,-187500.02235174447,-187500.02235174447,-187500.02235174447,-187500.02235174447,1730328780.722198,1730328779.31433,4000
-28405.96031021599,-187500.02235174447,1126.9302519476714,-187500.02235174447,-187500.02235174447,-187500.02235174447,-187500.02235174447,-187500.02235174447,1730328780.726371,1730328779.31433,4000
-28307.94791077947,-187500.02235174447,1122.1246268897803,-187500.02235174447,-187500.02235174447,-187500.02235174447,-187500.02235174447,-187500.02235174447,1730328780.7302015,1730328779.31433,4000
-28340.84967861768,-187500.02235174447,1223.5121397390533,-187500.02235174447,-187500.02235174447,-187500.02235174447,-187500.02235174447,-187500.02235174447,1730328780.7344327,1730328779.31433,4000
-28248.44756703944,-187500.02235174447,1242.1534946147794,-187500.02235174447,-187500.02235174447,-187500.02235174447,-187500.02235174447,-187500.02235174447,1730328780.7392106,1730328779.31433,4000
-28246.07828212718,-187500.02235174447,1083.590219448831,-187500.02235174447,-187500.02235174447,-187500.02235174447,-187500.02235174447,-187500.02235174447,1730328780.7434545,1730328779.31433,4000
-28337.69808264948,-187500.02235174447,1139.3578218648222,-187500.02235174447,-187500.02235174447,-187500.02235174447,-187500.02235174447,-187500.02235174447,1730328780.7462573,1730328779.31433,4000
-28385.66492625057,-187500.02235174447,1236.6326137343185,-187500.02235174447,-187500.02235174447,-187500.02235174447,-187500.02235174447,-187500.02235174447,1730328780.750434,1730328779.31433,4000
-28275.13554991908,-187500.02235174447,1174.8523920598498,-187500.02235174447,-187500.02235174447,-187500.02235174447,-187500.02235174447,-187500.02235174447,1730328780.754421,1730328779.31433,4000
-28305.51157063384,-187500.02235174447,1060.3444052153118,-187500.02235174447,-187500.02235174447,-187500.02235174447,-187500.02235174447,-187500.02235174447,1730328780.7583635,1730328779.31433,4000
-28312.41825967053,-187500.02235174447,1081.6456176812194,-187500.02235174447,-187500.02235174447,-187500.02235174447,-187500.02235174447,-187500.02235174447,1730328780.7623131,1730328779.31433,4000
-28238.545744245737,-187500.02235174447,1243.271081837545,-187500.02235174447,-187500.02235174447,-187500.02235174447,-187500.02235174447,-187500.02235174447,1730328780.7673829,1730328779.31433,4000
-28339.732091394915,-187500.02235174447,1249.7083842406732,-187500.02235174447,-187500.02235174447,-187500.02235174447,-187500.02235174447,-187500.02235174447,1730328780.7703547,1730328779.31433,4000
-28254.21431710891,-187500.02235174447,1176.6181798718192,-187500.02235174447,-187500.02235174447,-187500.02235174447,-187500.02235174447,-187500.02235174447,1730328780.7743788,1730328779.31433,4000
-28366.308315552276,-187500.02235174447,1119.4424175551435,-187500.02235174447,-187500.02235174447,-187500.02235174447,-187500.02235174447,-187500.02235174447,1730328780.7782502,1730328779.31433,4000
-28413.783420775348,-187500.02235174447,1178.0486915169588,-187500.02235174447,-187500.02235174447,-187500.02235174447,-187500.02235174447,-187500.02235174447,1730328780.7822945,1730328779.31433,4000
-28365.28013530733,-187500.02235174447,1174.919447293216,-187500.02235174447,-187500.02235174447,-187500.02235174447,-187500.02235174447,-187500.02235174447,1730328780.7864013,1730328779.31433,4000
-28339.530925694817,-187500.02235174447,1112.1333971182582,-187500.02235174447,-187500.02235174447,-187500.02235174447,-187500.02235174447,-187500.02235174447,1730328780.7903888,1730328779.31433,4000
-28272.58745105117,-187500.02235174447,1143.55994982242,-187500.02235174447,-187500.02235174447,-187500.02235174447,-187500.02235174447,-187500.02235174447,1730328780.7954507,1730328779.31433,4000
-28315.011062027344,-187500.02235174447,1186.430595687699,-187500.02235174447,-187500.02235174447,-187500.02235174447,-187500.02235174447,-187500.02235174447,1730328780.7983866,1730328779.31433,4000
-28353.724283423937,-187500.02235174447,1274.58587581943,-187500.02235174447,-187500.02235174447,-187500.02235174447,-187500.02235174447,-187500.02235174447,1730328780.8022923,1730328779.31433,4000
-28290.200625681955,-187500.02235174447,1198.813462115939,-187500.02235174447,-187500.02235174447,-187500.02235174447,-187500.02235174447,-187500.02235174447,1730328780.8063,1730328779.31433,4000
-28255.376607820584,-187500.02235174447,1165.3752524107997,-187500.02235174447,-187500.02235174447,-187500.02235174447,-187500.02235174447,-187500.02235174447,1730328780.8104165,1730328779.31433,4000
-28384.457932049983,-187500.02235174447,1137.457923586121,-187500.02235174447,-187500.02235174447,-187500.02235174447,-187500.02235174447,-187500.02235174447,1730328780.8144429,1730328779.31433,4000
-28259.914011945013,-187500.02235174447,1266.6286547933407,-187500.02235174447,-187500.02235174447,-187500.02235174447,-187500.02235174447,-187500.02235174447,1730328780.818432,1730328779.31433,4000
-28259.77990147828,-187500.02235174447,1207.5976976868749,-187500.02235174447,-187500.02235174447,-187500.02235174447,-187500.02235174447,-187500.02235174447,1730328780.8235447,1730328779.31433,4000
-28359.26751604885,-187500.02235174447,1106.590164493342,-187500.02235174447,-187500.02235174447,-187500.02235174447,-187500.02235174447,-187500.02235174447,1730328780.8265655,1730328779.31433,4000
-28424.53460985835,-187500.02235174447,1171.4772786470985,-187500.02235174447,-187500.02235174447,-187500.02235174447,-187500.02235174447,-187500.02235174447,1730328780.829501,1730328779.31433,4000
-28327.304521477763,-187500.02235174447,1271.3895763623211,-187500.02235174447,-187500.02235174447,-187500.02235174447,-187500.02235174447,-187500.02235174447,1730328780.834527,1730328779.31433,4000
-28338.502745449878,-187500.02235174447,1229.5247589975309,-187500.02235174447,-187500.02235174447,-187500.02235174447,-187500.02235174447,-187500.02235174447,1730328780.83837,1730328779.31433,4000
-28284.210358167933,-187500.02235174447,1104.3549900478113,-187500.02235174447,-187500.02235174447,-187500.02235174447,-187500.02235174447,-187500.02235174447,1730328780.8425384,1730328779.31433,4000
-28309.333718935697,-187500.02235174447,1098.9905713785377,-187500.02235174447,-187500.02235174447,-187500.02235174447,-187500.02235174447,-187500.02235174447,1730328780.8464272,1730328779.31433,4000
-28264.2726021138,-187500.02235174447,1204.4461017186763,-187500.02235174447,-187500.02235174447,-187500.02235174447,-187500.02235174447,-187500.02235174447,1730328780.8516943,1730328779.31433,4000
-28383.42975180504,-187500.02235174447,1183.3237032084112,-187500.02235174447,-187500.02235174447,-187500.02235174447,-187500.02235174447,-187500.02235174447,1730328780.8545332,1730328779.31433,4000
-28424.08757496924,-187500.02235174447,1143.7164120336072,-187500.02235174447,-187500.02235174447,-187500.02235174447,-187500.02235174447,-187500.02235174447,1730328780.8574903,1730328779.31433,4000
-28364.743693440403,-187500.02235174447,1115.9331936756605,-187500.02235174447,-187500.02235174447,-187500.02235174447,-187500.02235174447,-187500.02235174447,1730328780.8625312,1730328779.31433,4000
-28281.17052092201,-187500.02235174447,1170.5832088688862,-187500.02235174447,-187500.02235174447,-187500.02235174447,-187500.02235174447,-187500.02235174447,1730328780.8664083,1730328779.31433,4000
-28257.254154354832,-187500.02235174447,1207.843566875883,-187500.02235174447,-187500.02235174447,-187500.02235174447,-187500.02235174447,-187500.02235174447,1730328780.8703954,1730328779.31433,4000
-28353.23254504592,-187500.02235174447,1196.6229911593189,-187500.02235174447,-187500.02235174447,-187500.02235174447,-187500.02235174447,-187500.02235174447,1730328780.8744185,1730328779.31433,4000
-28459.58214516427,-187500.02235174447,1128.4054670817218,-187500.02235174447,-187500.02235174447,-187500.02235174447,-187500.02235174447,-187500.02235174447,1730328780.878425,1730328779.31433,4000
-28356.18297531402,-187500.02235174447,1210.0116860880478,-187500.02235174447,-187500.02235174447,-187500.02235174447,-187500.02235174447,-187500.02235174447,1730328780.8824148,1730328779.31433,4000
-28165.991981743813,-187500.02235174447,1251.1165441413575,-187500.02235174447,-187500.02235174447,-187500.02235174447,-187500.02235174447,-187500.02235174447,1730328780.885419,1730328779.31433,4000
-28300.594186853672,-187500.02235174447,1125.3879815802552,-187500.02235174447,-187500.02235174447,-187500.02235174447,-187500.02235174447,-187500.02235174447,1730328780.890493,1730328779.31433,4000
-28375.293716823307,-187500.02235174447,1127.2878798589563,-187500.02235174447,-187500.02235174447,-187500.02235174447,-187500.02235174447,-187500.02235174447,1730328780.8945467,1730328779.31433,4000
-28309.087849746687,-187500.02235174447,1255.1398581433127,-187500.02235174447,-187500.02235174447,-187500.02235174447,-187500.02235174447,-187500.02235174447,1730328780.898461,1730328779.31433,4000
-28405.20035090451,-187500.02235174447,1248.00965166207,-187500.02235174447,-187500.02235174447,-187500.02235174447,-187500.02235174447,-187500.02235174447,1730328780.9025524,1730328779.31433,4000
-28314.49697190487,-187500.02235174447,1196.913563837238,-187500.02235174447,-187500.02235174447,-187500.02235174447,-187500.02235174447,-187500.02235174447,1730328780.9066744,1730328779.31433,4000
-28189.304851210694,-187500.02235174447,1101.0022283795154,-187500.02235174447,-187500.02235174447,-187500.02235174447,-187500.02235174447,-187500.02235174447,1730328780.9106183,1730328779.31433,4000
-28207.141543286038,-187500.02235174447,1122.0352199119593,-187500.02235174447,-187500.02235174447,-187500.02235174447,-187500.02235174447,-187500.02235174447,1730328780.9135733,1730328779.31433,4000
-28250.01218915131,-187500.02235174447,1231.1564363427683,-187500.02235174447,-187500.02235174447,-187500.02235174447,-187500.02235174447,-187500.02235174447,1730328780.9176009,1730328779.31433,4000
-28278.77888426529,-187500.02235174447,1256.6374250218184,-187500.02235174447,-187500.02235174447,-187500.02235174447,-187500.02235174447,-187500.02235174447,1730328780.922627,1730328779.31433,4000
-28483.05147684234,-187500.02235174447,1143.7611155225177,-187500.02235174447,-187500.02235174447,-187500.02235174447,-187500.02235174447,-187500.02235174447,1730328780.9265566,1730328779.31433,4000
-28436.7610140754,-187500.02235174447,1135.7144875186073,-187500.02235174447,-187500.02235174447,-187500.02235174447,-187500.02235174447,-187500.02235174447,1730328780.9305944,1730328779.31433,4000
-28322.789469097792,-187500.02235174447,1257.263273866567,-187500.02235174447,-187500.02235174447,-187500.02235174447,-187500.02235174447,-187500.02235174447,1730328780.9336016,1730328779.31433,4000
-28270.68755277247,-187500.02235174447,1245.618015005352,-187500.02235174447,-187500.02235174447,-187500.02235174447,-187500.02235174447,-187500.02235174447,1730328780.9376085,1730328779.31433,4000
-28320.375480696617,-187500.02235174447,1104.5785074923645,-187500.02235174447,-187500.02235174447,-187500.02235174447,-187500.02235174447,-187500.02235174447,1730328780.9416523,1730328779.31433,4000
-28303.72343107741,-187500.02235174447,1126.885548458761,-187500.02235174447,-187500.02235174447,-187500.02235174447,-187500.02235174447,-187500.02235174447,1730328780.9456308,1730328779.31433,4000
-28311.099506747665,-187500.02235174447,1236.453799778676,-187500.02235174447,-187500.02235174447,-187500.02235174447,-187500.02235174447,-187500.02235174447,1730328780.9505825,1730328779.31433,4000
-28327.01394879985,-187500.02235174447,1231.8493404208828,-187500.02235174447,-187500.02235174447,-187500.02235174447,-187500.02235174447,-187500.02235174447,1730328780.9545531,1730328779.31433,4000
-28298.470771130415,-187500.02235174447,1114.9944204085375,-187500.02235174447,-187500.02235174447,-187500.02235174447,-187500.02235174447,-187500.02235174447,1730328780.9586473,1730328779.31433,4000
-28306.718564834424,-187500.02235174447,1137.167350908202,-187500.02235174447,-187500.02235174447,-187500.02235174447,-187500.02235174447,-187500.02235174447,1730328780.9616,1730328779.31433,4000
-28399.14302815712,-187500.02235174447,1238.554863757475,-187500.02235174447,-187500.02235174447,-187500.02235174447,-187500.02235174447,-187500.02235174447,1730328780.9656749,1730328779.31433,4000
-28223.950055116424,-187500.02235174447,1220.1593780707572,-187500.02235174447,-187500.02235174447,-187500.02235174447,-187500.02235174447,-187500.02235174447,1730328780.9696112,1730328779.31433,4000
-28143.70729252187,-187500.02235174447,1176.841697316372,-187500.02235174447,-187500.02235174447,-187500.02235174447,-187500.02235174447,-187500.02235174447,1730328780.973656,1730328779.31433,4000
-28452.58604914976,-187500.02235174447,1123.756304235018,-187500.02235174447,-187500.02235174447,-187500.02235174447,-187500.02235174447,-187500.02235174447,1730328780.9788237,1730328779.31433,4000
-28331.886629091103,-187500.02235174447,1162.067194231414,-187500.02235174447,-187500.02235174447,-187500.02235174447,-187500.02235174447,-187500.02235174447,1730328780.9828231,1730328779.31433,4000
-28291.206454182444,-187500.02235174447,1215.9572501131595,-187500.02235174447,-187500.02235174447,-187500.02235174447,-187500.02235174447,-187500.02235174447,1730328780.9868274,1730328779.31433,4000
-28390.76112398638,-187500.02235174447,1207.843566875883,-187500.02235174447,-187500.02235174447,-187500.02235174447,-187500.02235174447,-187500.02235174447,1730328780.9898517,1730328779.31433,4000
-28352.13730956761,-187500.02235174447,1133.4793130730764,-187500.02235174447,-187500.02235174447,-187500.02235174447,-187500.02235174447,-187500.02235174447,1730328780.9938488,1730328779.31433,4000
-28316.732146350405,-187500.02235174447,1132.0264496834816,-187500.02235174447,-187500.02235174447,-187500.02235174447,-187500.02235174447,-187500.02235174447,1730328780.997718,1730328779.31433,4000
-28270.26286962782,-187500.02235174447,1249.8648464518603,-187500.02235174447,-187500.02235174447,-187500.02235174447,-187500.02235174447,-187500.02235174447,1730328781.0017972,1730328779.31433,4000
-28325.739899365894,-187500.02235174447,1219.689991437196,-187500.02235174447,-187500.02235174447,-187500.02235174447,-187500.02235174447,-187500.02235174447,1730328781.0067675,1730328779.31433,4000
-28318.900265562566,-187500.02235174447,1129.8359787268614,-187500.02235174447,-187500.02235174447,-187500.02235174447,-187500.02235174447,-187500.02235174447,1730328781.0107584,1730328779.31433,4000
-28357.680542192527,-187500.02235174447,1128.1595978927137,-187500.02235174447,-187500.02235174447,-187500.02235174447,-187500.02235174447,-187500.02235174447,1730328781.0136988,1730328779.31433,4000
-28286.624346569104,-187500.02235174447,1231.4917125095978,-187500.02235174447,-187500.02235174447,-187500.02235174447,-187500.02235174447,-187500.02235174447,1730328781.017922,1730328779.31433,4000
-28315.279282960808,-187500.02235174447,1247.7190789841509,-187500.02235174447,-187500.02235174447,-187500.02235174447,-187500.02235174447,-187500.02235174447,1730328781.0216956,1730328779.31433,4000
-28372.90208016659,-187500.02235174447,1150.5113423480204,-187500.02235174447,-187500.02235174447,-187500.02235174447,-187500.02235174447,-187500.02235174447,1730328781.02589,1730328779.31433,4000
-28355.62418170264,-187500.02235174447,1145.4821998455764,-187500.02235174447,-187500.02235174447,-187500.02235174447,-187500.02235174447,-187500.02235174447,1730328781.0297823,1730328779.31433,4000
-28302.98582351039,-187500.02235174447,1211.6433634332852,-187500.02235174447,-187500.02235174447,-187500.02235174447,-187500.02235174447,-187500.02235174447,1730328781.034988,1730328779.31433,4000
-28236.042348866744,-187500.02235174447,1198.299371993467,-187500.02235174447,-187500.02235174447,-187500.02235174447,-187500.02235174447,-187500.02235174447,1730328781.0387356,1730328779.31433,4000
-28289.61948032612,-187500.02235174447,1118.5483477769317,-187500.02235174447,-187500.02235174447,-187500.02235174447,-187500.02235174447,-187500.02235174447,1730328781.0419335,1730328779.31433,4000
-28244.424253037483,-187500.02235174447,1198.455834204654,-187500.02235174447,-187500.02235174447,-187500.02235174447,-187500.02235174447,-187500.02235174447,1730328781.0460396,1730328779.31433,4000
-28320.800163841268,-187500.02235174447,1269.8696577393605,-187500.02235174447,-187500.02235174447,-187500.02235174447,-187500.02235174447,-187500.02235174447,1730328781.050012,1730328779.31433,4000
-28372.499748766397,-187500.02235174447,1204.1555290407573,-187500.02235174447,-187500.02235174447,-187500.02235174447,-187500.02235174447,-187500.02235174447,1730328781.0539792,1730328779.31433,4000
-28367.33649579722,-187500.02235174447,1117.5201675319872,-187500.02235174447,-187500.02235174447,-187500.02235174447,-187500.02235174447,-187500.02235174447,1730328781.058026,1730328779.31433,4000
-28305.489218889383,-187500.02235174447,1116.6708012426857,-187500.02235174447,-187500.02235174447,-187500.02235174447,-187500.02235174447,-187500.02235174447,1730328781.0619493,1730328779.31433,4000
-28288.56894833672,-187500.02235174447,1222.752180427573,-187500.02235174447,-187500.02235174447,-187500.02235174447,-187500.02235174447,-187500.02235174447,1730328781.067027,1730328779.31433,4000
-28365.07896960723,-187500.02235174447,1213.1409303117907,-187500.02235174447,-187500.02235174447,-187500.02235174447,-187500.02235174447,-187500.02235174447,1730328781.0699291,1730328779.31433,4000
-28339.19564952799,-187500.02235174447,1183.9495520531598,-187500.02235174447,-187500.02235174447,-187500.02235174447,-187500.02235174447,-187500.02235174447,1730328781.073916,1730328779.31433,4000
-28391.163455386577,-187500.02235174447,1139.8048567539283,-187500.02235174447,-187500.02235174447,-187500.02235174447,-187500.02235174447,-187500.02235174447,1730328781.0778549,1730328779.31433,4000
-28286.624346569104,-187500.02235174447,1157.172162195702,-187500.02235174447,-187500.02235174447,-187500.02235174447,-187500.02235174447,-187500.02235174447,1730328781.0818727,1730328779.31433,4000
-28098.243844299777,-187500.02235174447,1241.9970324035924,-187500.02235174447,-187500.02235174447,-187500.02235174447,-187500.02235174447,-187500.02235174447,1730328781.0860064,1730328779.31433,4000
-28311.971224781424,-187500.02235174447,1173.131307736791,-187500.02235174447,-187500.02235174447,-187500.02235174447,-187500.02235174447,-187500.02235174447,1730328781.0901885,1730328779.31433,4000
-28404.64155729313,-187500.02235174447,1147.8961882467495,-187500.02235174447,-187500.02235174447,-187500.02235174447,-187500.02235174447,-187500.02235174447,1730328781.0951052,1730328779.31433,4000
-28374.13142611163,-187500.02235174447,1188.0622730329362,-187500.02235174447,-187500.02235174447,-187500.02235174447,-187500.02235174447,-187500.02235174447,1730328781.0979712,1730328779.31433,4000
-28414.67749055356,-187500.02235174447,1241.0135556475586,-187500.02235174447,-187500.02235174447,-187500.02235174447,-187500.02235174447,-187500.02235174447,1730328781.1020205,1730328779.31433,4000
-28273.41446559602,-187500.02235174447,1200.7357121390953,-187500.02235174447,-187500.02235174447,-187500.02235174447,-187500.02235174447,-187500.02235174447,1730328781.1058676,1730328779.31433,4000
-28268.787654493768,-187500.02235174447,1160.7037378196403,-187500.02235174447,-187500.02235174447,-187500.02235174447,-187500.02235174447,-187500.02235174447,1730328781.1100533,1730328779.31433,4000
-28383.94384192751,-187500.02235174447,1188.978694555604,-187500.02235174447,-187500.02235174447,-187500.02235174447,-187500.02235174447,-187500.02235174447,1730328781.1138704,1730328779.31433,4000
-28366.55418474128,-187500.02235174447,1205.3401714968886,-187500.02235174447,-187500.02235174447,-187500.02235174447,-187500.02235174447,-187500.02235174447,1730328781.118127,1730328779.31433,4000
-28257.880003199574,-187500.02235174447,1187.749348610562,-187500.02235174447,-187500.02235174447,-187500.02235174447,-187500.02235174447,-187500.02235174447,1730328781.1231167,1730328779.31433,4000
-28208.61675842008,-187500.02235174447,1156.9933482400595,-187500.02235174447,-187500.02235174447,-187500.02235174447,-187500.02235174447,-187500.02235174447,1730328781.1261313,1730328779.31433,4000
-28405.356813115697,-187500.02235174447,1147.4044498687329,-187500.02235174447,-187500.02235174447,-187500.02235174447,-187500.02235174447,-187500.02235174447,1730328781.1299136,1730328779.31433,4000
-28306.629157856605,-187500.02235174447,1217.1865960582013,-187500.02235174447,-187500.02235174447,-187500.02235174447,-187500.02235174447,-187500.02235174447,1730328781.1341224,1730328779.31433,4000
-28242.3678925476,-187500.02235174447,1275.6587595532849,-187500.02235174447,-187500.02235174447,-187500.02235174447,-187500.02235174447,-187500.02235174447,1730328781.137997,1730328779.31433,4000
-28355.33360902472,-187500.02235174447,1153.3053104049338,-187500.02235174447,-187500.02235174447,-187500.02235174447,-187500.02235174447,-187500.02235174447,1730328781.1420872,1730328779.31433,4000
-28345.454137975477,-187500.02235174447,1097.425949266666,-187500.02235174447,-187500.02235174447,-187500.02235174447,-187500.02235174447,-187500.02235174447,1730328781.1461582,1730328779.31433,4000
-28307.210303212443,-187500.02235174447,1210.9281076107154,-187500.02235174447,-187500.02235174447,-187500.02235174447,-187500.02235174447,-187500.02235174447,1730328781.1501625,1730328779.31433,4000
-28326.79043135529,-187500.02235174447,1208.938802354193,-187500.02235174447,-187500.02235174447,-187500.02235174447,-187500.02235174447,-187500.02235174447,1730328781.153151,1730328779.31433,4000
-28336.401681471078,-187500.02235174447,1133.6804787731742,-187500.02235174447,-187500.02235174447,-187500.02235174447,-187500.02235174447,-187500.02235174447,1730328781.1581771,1730328779.31433,4000
-28344.98475134191,-187500.02235174447,1140.9000922322384,-187500.02235174447,-187500.02235174447,-187500.02235174447,-187500.02235174447,-187500.02235174447,1730328781.1621149,1730328779.31433,4000
-28317.02271902832,-187500.02235174447,1188.1740317552128,-187500.02235174447,-187500.02235174447,-187500.02235174447,-187500.02235174447,-187500.02235174447,1730328781.166193,1730328779.31433,4000
-28316.016890527837,-187500.02235174447,1162.9612640096266,-187500.02235174447,-187500.02235174447,-187500.02235174447,-187500.02235174447,-187500.02235174447,1730328781.1701784,1730328779.31433,4000
-28192.34468845662,-187500.02235174447,1173.7571565815397,-187500.02235174447,-187500.02235174447,-187500.02235174447,-187500.02235174447,-187500.02235174447,1730328781.174214,1730328779.31433,4000
-28364.60958297367,-187500.02235174447,1129.9253857046826,-187500.02235174447,-187500.02235174447,-187500.02235174447,-187500.02235174447,-187500.02235174447,1730328781.1782355,1730328779.31433,4000
-28353.54546946829,-187500.02235174447,1201.7191888951288,-187500.02235174447,-187500.02235174447,-187500.02235174447,-187500.02235174447,-187500.02235174447,1730328781.1811,1730328779.31433,4000
-28339.91090535056,-187500.02235174447,1259.7666692455614,-187500.02235174447,-187500.02235174447,-187500.02235174447,-187500.02235174447,-187500.02235174447,1730328781.1851804,1730328779.31433,4000
-28420.041909222837,-187500.02235174447,1222.5510147274751,-187500.02235174447,-187500.02235174447,-187500.02235174447,-187500.02235174447,-187500.02235174447,1730328781.1901536,1730328779.31433,4000
-28353.634876446115,-187500.02235174447,1150.5783975813863,-187500.02235174447,-187500.02235174447,-187500.02235174447,-187500.02235174447,-187500.02235174447,1730328781.1941788,1730328779.31433,4000
-28434.19056346304,-187500.02235174447,1168.5715518679085,-187500.02235174447,-187500.02235174447,-187500.02235174447,-187500.02235174447,-187500.02235174447,1730328781.1981728,1730328779.31433,4000
-28318.60969288465,-187500.02235174447,1237.2361108346115,-187500.02235174447,-187500.02235174447,-187500.02235174447,-187500.02235174447,-187500.02235174447,1730328781.2022388,1730328779.31433,4000
-28298.716640319424,-187500.02235174447,1187.0117410435369,-187500.02235174447,-187500.02235174447,-187500.02235174447,-187500.02235174447,-187500.02235174447,1730328781.2060547,1730328779.31433,4000
-28385.106132639183,-187500.02235174447,1102.6339057247528,-187500.02235174447,-187500.02235174447,-187500.02235174447,-187500.02235174447,-187500.02235174447,1730328781.2092416,1730328779.31433,4000
-28267.111273659622,-187500.02235174447,1148.0526504579366,-187500.02235174447,-187500.02235174447,-187500.02235174447,-187500.02235174447,-187500.02235174447,1730328781.2130768,1730328779.31433,4000
-28258.32703808869,-187500.02235174447,1205.004895330059,-187500.02235174447,-187500.02235174447,-187500.02235174447,-187500.02235174447,-187500.02235174447,1730328781.2182183,1730328779.31433,4000
-28310.42895441401,-187500.02235174447,1139.1343044202692,-187500.02235174447,-187500.02235174447,-187500.02235174447,-187500.02235174447,-187500.02235174447,1730328781.2220652,1730328779.31433,4000
-28352.651399690083,-187500.02235174447,1166.6716535892074,-187500.02235174447,-187500.02235174447,-187500.02235174447,-187500.02235174447,-187500.02235174447,1730328781.2263196,1730328779.31433,4000
-28421.71829005698,-187500.02235174447,1209.9893343435924,-187500.02235174447,-187500.02235174447,-187500.02235174447,-187500.02235174447,-187500.02235174447,1730328781.230103,1730328779.31433,4000
-28322.14126850859,-187500.02235174447,1221.7016484381734,-187500.02235174447,-187500.02235174447,-187500.02235174447,-187500.02235174447,-187500.02235174447,1730328781.2331748,1730328779.31433,4000
-28244.290142570757,-187500.02235174447,1205.720151152629,-187500.02235174447,-187500.02235174447,-187500.02235174447,-187500.02235174447,-187500.02235174447,1730328781.2372906,1730328779.31433,4000
-28272.386285351076,-187500.02235174447,1163.1177262208137,-187500.02235174447,-187500.02235174447,-187500.02235174447,-187500.02235174447,-187500.02235174447,1730328781.2414153,1730328779.31433,4000
-28349.47745197743,-187500.02235174447,1119.0624378994034,-187500.02235174447,-187500.02235174447,-187500.02235174447,-187500.02235174447,-187500.02235174447,1730328781.246184,1730328779.31433,4000
-28442.52776414487,-187500.02235174447,1145.3257376343893,-187500.02235174447,-187500.02235174447,-187500.02235174447,-187500.02235174447,-187500.02235174447,1730328781.2503216,1730328779.31433,4000
-28298.291957174773,-187500.02235174447,1210.0340378325031,-187500.02235174447,-187500.02235174447,-187500.02235174447,-187500.02235174447,-187500.02235174447,1730328781.2544348,1730328779.31433,4000
-28207.476819452862,-187500.02235174447,1204.2896395074893,-187500.02235174447,-187500.02235174447,-187500.02235174447,-187500.02235174447,-187500.02235174447,1730328781.257341,1730328779.31433,4000
-28377.394780802108,-187500.02235174447,1162.4471738871543,-187500.02235174447,-187500.02235174447,-187500.02235174447,-187500.02235174447,-187500.02235174447,1730328781.261345,1730328779.31433,4000
-28323.258855731357,-187500.02235174447,1159.496743619054,-187500.02235174447,-187500.02235174447,-187500.02235174447,-187500.02235174447,-187500.02235174447,1730328781.2652783,1730328779.31433,4000
-28333.31714073624,-187500.02235174447,1200.243973761079,-187500.02235174447,-187500.02235174447,-187500.02235174447,-187500.02235174447,-187500.02235174447,1730328781.269376,1730328779.31433,4000
-28326.052823788265,-187500.02235174447,1142.911749233216,-187500.02235174447,-187500.02235174447,-187500.02235174447,-187500.02235174447,-187500.02235174447,1730328781.2733364,1730328779.31433,4000
-28406.362641616182,-187500.02235174447,1079.2763327689568,-187500.02235174447,-187500.02235174447,-187500.02235174447,-187500.02235174447,-187500.02235174447,1730328781.2783368,1730328779.31433,4000
-28347.75636765437,-187500.02235174447,1197.718226637629,-187500.02235174447,-187500.02235174447,-187500.02235174447,-187500.02235174447,-187500.02235174447,1730328781.2822497,1730328779.31433,4000
-28280.723486032904,-187500.02235174447,1231.0893811094024,-187500.02235174447,-187500.02235174447,-187500.02235174447,-187500.02235174447,-187500.02235174447,1730328781.2851508,1730328779.31433,4000
-28235.371796533087,-187500.02235174447,1163.1847814541795,-187500.02235174447,-187500.02235174447,-187500.02235174447,-187500.02235174447,-187500.02235174447,1730328781.2891695,1730328779.31433,4000
-28406.362641616182,-187500.02235174447,1151.293653403956,-187500.02235174447,-187500.02235174447,-187500.02235174447,-187500.02235174447,-187500.02235174447,1730328781.2933533,1730328779.31433,4000
-28428.15559246011,-187500.02235174447,1164.65999658823,-187500.02235174447,-187500.02235174447,-187500.02235174447,-187500.02235174447,-187500.02235174447,1730328781.2971687,1730328779.31433,4000
-28268.944116704955,-187500.02235174447,1221.7016484381734,-187500.02235174447,-187500.02235174447,-187500.02235174447,-187500.02235174447,-187500.02235174447,1730328781.301518,1730328779.31433,4000
-28166.595478844105,-187500.02235174447,1193.2702294910227,-187500.02235174447,-187500.02235174447,-187500.02235174447,-187500.02235174447,-187500.02235174447,1730328781.3063388,1730328779.31433,4000
-28284.053895956746,-187500.02235174447,1130.2830136159675,-187500.02235174447,-187500.02235174447,-187500.02235174447,-187500.02235174447,-187500.02235174447,1730328781.310347,1730328779.31433,4000
-28478.22350004,-187500.02235174447,1144.7445922785512,-187500.02235174447,-187500.02235174447,-187500.02235174447,-187500.02235174447,-187500.02235174447,1730328781.31319,1730328779.31433,4000
-28381.552205270797,-187500.02235174447,1205.0272470745144,-187500.02235174447,-187500.02235174447,-187500.02235174447,-187500.02235174447,-187500.02235174447,1730328781.3173723,1730328779.31433,4000
-28287.78663728078,-187500.02235174447,1207.3965319867768,-187500.02235174447,-187500.02235174447,-187500.02235174447,-187500.02235174447,-187500.02235174447,1730328781.3211436,1730328779.31433,4000
-28369.70578070948,-187500.02235174447,1152.143019693258,-187500.02235174447,-187500.02235174447,-187500.02235174447,-187500.02235174447,-187500.02235174447,1730328781.3253596,1730328779.31433,4000
-28365.861280663168,-187500.02235174447,1155.7863540394728,-187500.02235174447,-187500.02235174447,-187500.02235174447,-187500.02235174447,-187500.02235174447,1730328781.3293765,1730328779.31433,4000
-28273.59327955166,-187500.02235174447,1208.2458982760786,-187500.02235174447,-187500.02235174447,-187500.02235174447,-187500.02235174447,-187500.02235174447,1730328781.3343835,1730328779.31433,4000
-28202.58178741715,-187500.02235174447,1210.3693139993327,-187500.02235174447,-187500.02235174447,-187500.02235174447,-187500.02235174447,-187500.02235174447,1730328781.3382182,1730328779.31433,4000
-28300.013041497838,-187500.02235174447,1098.208260322602,-187500.02235174447,-187500.02235174447,-187500.02235174447,-187500.02235174447,-187500.02235174447,1730328781.3415484,1730328779.31433,4000
-28300.97416650941,-187500.02235174447,1087.3453125173228,-187500.02235174447,-187500.02235174447,-187500.02235174447,-187500.02235174447,-187500.02235174447,1730328781.3454175,1730328779.31433,4000
-28388.32478384075,-187500.02235174447,1209.7658168990397,-187500.02235174447,-187500.02235174447,-187500.02235174447,-187500.02235174447,-187500.02235174447,1730328781.3494196,1730328779.31433,4000
-28297.06261122973,-187500.02235174447,1237.169055601246,-187500.02235174447,-187500.02235174447,-187500.02235174447,-187500.02235174447,-187500.02235174447,1730328781.353422,1730328779.31433,4000
-28354.46189099096,-187500.02235174447,1150.690156303663,-187500.02235174447,-187500.02235174447,-187500.02235174447,-187500.02235174447,-187500.02235174447,1730328781.3574438,1730328779.31433,4000
-28429.98843550545,-187500.02235174447,1081.3550450033003,-187500.02235174447,-187500.02235174447,-187500.02235174447,-187500.02235174447,-187500.02235174447,1730328781.3624558,1730328779.31433,4000
-28331.05961454625,-187500.02235174447,1190.4315579451988,-187500.02235174447,-187500.02235174447,-187500.02235174447,-187500.02235174447,-187500.02235174447,1730328781.3654644,1730328779.31433,4000
-28287.004326224844,-187500.02235174447,1263.1864861472234,-187500.02235174447,-187500.02235174447,-187500.02235174447,-187500.02235174447,-187500.02235174447,1730328781.369486,1730328779.31433,4000
-28341.386120484607,-187500.02235174447,1142.7329352775737,-187500.02235174447,-187500.02235174447,-187500.02235174447,-187500.02235174447,-187500.02235174447,1730328781.3734608,1730328779.31433,4000
-28426.18863894804,-187500.02235174447,1122.571661778887,-187500.02235174447,-187500.02235174447,-187500.02235174447,-187500.02235174447,-187500.02235174447,1730328781.377344,1730328779.31433,4000
-28361.74855968339,-187500.02235174447,1200.7133603946402,-187500.02235174447,-187500.02235174447,-187500.02235174447,-187500.02235174447,-187500.02235174447,1730328781.3817637,1730328779.31433,4000
-28254.147261875543,-187500.02235174447,1267.8580007383823,-187500.02235174447,-187500.02235174447,-187500.02235174447,-187500.02235174447,-187500.02235174447,1730328781.3855093,1730328779.31433,4000
-28234.76829943279,-187500.02235174447,1181.7590810965396,-187500.02235174447,-187500.02235174447,-187500.02235174447,-187500.02235174447,-187500.02235174447,1730328781.3904517,1730328779.31433,4000
-28228.53216272976,-187500.02235174447,1111.4404930401438,-187500.02235174447,-187500.02235174447,-187500.02235174447,-187500.02235174447,-187500.02235174447,1730328781.3934512,1730328779.31433,4000
-28401.355850858195,-187500.02235174447,1148.4102783692215,-187500.02235174447,-187500.02235174447,-187500.02235174447,-187500.02235174447,-187500.02235174447,1730328781.3962915,1730328779.31433,4000
-28316.17335273902,-187500.02235174447,1204.4461017186763,-187500.02235174447,-187500.02235174447,-187500.02235174447,-187500.02235174447,-187500.02235174447,1730328781.4016995,1730328779.31433,4000
-28216.193999790437,-187500.02235174447,1179.2780374620006,-187500.02235174447,-187500.02235174447,-187500.02235174447,-187500.02235174447,-187500.02235174447,1730328781.405276,1730328779.31433,4000
-28358.105225337174,-187500.02235174447,1052.4542394225884,-187500.02235174447,-187500.02235174447,-187500.02235174447,-187500.02235174447,-187500.02235174447,1730328781.4095006,1730328779.31433,4000
-28308.149076479564,-187500.02235174447,1109.0041528945153,-187500.02235174447,-187500.02235174447,-187500.02235174447,-187500.02235174447,-187500.02235174447,1730328781.413282,1730328779.31433,4000
-28303.678727588504,-187500.02235174447,1251.0494889079916,-187500.02235174447,-187500.02235174447,-187500.02235174447,-187500.02235174447,-187500.02235174447,1730328781.4185383,1730328779.31433,4000
-28169.925888767943,-187500.02235174447,1222.5510147274751,-187500.02235174447,-187500.02235174447,-187500.02235174447,-187500.02235174447,-187500.02235174447,1730328781.4214673,1730328779.31433,4000
-28208.84027586464,-187500.02235174447,1119.7329902330623,-187500.02235174447,-187500.02235174447,-187500.02235174447,-187500.02235174447,-187500.02235174447,1730328781.4245615,1730328779.31433,4000
-28111.207856083856,-187500.02235174447,1146.5327318349755,-187500.02235174447,-187500.02235174447,-187500.02235174447,-187500.02235174447,-187500.02235174447,1730328781.4294672,1730328779.31433,4000
-28072.80755910964,-187500.02235174447,1265.6004745483965,-187500.02235174447,-187500.02235174447,-187500.02235174447,-187500.02235174447,-187500.02235174447,1730328781.433548,1730328779.31433,4000
-28241.87615416958,-187500.02235174447,1236.6773172232292,-187500.02235174447,-187500.02235174447,-187500.02235174447,-187500.02235174447,-187500.02235174447,1730328781.437564,1730328779.31433,4000
-28227.95101737392,-187500.02235174447,1128.7630949930067,-187500.02235174447,-187500.02235174447,-187500.02235174447,-187500.02235174447,-187500.02235174447,1730328781.4417124,1730328779.31433,4000
-28250.68274148497,-187500.02235174447,1107.2160133380908,-187500.02235174447,-187500.02235174447,-187500.02235174447,-187500.02235174447,-187500.02235174447,1730328781.445588,1730328779.31433,4000
-28207.655633408503,-187500.02235174447,1194.164299269235,-187500.02235174447,-187500.02235174447,-187500.02235174447,-187500.02235174447,-187500.02235174447,1730328781.449581,1730328779.31433,4000
-28030.965093489303,-187500.02235174447,1222.774532172028,-187500.02235174447,-187500.02235174447,-187500.02235174447,-187500.02235174447,-187500.02235174447,1730328781.4525309,1730328779.31433,4000
-28095.00284135376,-187500.02235174447,1194.5666306694309,-187500.02235174447,-187500.02235174447,-187500.02235174447,-187500.02235174447,-187500.02235174447,1730328781.4576352,1730328779.31433,4000
-28187.65082212101,-187500.02235174447,1144.5210748339982,-187500.02235174447,-187500.02235174447,-187500.02235174447,-187500.02235174447,-187500.02235174447,1730328781.4617553,1730328779.31433,4000
-28207.365060730583,-187500.02235174447,1195.2818864920005,-187500.02235174447,-187500.02235174447,-187500.02235174447,-187500.02235174447,-187500.02235174447,1730328781.4656596,1730328779.31433,4000
-28147.931772223925,-187500.02235174447,1256.2797971105335,-187500.02235174447,-187500.02235174447,-187500.02235174447,-187500.02235174447,-187500.02235174447,1730328781.4694316,1730328779.31433,4000
-28201.62066240557,-187500.02235174447,1188.8892875777826,-187500.02235174447,-187500.02235174447,-187500.02235174447,-187500.02235174447,-187500.02235174447,1730328781.474678,1730328779.31433,4000
-28194.62456639106,-187500.02235174447,1095.9060306437052,-187500.02235174447,-187500.02235174447,-187500.02235174447,-187500.02235174447,-187500.02235174447,1730328781.4776735,1730328779.31433,4000
-28105.172885080923,-187500.02235174447,1148.589092324864,-187500.02235174447,-187500.02235174447,-187500.02235174447,-187500.02235174447,-187500.02235174447,1730328781.4804156,1730328779.31433,4000
-28181.884072051536,-187500.02235174447,1250.5577505299748,-187500.02235174447,-187500.02235174447,-187500.02235174447,-187500.02235174447,-187500.02235174447,1730328781.4846747,1730328779.31433,4000
-28161.14165319701,-187500.02235174447,1220.0923228373913,-187500.02235174447,-187500.02235174447,-187500.02235174447,-187500.02235174447,-187500.02235174447,1730328781.489519,1730328779.31433,4000
-28154.279667649236,-187500.02235174447,1120.9399844336492,-187500.02235174447,-187500.02235174447,-187500.02235174447,-187500.02235174447,-187500.02235174447,1730328781.4936018,1730328779.31433,4000
-28242.434947780963,-187500.02235174447,1138.0614206864143,-187500.02235174447,-187500.02235174447,-187500.02235174447,-187500.02235174447,-187500.02235174447,1730328781.4981084,1730328779.31433,4000
-28207.275653752764,-187500.02235174447,1200.3333807389,-187500.02235174447,-187500.02235174447,-187500.02235174447,-187500.02235174447,-187500.02235174447,1730328781.5005903,1730328779.31433,4000
-28085.235129026787,-187500.02235174447,1218.840625147894,-187500.02235174447,-187500.02235174447,-187500.02235174447,-187500.02235174447,-187500.02235174447,1730328781.5044303,1730328779.31433,4000
-28111.163152594945,-187500.02235174447,1141.74945852154,-187500.02235174447,-187500.02235174447,-187500.02235174447,-187500.02235174447,-187500.02235174447,1730328781.5086524,1730328779.31433,4000
-28238.523392501284,-187500.02235174447,1107.148958104725,-187500.02235174447,-187500.02235174447,-187500.02235174447,-187500.02235174447,-187500.02235174447,1730328781.5126455,1730328779.31433,4000
-28134.319559850643,-187500.02235174447,1241.035907392014,-187500.02235174447,-187500.02235174447,-187500.02235174447,-187500.02235174447,-187500.02235174447,1730328781.517638,1730328779.31433,4000
-27980.271337064667,-187500.02235174447,1249.9989569185925,-187500.02235174447,-187500.02235174447,-187500.02235174447,-187500.02235174447,-187500.02235174447,1730328781.5214713,1730328779.31433,4000
-28232.01903486479,-187500.02235174447,1176.0146827715257,-187500.02235174447,-187500.02235174447,-187500.02235174447,-187500.02235174447,-187500.02235174447,1730328781.5256271,1730328779.31433,4000
-28312.88764630409,-187500.02235174447,1172.684272847685,-187500.02235174447,-187500.02235174447,-187500.02235174447,-187500.02235174447,-187500.02235174447,1730328781.5286243,1730328779.31433,4000
-28147.17181291245,-187500.02235174447,1239.1360091133129,-187500.02235174447,-187500.02235174447,-187500.02235174447,-187500.02235174447,-187500.02235174447,1730328781.5327427,1730328779.31433,4000
-28160.046417718702,-187500.02235174447,1226.1496455847796,-187500.02235174447,-187500.02235174447,-187500.02235174447,-187500.02235174447,-187500.02235174447,1730328781.536702,1730328779.31433,4000
-28134.02898717272,-187500.02235174447,1180.462679918132,-187500.02235174447,-187500.02235174447,-187500.02235174447,-187500.02235174447,-187500.02235174447,1730328781.5407434,1730328779.31433,4000
-28150.05518794718,-187500.02235174447,1124.0468769129368,-187500.02235174447,-187500.02235174447,-187500.02235174447,-187500.02235174447,-187500.02235174447,1730328781.5457282,1730328779.31433,4000
-28211.38837473254,-187500.02235174447,1188.6434183887743,-187500.02235174447,-187500.02235174447,-187500.02235174447,-187500.02235174447,-187500.02235174447,1730328781.549782,1730328779.31433,4000
-28207.946206086424,-187500.02235174447,1223.3780292723216,-187500.02235174447,-187500.02235174447,-187500.02235174447,-187500.02235174447,-187500.02235174447,1730328781.553758,1730328779.31433,4000
-28146.05422568968,-187500.02235174447,1124.4715600575878,-187500.02235174447,-187500.02235174447,-187500.02235174447,-187500.02235174447,-187500.02235174447,1730328781.5567515,1730328779.31433,4000
-28268.38532309357,-187500.02235174447,1172.4160519142213,-187500.02235174447,-187500.02235174447,-187500.02235174447,-187500.02235174447,-187500.02235174447,1730328781.5608468,1730328779.31433,4000
-28281.61755581112,-187500.02235174447,1204.1108255518468,-187500.02235174447,-187500.02235174447,-187500.02235174447,-187500.02235174447,-187500.02235174447,1730328781.564705,1730328779.31433,4000
-28208.706165397904,-187500.02235174447,1252.3235383419442,-187500.02235174447,-187500.02235174447,-187500.02235174447,-187500.02235174447,-187500.02235174447,1730328781.5687995,1730328779.31433,4000
-28128.977492925824,-187500.02235174447,1225.8590729068603,-187500.02235174447,-187500.02235174447,-187500.02235174447,-187500.02235174447,-187500.02235174447,1730328781.5738034,1730328779.31433,4000
-28183.29223195222,-187500.02235174447,1141.7047550326297,-187500.02235174447,-187500.02235174447,-187500.02235174447,-187500.02235174447,-187500.02235174447,1730328781.5777576,1730328779.31433,4000
-28242.07731986968,-187500.02235174447,1177.355787438844,-187500.02235174447,-187500.02235174447,-187500.02235174447,-187500.02235174447,-187500.02235174447,1730328781.5817668,1730328779.31433,4000
-28182.28640345173,-187500.02235174447,1211.5763081999194,-187500.02235174447,-187500.02235174447,-187500.02235174447,-187500.02235174447,-187500.02235174447,1730328781.584813,1730328779.31433,4000
-28082.552919692152,-187500.02235174447,1174.3383019373778,-187500.02235174447,-187500.02235174447,-187500.02235174447,-187500.02235174447,-187500.02235174447,1730328781.5885973,1730328779.31433,4000
-28248.08993912816,-187500.02235174447,1133.5016648175315,-187500.02235174447,-187500.02235174447,-187500.02235174447,-187500.02235174447,-187500.02235174447,1730328781.5928154,1730328779.31433,4000
-28399.61241479068,-187500.02235174447,1181.4685084186208,-187500.02235174447,-187500.02235174447,-187500.02235174447,-187500.02235174447,-187500.02235174447,1730328781.596681,1730328779.31433,4000
-28288.97127973691,-187500.02235174447,1261.3759948463437,-187500.02235174447,-187500.02235174447,-187500.02235174447,-187500.02235174447,-187500.02235174447,1730328781.601791,1730328779.31433,4000
-28249.05106413973,-187500.02235174447,1222.5286629830198,-187500.02235174447,-187500.02235174447,-187500.02235174447,-187500.02235174447,-187500.02235174447,1730328781.6057637,1730328779.31433,4000
-28281.81872151121,-187500.02235174447,1117.5648710208975,-187500.02235174447,-187500.02235174447,-187500.02235174447,-187500.02235174447,-187500.02235174447,1730328781.6088524,1730328779.31433,4000
-28323.90705632056,-187500.02235174447,1108.110083116303,-187500.02235174447,-187500.02235174447,-187500.02235174447,-187500.02235174447,-187500.02235174447,1730328781.6127567,1730328779.31433,4000
-28218.317415513688,-187500.02235174447,1199.819290616428,-187500.02235174447,-187500.02235174447,-187500.02235174447,-187500.02235174447,-187500.02235174447,1730328781.616857,1730328779.31433,4000
-28225.626435950573,-187500.02235174447,1232.00580263207,-187500.02235174447,-187500.02235174447,-187500.02235174447,-187500.02235174447,-187500.02235174447,1730328781.620844,1730328779.31433,4000
-28248.626380995083,-187500.02235174447,1174.2935984484673,-187500.02235174447,-187500.02235174447,-187500.02235174447,-187500.02235174447,-187500.02235174447,1730328781.6248777,1730328779.31433,4000
-28222.474839982373,-187500.02235174447,1185.42476718721,-187500.02235174447,-187500.02235174447,-187500.02235174447,-187500.02235174447,-187500.02235174447,1730328781.6289186,1730328779.31433,4000
-28208.84027586464,-187500.02235174447,1255.6315965213296,-187500.02235174447,-187500.02235174447,-187500.02235174447,-187500.02235174447,-187500.02235174447,1730328781.6339087,1730328779.31433,4000
-28263.82556722469,-187500.02235174447,1235.0232881335364,-187500.02235174447,-187500.02235174447,-187500.02235174447,-187500.02235174447,-187500.02235174447,1730328781.636902,1730328779.31433,4000
-28255.28720084277,-187500.02235174447,1112.9604116631049,-187500.02235174447,-187500.02235174447,-187500.02235174447,-187500.02235174447,-187500.02235174447,1730328781.64093,1730328779.31433,4000
-28294.447457128463,-187500.02235174447,1078.0246350794596,-187500.02235174447,-187500.02235174447,-187500.02235174447,-187500.02235174447,-187500.02235174447,1730328781.644936,1730328779.31433,4000
-28274.84497724116,-187500.02235174447,1237.169055601246,-187500.02235174447,-187500.02235174447,-187500.02235174447,-187500.02235174447,-187500.02235174447,1730328781.6489546,1730328779.31433,4000
-28173.971554514355,-187500.02235174447,1300.7597685765943,-187500.02235174447,-187500.02235174447,-187500.02235174447,-187500.02235174447,-187500.02235174447,1730328781.652982,1730328779.31433,4000
-28361.122710838645,-187500.02235174447,1204.267287763034,-187500.02235174447,-187500.02235174447,-187500.02235174447,-187500.02235174447,-187500.02235174447,1730328781.6569347,1730328779.31433,4000
-28424.892237769636,-187500.02235174447,1133.0322781839702,-187500.02235174447,-187500.02235174447,-187500.02235174447,-187500.02235174447,-187500.02235174447,1730328781.6618512,1730328779.31433,4000
-28342.146079796086,-187500.02235174447,1168.1245169788024,-187500.02235174447,-187500.02235174447,-187500.02235174447,-187500.02235174447,-187500.02235174447,1730328781.664932,1730328779.31433,4000
-28310.808934069748,-187500.02235174447,1254.7822302320278,-187500.02235174447,-187500.02235174447,-187500.02235174447,-187500.02235174447,-187500.02235174447,1730328781.6688964,1730328779.31433,4000
-28225.98406386185,-187500.02235174447,1242.6675847372514,-187500.02235174447,-187500.02235174447,-187500.02235174447,-187500.02235174447,-187500.02235174447,1730328781.6728823,1730328779.31433,4000
-28252.984971163867,-187500.02235174447,1151.0701359594032,-187500.02235174447,-187500.02235174447,-187500.02235174447,-187500.02235174447,-187500.02235174447,1730328781.6769269,1730328779.31433,4000
-28352.27142003434,-187500.02235174447,1161.5978075978528,-187500.02235174447,-187500.02235174447,-187500.02235174447,-187500.02235174447,-187500.02235174447,1730328781.6808472,1730328779.31433,4000
-28255.77893922078,-187500.02235174447,1209.5422994544865,-187500.02235174447,-187500.02235174447,-187500.02235174447,-187500.02235174447,-187500.02235174447,1730328781.6849904,1730328779.31433,4000
-28149.47404259134,-187500.02235174447,1184.7765665980062,-187500.02235174447,-187500.02235174447,-187500.02235174447,-187500.02235174447,-187500.02235174447,1730328781.6899538,1730328779.31433,4000
-28355.51242298036,-187500.02235174447,1122.3481443343337,-187500.02235174447,-187500.02235174447,-187500.02235174447,-187500.02235174447,-187500.02235174447,1730328781.693086,1730328779.31433,4000
-28487.34301177776,-187500.02235174447,1170.0914704908694,-187500.02235174447,-187500.02235174447,-187500.02235174447,-187500.02235174447,-187500.02235174447,1730328781.696849,1730328779.31433,4000
-28335.82053611524,-187500.02235174447,1248.2331691066229,-187500.02235174447,-187500.02235174447,-187500.02235174447,-187500.02235174447,-187500.02235174447,1730328781.7009716,1730328779.31433,4000
-28268.74295100486,-187500.02235174447,1215.554918712964,-187500.02235174447,-187500.02235174447,-187500.02235174447,-187500.02235174447,-187500.02235174447,1730328781.704843,1730328779.31433,4000
-28258.34938983314,-187500.02235174447,1179.523906651009,-187500.02235174447,-187500.02235174447,-187500.02235174447,-187500.02235174447,-187500.02235174447,1730328781.7090857,1730328779.31433,4000
-28381.10517038169,-187500.02235174447,1130.3724205937888,-187500.02235174447,-187500.02235174447,-187500.02235174447,-187500.02235174447,-187500.02235174447,1730328781.7128212,1730328779.31433,4000
-28322.431841186502,-187500.02235174447,1198.6346481602966,-187500.02235174447,-187500.02235174447,-187500.02235174447,-187500.02235174447,-187500.02235174447,1730328781.717054,1730328779.31433,4000
-28289.46301811493,-187500.02235174447,1225.4343897622098,-187500.02235174447,-187500.02235174447,-187500.02235174447,-187500.02235174447,-187500.02235174447,1730328781.7211063,1730328779.31433,4000
