Fp1,Fp2,C3,C4,P7,P8,O1,O2,time_board,time_marker,marker
-1107.7971586939286,-187500.02235174447,6149.166065355071,-187500.02235174447,-187500.02235174447,-187500.02235174447,-187500.02235174447,-187500.02235174447,1730330163.9743104,1730330163.973121,4000
-1038.573806115843,-187500.02235174447,6162.353594583702,-187500.02235174447,-187500.02235174447,-187500.02235174447,-187500.02235174447,-187500.02235174447,1730330163.978403,1730330163.973121,4000
-1072.59316117682,-187500.02235174447,6186.247609406425,-187500.02235174447,-187500.02235174447,-187500.02235174447,-187500.02235174447,-187500.02235174447,1730330163.9836557,1730330163.973121,4000
-1147.0021184685372,-187500.02235174447,6175.31760636778,-187500.02235174447,-187500.02235174447,-187500.02235174447,-187500.02235174447,-187500.02235174447,1730330163.9875476,1730330163.973121,4000
-1124.3374495908558,-187500.02235174447,6147.489684520922,-187500.02235174447,-187500.02235174447,-187500.02235174447,-187500.02235174447,-187500.02235174447,1730330163.9903953,1730330163.973121,4000
-1048.9450155431052,-187500.02235174447,6154.061097390783,-187500.02235174447,-187500.02235174447,-187500.02235174447,-187500.02235174447,-187500.02235174447,1730330163.9945333,1730330163.973121,4000
-1060.5679226598647,-187500.02235174447,6184.504173338911,-187500.02235174447,-187500.02235174447,-187500.02235174447,-187500.02235174447,-187500.02235174447,1730330163.9983456,1730330163.973121,4000
-1137.5696823083977,-187500.02235174447,6179.36327211419,-187500.02235174447,-187500.02235174447,-187500.02235174447,-187500.02235174447,-187500.02235174447,1730330164.0023413,1730330163.973121,4000
-1138.1955311531462,-187500.02235174447,6145.679193220043,-187500.02235174447,-187500.02235174447,-187500.02235174447,-187500.02235174447,-187500.02235174447,1730330164.0063572,1730330163.973121,4000
-1058.4445069366109,-187500.02235174447,6144.472199019457,-187500.02235174447,-187500.02235174447,-187500.02235174447,-187500.02235174447,-187500.02235174447,1730330164.0113628,1730330163.973121,4000
-1048.20740797608,-187500.02235174447,6173.641225533632,-187500.02235174447,-187500.02235174447,-187500.02235174447,-187500.02235174447,-187500.02235174447,1730330164.0153503,1730330163.973121,4000
-1120.4258943111772,-187500.02235174447,6182.246647148925,-187500.02235174447,-187500.02235174447,-187500.02235174447,-187500.02235174447,-187500.02235174447,1730330164.0185776,1730330163.973121,4000
-1137.7037927751294,-187500.02235174447,6152.138847367626,-187500.02235174447,-187500.02235174447,-187500.02235174447,-187500.02235174447,-187500.02235174447,1730330164.0224776,1730330163.973121,4000
-1061.6408063937197,-187500.02235174447,6142.25937631838,-187500.02235174447,-187500.02235174447,-187500.02235174447,-187500.02235174447,-187500.02235174447,1730330164.0266032,1730330163.973121,4000
-1035.8692450367505,-187500.02235174447,6166.421612074568,-187500.02235174447,-187500.02235174447,-187500.02235174447,-187500.02235174447,-187500.02235174447,1730330164.030589,1730330163.973121,4000
-1108.2888970719457,-187500.02235174447,6176.03286219035,-187500.02235174447,-187500.02235174447,-187500.02235174447,-187500.02235174447,-187500.02235174447,1730330164.034412,1730330163.973121,4000
-1148.1867609246683,-187500.02235174447,6146.327393809247,-187500.02235174447,-187500.02235174447,-187500.02235174447,-187500.02235174447,-187500.02235174447,1730330164.0393898,1730330163.973121,4000
-1080.952713603105,-187500.02235174447,6130.055323845783,-187500.02235174447,-187500.02235174447,-187500.02235174447,-187500.02235174447,-187500.02235174447,1730330164.0434136,1730330163.973121,4000
-1033.9246432691389,-187500.02235174447,6154.798704957808,-187500.02235174447,-187500.02235174447,-187500.02235174447,-187500.02235174447,-187500.02235174447,1730330164.0464015,1730330163.973121,4000
-1093.1344143312472,-187500.02235174447,6173.864742978185,-187500.02235174447,-187500.02235174447,-187500.02235174447,-187500.02235174447,-187500.02235174447,1730330164.0504098,1730330163.973121,4000
-1149.4161068697103,-187500.02235174447,6149.166065355071,-187500.02235174447,-187500.02235174447,-187500.02235174447,-187500.02235174447,-187500.02235174447,1730330164.0544283,1730330163.973121,4000
-1095.950734132616,-187500.02235174447,6125.562623210267,-187500.02235174447,-187500.02235174447,-187500.02235174447,-187500.02235174447,-187500.02235174447,1730330164.0584211,1730330163.973121,4000
-1035.5786723588317,-187500.02235174447,6141.789989684819,-187500.02235174447,-187500.02235174447,-187500.02235174447,-187500.02235174447,-187500.02235174447,1730330164.062432,1730330163.973121,4000
-1082.9420188596273,-187500.02235174447,6161.772449227864,-187500.02235174447,-187500.02235174447,-187500.02235174447,-187500.02235174447,-187500.02235174447,1730330164.067445,1730330163.973121,4000
-1148.589092324864,-187500.02235174447,6147.512036265378,-187500.02235174447,-187500.02235174447,-187500.02235174447,-187500.02235174447,-187500.02235174447,1730330164.0704548,1730330163.973121,4000
-1108.6465249832304,-187500.02235174447,6127.730742422431,-187500.02235174447,-187500.02235174447,-187500.02235174447,-187500.02235174447,-187500.02235174447,1730330164.0744202,1730330163.973121,4000
-1041.725402084041,-187500.02235174447,6134.659783203577,-187500.02235174447,-187500.02235174447,-187500.02235174447,-187500.02235174447,-187500.02235174447,1730330164.078441,1730330163.973121,4000
-1069.6650826531747,-187500.02235174447,6159.537274782333,-187500.02235174447,-187500.02235174447,-187500.02235174447,-187500.02235174447,-187500.02235174447,1730330164.0824428,1730330163.973121,4000
-1142.196493410646,-187500.02235174447,6150.507170022389,-187500.02235174447,-187500.02235174447,-187500.02235174447,-187500.02235174447,-187500.02235174447,1730330164.0864544,1730330163.973121,4000
-1127.399638581233,-187500.02235174447,6117.180719039527,-187500.02235174447,-187500.02235174447,-187500.02235174447,-187500.02235174447,-187500.02235174447,1730330164.09047,1730330163.973121,4000
-1049.8390853213175,-187500.02235174447,6121.785178397319,-187500.02235174447,-187500.02235174447,-187500.02235174447,-187500.02235174447,-187500.02235174447,1730330164.0954914,1730330163.973121,4000
-1052.789515589418,-187500.02235174447,6155.089277635727,-187500.02235174447,-187500.02235174447,-187500.02235174447,-187500.02235174447,-187500.02235174447,1730330164.098481,1730330163.973121,4000
-1134.9992316960374,-187500.02235174447,6151.26712933387,-187500.02235174447,-187500.02235174447,-187500.02235174447,-187500.02235174447,-187500.02235174447,1730330164.1016195,1730330163.973121,4000
-1137.3461648638445,-187500.02235174447,6124.199166798493,-187500.02235174447,-187500.02235174447,-187500.02235174447,-187500.02235174447,-187500.02235174447,1730330164.1064968,1730330163.973121,4000
-1062.1325447717363,-187500.02235174447,6119.058265573772,-187500.02235174447,-187500.02235174447,-187500.02235174447,-187500.02235174447,-187500.02235174447,1730330164.1104984,1730330163.973121,4000
-1046.4416201641106,-187500.02235174447,6151.26712933387,-187500.02235174447,-187500.02235174447,-187500.02235174447,-187500.02235174447,-187500.02235174447,1730330164.114494,1730330163.973121,4000
-1119.0177344104927,-187500.02235174447,6161.101896894204,-187500.02235174447,-187500.02235174447,-187500.02235174447,-187500.02235174447,-187500.02235174447,1730330164.118648,1730330163.973121,4000
-1144.006984711526,-187500.02235174447,6129.094198834205,-187500.02235174447,-187500.02235174447,-187500.02235174447,-187500.02235174447,-187500.02235174447,1730330164.12278,1730330163.973121,4000
-1074.5824664333422,-187500.02235174447,6114.87848936063,-187500.02235174447,-187500.02235174447,-187500.02235174447,-187500.02235174447,-187500.02235174447,1730330164.1267552,1730330163.973121,4000
-1043.2676724514572,-187500.02235174447,6142.6617077185765,-187500.02235174447,-187500.02235174447,-187500.02235174447,-187500.02235174447,-187500.02235174447,1730330164.1297612,1730330163.973121,4000
-1113.943888419138,-187500.02235174447,6156.966824169973,-187500.02235174447,-187500.02235174447,-187500.02235174447,-187500.02235174447,-187500.02235174447,1730330164.1347525,1730330163.973121,4000
-1146.8009527684394,-187500.02235174447,6138.97366988345,-187500.02235174447,-187500.02235174447,-187500.02235174447,-187500.02235174447,-187500.02235174447,1730330164.1387312,1730330163.973121,4000
-1076.9293996011495,-187500.02235174447,6124.400332498591,-187500.02235174447,-187500.02235174447,-187500.02235174447,-187500.02235174447,-187500.02235174447,1730330164.1427577,1730330163.973121,4000
-1029.0966664667924,-187500.02235174447,6146.483856020433,-187500.02235174447,-187500.02235174447,-187500.02235174447,-187500.02235174447,-187500.02235174447,1730330164.1467276,1730330163.973121,4000
-1089.111100329292,-187500.02235174447,6181.062004692794,-187500.02235174447,-187500.02235174447,-187500.02235174447,-187500.02235174447,-187500.02235174447,1730330164.1507816,1730330163.973121,4000
-1145.4374963566656,-187500.02235174447,6178.916237225085,-187500.02235174447,-187500.02235174447,-187500.02235174447,-187500.02235174447,-187500.02235174447,1730330164.154772,1730330163.973121,4000
-1090.8768881412611,-187500.02235174447,6150.037783388828,-187500.02235174447,-187500.02235174447,-187500.02235174447,-187500.02235174447,-187500.02235174447,1730330164.157817,1730330163.973121,4000
-1017.9431459835944,-187500.02235174447,6141.231196073437,-187500.02235174447,-187500.02235174447,-187500.02235174447,-187500.02235174447,-187500.02235174447,1730330164.162795,1730330163.973121,4000
-1063.5183529279657,-187500.02235174447,6160.02901316035,-187500.02235174447,-187500.02235174447,-187500.02235174447,-187500.02235174447,-187500.02235174447,1730330164.1668143,1730330163.973121,4000
-1139.0896009313583,-187500.02235174447,6156.206864858493,-187500.02235174447,-187500.02235174447,-187500.02235174447,-187500.02235174447,-187500.02235174447,1730330164.1706269,1730330163.973121,4000
-1110.725237217574,-187500.02235174447,6136.179701826537,-187500.02235174447,-187500.02235174447,-187500.02235174447,-187500.02235174447,-187500.02235174447,1730330164.1748505,1730330163.973121,4000
-1034.8634165362616,-187500.02235174447,6119.63941092961,-187500.02235174447,-187500.02235174447,-187500.02235174447,-187500.02235174447,-187500.02235174447,1730330164.1788287,1730330163.973121,4000
-1058.1315825142362,-187500.02235174447,6128.848329645197,-187500.02235174447,-187500.02235174447,-187500.02235174447,-187500.02235174447,-187500.02235174447,1730330164.1828434,1730330163.973121,4000
-1132.6522985282302,-187500.02235174447,6147.243815331914,-187500.02235174447,-187500.02235174447,-187500.02235174447,-187500.02235174447,-187500.02235174447,1730330164.1858494,1730330163.973121,4000
-1116.9390221761491,-187500.02235174447,6132.73753318042,-187500.02235174447,-187500.02235174447,-187500.02235174447,-187500.02235174447,-187500.02235174447,1730330164.189726,1730330163.973121,4000
-1041.568939872854,-187500.02235174447,6124.73560866542,-187500.02235174447,-187500.02235174447,-187500.02235174447,-187500.02235174447,-187500.02235174447,1730330164.1946585,1730330163.973121,4000
-1044.4746666520437,-187500.02235174447,6132.290498291314,-187500.02235174447,-187500.02235174447,-187500.02235174447,-187500.02235174447,-187500.02235174447,1730330164.1987188,1730330163.973121,4000
-1122.4375513121547,-187500.02235174447,6133.16221632507,-187500.02235174447,-187500.02235174447,-187500.02235174447,-187500.02235174447,-187500.02235174447,1730330164.2028413,1730330163.973121,4000
-1133.74753400654,-187500.02235174447,6105.043721800294,-187500.02235174447,-187500.02235174447,-187500.02235174447,-187500.02235174447,-187500.02235174447,1730330164.205886,1730330163.973121,4000
-1058.1539342586916,-187500.02235174447,6102.16034676556,-187500.02235174447,-187500.02235174447,-187500.02235174447,-187500.02235174447,-187500.02235174447,1730330164.2099097,1730330163.973121,4000
-1039.8925590387057,-187500.02235174447,6137.9678413829615,-187500.02235174447,-187500.02235174447,-187500.02235174447,-187500.02235174447,-187500.02235174447,1730330164.2139385,1730330163.973121,4000
-1111.4181412956884,-187500.02235174447,6162.353594583702,-187500.02235174447,-187500.02235174447,-187500.02235174447,-187500.02235174447,-187500.02235174447,1730330164.218001,1730330163.973121,4000
-1133.434609584166,-187500.02235174447,6181.598446559721,-187500.02235174447,-187500.02235174447,-187500.02235174447,-187500.02235174447,-187500.02235174447,1730330164.2227275,1730330163.973121,4000
-1065.2170855065688,-187500.02235174447,6185.353539628213,-187500.02235174447,-187500.02235174447,-187500.02235174447,-187500.02235174447,-187500.02235174447,1730330164.226829,1730330163.973121,4000
-1024.7157245535525,-187500.02235174447,6188.0357489628495,-187500.02235174447,-187500.02235174447,-187500.02235174447,-187500.02235174447,-187500.02235174447,1730330164.231017,1730330163.973121,4000
-1087.3229607728674,-187500.02235174447,6208.375836417179,-187500.02235174447,-187500.02235174447,-187500.02235174447,-187500.02235174447,-187500.02235174447,1730330164.233946,1730330163.973121,4000
-1125.5667955358977,-187500.02235174447,6217.115368499204,-187500.02235174447,-187500.02235174447,-187500.02235174447,-187500.02235174447,-187500.02235174447,1730330164.2379751,1730330163.973121,4000
-1075.722405400563,-187500.02235174447,6129.898861634596,-187500.02235174447,-187500.02235174447,-187500.02235174447,-187500.02235174447,-187500.02235174447,1730330164.241958,1730330163.973121,4000
-1042.530064884432,-187500.02235174447,6085.709462846454,-187500.02235174447,-187500.02235174447,-187500.02235174447,-187500.02235174447,-187500.02235174447,1730330164.245997,1730330163.973121,4000
-1084.0372543379372,-187500.02235174447,6144.807475186286,-187500.02235174447,-187500.02235174447,-187500.02235174447,-187500.02235174447,-187500.02235174447,1730330164.2509844,1730330163.973121,4000
-1119.665934999697,-187500.02235174447,6163.672347506565,-187500.02235174447,-187500.02235174447,-187500.02235174447,-187500.02235174447,-187500.02235174447,1730330164.2549777,1730330163.973121,4000
-1085.3113037718897,-187500.02235174447,6142.16996934056,-187500.02235174447,-187500.02235174447,-187500.02235174447,-187500.02235174447,-187500.02235174447,1730330164.2588918,1730330163.973121,4000
-1038.663213093664,-187500.02235174447,6134.100989592193,-187500.02235174447,-187500.02235174447,-187500.02235174447,-187500.02235174447,-187500.02235174447,1730330164.2618172,1730330163.973121,4000
-1056.2540359799905,-187500.02235174447,6152.183550856537,-187500.02235174447,-187500.02235174447,-187500.02235174447,-187500.02235174447,-187500.02235174447,1730330164.2659564,1730330163.973121,4000
-1119.4200658106884,-187500.02235174447,6101.668608387543,-187500.02235174447,-187500.02235174447,-187500.02235174447,-187500.02235174447,-187500.02235174447,1730330164.2699585,1730330163.973121,4000
-1081.69032117013,-187500.02235174447,6059.379107878102,-187500.02235174447,-187500.02235174447,-187500.02235174447,-187500.02235174447,-187500.02235174447,1730330164.273845,1730330163.973121,4000
-1013.115169181248,-187500.02235174447,6057.188636921482,-187500.02235174447,-187500.02235174447,-187500.02235174447,-187500.02235174447,-187500.02235174447,1730330164.2780735,1730330163.973121,4000
-1048.0956492538037,-187500.02235174447,6108.597649168689,-187500.02235174447,-187500.02235174447,-187500.02235174447,-187500.02235174447,-187500.02235174447,1730330164.2828395,1730330163.973121,4000
-1120.6494117557302,-187500.02235174447,6121.315791763758,-187500.02235174447,-187500.02235174447,-187500.02235174447,-187500.02235174447,-187500.02235174447,1730330164.2870104,1730330163.973121,4000
-1111.5746035068755,-187500.02235174447,6107.815338112752,-187500.02235174447,-187500.02235174447,-187500.02235174447,-187500.02235174447,-187500.02235174447,1730330164.2898932,1730330163.973121,4000
-1040.429000905633,-187500.02235174447,6152.049440389806,-187500.02235174447,-187500.02235174447,-187500.02235174447,-187500.02235174447,-187500.02235174447,1730330164.2941206,1730330163.973121,4000
-1054.0412132789152,-187500.02235174447,6221.853938323729,-187500.02235174447,-187500.02235174447,-187500.02235174447,-187500.02235174447,-187500.02235174447,1730330164.2978723,1730330163.973121,4000
-1124.5386152909537,-187500.02235174447,6179.787955258841,-187500.02235174447,-187500.02235174447,-187500.02235174447,-187500.02235174447,-187500.02235174447,1730330164.3020864,1730330163.973121,4000
-1102.7680161914843,-187500.02235174447,6064.028270724806,-187500.02235174447,-187500.02235174447,-187500.02235174447,-187500.02235174447,-187500.02235174447,1730330164.3060565,1730330163.973121,4000
-1038.01501250446,-187500.02235174447,6044.001107692851,-187500.02235174447,-187500.02235174447,-187500.02235174447,-187500.02235174447,-187500.02235174447,1730330164.3111644,1730330163.973121,4000
-1029.7672188004517,-187500.02235174447,6091.051529771273,-187500.02235174447,-187500.02235174447,-187500.02235174447,-187500.02235174447,-187500.02235174447,1730330164.314311,1730330163.973121,4000
-1091.212164308091,-187500.02235174447,6119.371189996146,-187500.02235174447,-187500.02235174447,-187500.02235174447,-187500.02235174447,-187500.02235174447,1730330164.318112,1730330163.973121,4000
-1132.3170223614004,-187500.02235174447,6109.312904991259,-187500.02235174447,-187500.02235174447,-187500.02235174447,-187500.02235174447,-187500.02235174447,1730330164.3270552,1730330163.973121,4000
-1059.5844459038312,-187500.02235174447,6115.124358549638,-187500.02235174447,-187500.02235174447,-187500.02235174447,-187500.02235174447,-187500.02235174447,1730330164.3270824,1730330163.973121,4000
-1009.1365586682032,-187500.02235174447,6116.823091128242,-187500.02235174447,-187500.02235174447,-187500.02235174447,-187500.02235174447,-187500.02235174447,1730330164.3300166,1730330163.973121,4000
-1057.1928092471137,-187500.02235174447,6110.698713147487,-187500.02235174447,-187500.02235174447,-187500.02235174447,-187500.02235174447,-187500.02235174447,1730330164.3341742,1730330163.973121,4000
-1124.4492083131324,-187500.02235174447,6045.029287937795,-187500.02235174447,-187500.02235174447,-187500.02235174447,-187500.02235174447,-187500.02235174447,1730330164.3409336,1730330163.973121,4000
-1086.0936148278254,-187500.02235174447,6034.836892466175,-187500.02235174447,-187500.02235174447,-187500.02235174447,-187500.02235174447,-187500.02235174447,1730330164.3419473,1730330163.973121,4000
-1059.3832802037336,-187500.02235174447,6099.232268241914,-187500.02235174447,-187500.02235174447,-187500.02235174447,-187500.02235174447,-187500.02235174447,1730330164.35457,1730330163.973121,4000
-1086.9653328615825,-187500.02235174447,6162.9123881950845,-187500.02235174447,-187500.02235174447,-187500.02235174447,-187500.02235174447,-187500.02235174447,1730330164.354586,1730330163.973121,4000
-1109.7194087170851,-187500.02235174447,6151.803571200797,-187500.02235174447,-187500.02235174447,-187500.02235174447,-187500.02235174447,-187500.02235174447,1730330164.3545902,1730330163.973121,4000
-1087.0547398394035,-187500.02235174447,6037.317936100714,-187500.02235174447,-187500.02235174447,-187500.02235174447,-187500.02235174447,-187500.02235174447,1730330164.3579044,1730330163.973121,4000
-1022.9946402304936,-187500.02235174447,6075.628826097111,-187500.02235174447,-187500.02235174447,-187500.02235174447,-187500.02235174447,-187500.02235174447,1730330164.361924,1730330163.973121,4000
-1033.5223118689432,-187500.02235174447,6065.8834655145965,-187500.02235174447,-187500.02235174447,-187500.02235174447,-187500.02235174447,-187500.02235174447,1730330164.3670907,1730330163.973121,4000
-1109.6970569726298,-187500.02235174447,5969.145115512028,-187500.02235174447,-187500.02235174447,-187500.02235174447,-187500.02235174447,-187500.02235174447,1730330164.3700917,1730330163.973121,4000
-1117.3413535763448,-187500.02235174447,5976.074156293173,-187500.02235174447,-187500.02235174447,-187500.02235174447,-187500.02235174447,-187500.02235174447,1730330164.3739712,1730330163.973121,4000
-1060.299701726401,-187500.02235174447,6005.869031652097,-187500.02235174447,-187500.02235174447,-187500.02235174447,-187500.02235174447,-187500.02235174447,1730330164.3779523,1730330163.973121,4000
-1043.1559137291806,-187500.02235174447,6059.7814392782975,-187500.02235174447,-187500.02235174447,-187500.02235174447,-187500.02235174447,-187500.02235174447,1730330164.382009,1730330163.973121,4000
-1116.469635542588,-187500.02235174447,5996.771871658787,-187500.02235174447,-187500.02235174447,-187500.02235174447,-187500.02235174447,-187500.02235174447,1730330164.3859327,1730330163.973121,4000
-1121.9905164230486,-187500.02235174447,5959.489161907335,-187500.02235174447,-187500.02235174447,-187500.02235174447,-187500.02235174447,-187500.02235174447,1730330164.3899891,1730330163.973121,4000
-1061.752565115996,-187500.02235174447,5991.89919136753,-187500.02235174447,-187500.02235174447,-187500.02235174447,-187500.02235174447,-187500.02235174447,1730330164.3949783,1730330163.973121,4000
-1080.3492165028115,-187500.02235174447,6027.505520284834,-187500.02235174447,-187500.02235174447,-187500.02235174447,-187500.02235174447,-187500.02235174447,1730330164.400385,1730330163.973121,4000
-1134.976879951582,-187500.02235174447,6064.274139913815,-187500.02235174447,-187500.02235174447,-187500.02235174447,-187500.02235174447,-187500.02235174447,1730330164.4029825,1730330163.973121,4000
-1097.917687644683,-187500.02235174447,6114.520861449345,-187500.02235174447,-187500.02235174447,-187500.02235174447,-187500.02235174447,-187500.02235174447,1730330164.4059885,1730330163.973121,4000
-1029.5437013558983,-187500.02235174447,6031.439427308968,-187500.02235174447,-187500.02235174447,-187500.02235174447,-187500.02235174447,-187500.02235174447,1730330164.4101844,1730330163.973121,4000
-1053.8623993232727,-187500.02235174447,5970.843848090631,-187500.02235174447,-187500.02235174447,-187500.02235174447,-187500.02235174447,-187500.02235174447,1730330164.4141,1730330163.973121,4000
-1117.4084088097106,-187500.02235174447,5971.156772513005,-187500.02235174447,-187500.02235174447,-187500.02235174447,-187500.02235174447,-187500.02235174447,1730330164.41821,1730330163.973121,4000
-1139.201359653635,-187500.02235174447,5938.769094797265,-187500.02235174447,-187500.02235174447,-187500.02235174447,-187500.02235174447,-187500.02235174447,1730330164.4237492,1730330163.973121,4000
-1086.7641671614847,-187500.02235174447,5899.206507111372,-187500.02235174447,-187500.02235174447,-187500.02235174447,-187500.02235174447,-187500.02235174447,1730330164.4290924,1730330163.973121,4000
-1039.177303216136,-187500.02235174447,5910.695303761399,-187500.02235174447,-187500.02235174447,-187500.02235174447,-187500.02235174447,-187500.02235174447,1730330164.429108,1730330163.973121,4000
-1060.5008674264989,-187500.02235174447,5983.13730754105,-187500.02235174447,-187500.02235174447,-187500.02235174447,-187500.02235174447,-187500.02235174447,1730330164.434072,1730330163.973121,4000
-1127.7349147480625,-187500.02235174447,6006.09254909665,-187500.02235174447,-187500.02235174447,-187500.02235174447,-187500.02235174447,-187500.02235174447,1730330164.4381132,1730330163.973121,4000
-1088.7311206735517,-187500.02235174447,5952.671879848466,-187500.02235174447,-187500.02235174447,-187500.02235174447,-187500.02235174447,-187500.02235174447,1730330164.4421215,1730330163.973121,4000
-1026.2132914320578,-187500.02235174447,5936.958603496386,-187500.02235174447,-187500.02235174447,-187500.02235174447,-187500.02235174447,-187500.02235174447,1730330164.4460368,1730330163.973121,4000
-1070.5815041758424,-187500.02235174447,5886.845992427587,-187500.02235174447,-187500.02235174447,-187500.02235174447,-187500.02235174447,-187500.02235174447,1730330164.4510908,1730330163.973121,4000
-1170.5608571244309,-187500.02235174447,5859.979195592308,-187500.02235174447,-187500.02235174447,-187500.02235174447,-187500.02235174447,-187500.02235174447,1730330164.4541245,1730330163.973121,4000
-1174.271246704012,-187500.02235174447,5883.225009825827,-187500.02235174447,-187500.02235174447,-187500.02235174447,-187500.02235174447,-187500.02235174447,1730330164.4571064,1730330163.973121,4000
-1089.111100329292,-187500.02235174447,5926.922670235953,-187500.02235174447,-187500.02235174447,-187500.02235174447,-187500.02235174447,-187500.02235174447,1730330164.4621725,1730330163.973121,4000
-1033.8575880357728,-187500.02235174447,5970.173295756972,-187500.02235174447,-187500.02235174447,-187500.02235174447,-187500.02235174447,-187500.02235174447,1730330164.4662857,1730330163.973121,4000
-1106.0537226264146,-187500.02235174447,5934.566966839668,-187500.02235174447,-187500.02235174447,-187500.02235174447,-187500.02235174447,-187500.02235174447,1730330164.4700875,1730330163.973121,4000
-1141.168313165702,-187500.02235174447,5837.247471481261,-187500.02235174447,-187500.02235174447,-187500.02235174447,-187500.02235174447,-187500.02235174447,1730330164.477822,1730330163.973121,4000
-1080.304513013901,-187500.02235174447,5861.029727581707,-187500.02235174447,-187500.02235174447,-187500.02235174447,-187500.02235174447,-187500.02235174447,1730330164.4788387,1730330163.973121,4000
-1070.1121175422809,-187500.02235174447,5894.847916942587,-187500.02235174447,-187500.02235174447,-187500.02235174447,-187500.02235174447,-187500.02235174447,1730330164.481127,1730330163.973121,4000
-1122.1246268897803,-187500.02235174447,5798.556601829124,-187500.02235174447,-187500.02235174447,-187500.02235174447,-187500.02235174447,-187500.02235174447,1730330164.4851096,1730330163.973121,4000
-1115.329696575367,-187500.02235174447,5765.699537479823,-187500.02235174447,-187500.02235174447,-187500.02235174447,-187500.02235174447,-187500.02235174447,1730330164.4901364,1730330163.973121,4000
-1033.0082217464712,-187500.02235174447,5790.599380803034,-187500.02235174447,-187500.02235174447,-187500.02235174447,-187500.02235174447,-187500.02235174447,1730330164.494171,1730330163.973121,4000
-1032.91881476865,-187500.02235174447,5795.829689005576,-187500.02235174447,-187500.02235174447,-187500.02235174447,-187500.02235174447,-187500.02235174447,1730330164.4982145,1730330163.973121,4000
-1107.238365082546,-187500.02235174447,5831.190148733873,-187500.02235174447,-187500.02235174447,-187500.02235174447,-187500.02235174447,-187500.02235174447,1730330164.5063334,1730330163.973121,4000
-1145.4374963566656,-187500.02235174447,5784.519706311191,-187500.02235174447,-187500.02235174447,-187500.02235174447,-187500.02235174447,-187500.02235174447,1730330164.506349,1730330163.973121,4000
-1075.6106466782865,-187500.02235174447,5740.486769734236,-187500.02235174447,-187500.02235174447,-187500.02235174447,-187500.02235174447,-187500.02235174447,1730330164.5101795,1730330163.973121,4000
-1045.3910881747113,-187500.02235174447,5779.289398108649,-187500.02235174447,-187500.02235174447,-187500.02235174447,-187500.02235174447,-187500.02235174447,1730330164.513725,1730330163.973121,4000
-1115.8437866978393,-187500.02235174447,5852.357250733048,-187500.02235174447,-187500.02235174447,-187500.02235174447,-187500.02235174447,-187500.02235174447,1730330164.5182931,1730330163.973121,4000
-1161.9330837646824,-187500.02235174447,5807.653761822434,-187500.02235174447,-187500.02235174447,-187500.02235174447,-187500.02235174447,-187500.02235174447,1730330164.5221956,1730330163.973121,4000
-1085.3113037718897,-187500.02235174447,5758.345813554027,-187500.02235174447,-187500.02235174447,-187500.02235174447,-187500.02235174447,-187500.02235174447,1730330164.5263815,1730330163.973121,4000
-1051.11313475527,-187500.02235174447,5762.167961855885,-187500.02235174447,-187500.02235174447,-187500.02235174447,-187500.02235174447,-187500.02235174447,1730330164.530377,1730330163.973121,4000
-1096.7777486774623,-187500.02235174447,5788.163040657407,-187500.02235174447,-187500.02235174447,-187500.02235174447,-187500.02235174447,-187500.02235174447,1730330164.533362,1730330163.973121,4000
-1143.9846329670709,-187500.02235174447,5704.254591972183,-187500.02235174447,-187500.02235174447,-187500.02235174447,-187500.02235174447,-187500.02235174447,1730330164.5373747,1730330163.973121,4000
-1085.110138071792,-187500.02235174447,5695.090376745508,-187500.02235174447,-187500.02235174447,-187500.02235174447,-187500.02235174447,-187500.02235174447,1730330164.5413969,1730330163.973121,4000
-1013.2939831368903,-187500.02235174447,5738.5198162221695,-187500.02235174447,-187500.02235174447,-187500.02235174447,-187500.02235174447,-187500.02235174447,1730330164.5454292,1730330163.973121,4000
-1076.616475178775,-187500.02235174447,5865.7235939173215,-187500.02235174447,-187500.02235174447,-187500.02235174447,-187500.02235174447,-187500.02235174447,1730330164.550472,1730330163.973121,4000
-1151.628929570786,-187500.02235174447,5881.839201669598,-187500.02235174447,-187500.02235174447,-187500.02235174447,-187500.02235174447,-187500.02235174447,1730330164.554406,1730330163.973121,4000
-1125.7009060026296,-187500.02235174447,5683.22160043974,-187500.02235174447,-187500.02235174447,-187500.02235174447,-187500.02235174447,-187500.02235174447,1730330164.5584693,1730330163.973121,4000
-1037.8809020377282,-187500.02235174447,5603.716445412212,-187500.02235174447,-187500.02235174447,-187500.02235174447,-187500.02235174447,-187500.02235174447,1730330164.5614684,1730330163.973121,4000
-1028.560224599865,-187500.02235174447,5609.594954203958,-187500.02235174447,-187500.02235174447,-187500.02235174447,-187500.02235174447,-187500.02235174447,1730330164.565388,1730330163.973121,4000
-1121.007039667015,-187500.02235174447,5674.906751502365,-187500.02235174447,-187500.02235174447,-187500.02235174447,-187500.02235174447,-187500.02235174447,1730330164.569332,1730330163.973121,4000
-1120.8282257113726,-187500.02235174447,5669.207056666262,-187500.02235174447,-187500.02235174447,-187500.02235174447,-187500.02235174447,-187500.02235174447,1730330164.5732768,1730330163.973121,4000
-1014.3445151262898,-187500.02235174447,5647.92819594481,-187500.02235174447,-187500.02235174447,-187500.02235174447,-187500.02235174447,-187500.02235174447,1730330164.5785427,1730330163.973121,4000
-1000.4864335639994,-187500.02235174447,5643.97193717622,-187500.02235174447,-187500.02235174447,-187500.02235174447,-187500.02235174447,-187500.02235174447,1730330164.5823853,1730330163.973121,4000
-1123.599842023831,-187500.02235174447,5655.840713481988,-187500.02235174447,-187500.02235174447,-187500.02235174447,-187500.02235174447,-187500.02235174447,1730330164.58543,1730330163.973121,4000
-1127.8019699814286,-187500.02235174447,5624.995306133665,-187500.02235174447,-187500.02235174447,-187500.02235174447,-187500.02235174447,-187500.02235174447,1730330164.5894396,1730330163.973121,4000
-1046.307509697379,-187500.02235174447,5635.344163816472,-187500.02235174447,-187500.02235174447,-187500.02235174447,-187500.02235174447,-187500.02235174447,1730330164.5935383,1730330163.973121,4000
-1024.4475036200886,-187500.02235174447,5649.492818056681,-187500.02235174447,-187500.02235174447,-187500.02235174447,-187500.02235174447,-187500.02235174447,1730330164.5976005,1730330163.973121,4000
-1114.3238680748782,-187500.02235174447,5720.884289846932,-187500.02235174447,-187500.02235174447,-187500.02235174447,-187500.02235174447,-187500.02235174447,1730330164.6015048,1730330163.973121,4000
-1151.9642057376154,-187500.02235174447,5676.896056758887,-187500.02235174447,-187500.02235174447,-187500.02235174447,-187500.02235174447,-187500.02235174447,1730330164.6056385,1730330163.973121,4000
-1058.1315825142362,-187500.02235174447,5650.9456814462765,-187500.02235174447,-187500.02235174447,-187500.02235174447,-187500.02235174447,-187500.02235174447,1730330164.6106546,1730330163.973121,4000
-1014.0315907039156,-187500.02235174447,5706.199193739795,-187500.02235174447,-187500.02235174447,-187500.02235174447,-187500.02235174447,-187500.02235174447,1730330164.6136148,1730330163.973121,4000
-1098.5658882338869,-187500.02235174447,5639.501588285159,-187500.02235174447,-187500.02235174447,-187500.02235174447,-187500.02235174447,-187500.02235174447,1730330164.6175587,1730330163.973121,4000
-1152.9700342381043,-187500.02235174447,5586.282084737073,-187500.02235174447,-187500.02235174447,-187500.02235174447,-187500.02235174447,-187500.02235174447,1730330164.6216652,1730330163.973121,4000
-1101.7398359465403,-187500.02235174447,5619.16150083083,-187500.02235174447,-187500.02235174447,-187500.02235174447,-187500.02235174447,-187500.02235174447,1730330164.625514,1730330163.973121,4000
-1032.784704301918,-187500.02235174447,5674.9514549912765,-187500.02235174447,-187500.02235174447,-187500.02235174447,-187500.02235174447,-187500.02235174447,1730330164.6296868,1730330163.973121,4000
-1087.658236939697,-187500.02235174447,5682.059309728063,-187500.02235174447,-187500.02235174447,-187500.02235174447,-187500.02235174447,-187500.02235174447,1730330164.6337247,1730330163.973121,4000
-1142.8670457443054,-187500.02235174447,5600.318980255006,-187500.02235174447,-187500.02235174447,-187500.02235174447,-187500.02235174447,-187500.02235174447,1730330164.6386237,1730330163.973121,4000
-1087.367664261778,-187500.02235174447,5562.209255958707,-187500.02235174447,-187500.02235174447,-187500.02235174447,-187500.02235174447,-187500.02235174447,1730330164.6417973,1730330163.973121,4000
-1033.4552566355774,-187500.02235174447,5586.930285326277,-187500.02235174447,-187500.02235174447,-187500.02235174447,-187500.02235174447,-187500.02235174447,1730330164.6458917,1730330163.973121,4000
-1052.0742597668482,-187500.02235174447,5581.811735846011,-187500.02235174447,-187500.02235174447,-187500.02235174447,-187500.02235174447,-187500.02235174447,1730330164.649658,1730330163.973121,4000
-1119.241251855046,-187500.02235174447,5594.105195296431,-187500.02235174447,-187500.02235174447,-187500.02235174447,-187500.02235174447,-187500.02235174447,1730330164.6537216,1730330163.973121,4000
-1097.1800800776575,-187500.02235174447,5557.8506657899225,-187500.02235174447,-187500.02235174447,-187500.02235174447,-187500.02235174447,-187500.02235174447,1730330164.65757,1730330163.973121,4000
-1046.5533788863872,-187500.02235174447,5607.113910569419,-187500.02235174447,-187500.02235174447,-187500.02235174447,-187500.02235174447,-187500.02235174447,1730330164.6615753,1730330163.973121,4000
-1069.396861719711,-187500.02235174447,5615.898146140355,-187500.02235174447,-187500.02235174447,-187500.02235174447,-187500.02235174447,-187500.02235174447,1730330164.6665995,1730330163.973121,4000
-1125.320926346889,-187500.02235174447,5619.92146014231,-187500.02235174447,-187500.02235174447,-187500.02235174447,-187500.02235174447,-187500.02235174447,1730330164.669577,1730330163.973121,4000
-1124.0915804018475,-187500.02235174447,5558.565921612492,-187500.02235174447,-187500.02235174447,-187500.02235174447,-187500.02235174447,-187500.02235174447,1730330164.6734877,1730330163.973121,4000
-1044.6758323521417,-187500.02235174447,5527.876976475355,-187500.02235174447,-187500.02235174447,-187500.02235174447,-187500.02235174447,-187500.02235174447,1730330164.67754,1730330163.973121,4000
-1014.0315907039156,-187500.02235174447,5547.211235429196,-187500.02235174447,-187500.02235174447,-187500.02235174447,-187500.02235174447,-187500.02235174447,1730330164.6816204,1730330163.973121,4000
-1107.4842342715544,-187500.02235174447,5564.8914652933445,-187500.02235174447,-187500.02235174447,-187500.02235174447,-187500.02235174447,-187500.02235174447,1730330164.6857195,1730330163.973121,4000
-1138.8660834868056,-187500.02235174447,5555.235511688651,-187500.02235174447,-187500.02235174447,-187500.02235174447,-187500.02235174447,-187500.02235174447,1730330164.6895957,1730330163.973121,4000
-1081.2879897699345,-187500.02235174447,5559.638805346347,-187500.02235174447,-187500.02235174447,-187500.02235174447,-187500.02235174447,-187500.02235174447,1730330164.6934872,1730330163.973121,4000
-1063.1607250166803,-187500.02235174447,5616.68045719629,-187500.02235174447,-187500.02235174447,-187500.02235174447,-187500.02235174447,-187500.02235174447,1730330164.6967795,1730330163.973121,4000
-1129.7689234934955,-187500.02235174447,5637.556986517548,-187500.02235174447,-187500.02235174447,-187500.02235174447,-187500.02235174447,-187500.02235174447,1730330164.7016304,1730330163.973121,4000
-1139.9389672206603,-187500.02235174447,5521.953764194699,-187500.02235174447,-187500.02235174447,-187500.02235174447,-187500.02235174447,-187500.02235174447,1730330164.7056656,1730330163.973121,4000
-1047.4474486645995,-187500.02235174447,5512.476624545649,-187500.02235174447,-187500.02235174447,-187500.02235174447,-187500.02235174447,-187500.02235174447,1730330164.7097056,1730330163.973121,4000
-1022.1899774301024,-187500.02235174447,5577.989587544154,-187500.02235174447,-187500.02235174447,-187500.02235174447,-187500.02235174447,-187500.02235174447,1730330164.7138028,1730330163.973121,4000
-1117.2072431096128,-187500.02235174447,5677.83483002601,-187500.02235174447,-187500.02235174447,-187500.02235174447,-187500.02235174447,-187500.02235174447,1730330164.717723,1730330163.973121,4000
-1171.4549269026431,-187500.02235174447,5520.523252549559,-187500.02235174447,-187500.02235174447,-187500.02235174447,-187500.02235174447,-187500.02235174447,1730330164.72175,1730330163.973121,4000
-1057.0586987803815,-187500.02235174447,5427.472940382117,-187500.02235174447,-187500.02235174447,-187500.02235174447,-187500.02235174447,-187500.02235174447,1730330164.7247455,1730330163.973121,4000
-1004.2415266324912,-187500.02235174447,5462.31930998794,-187500.02235174447,-187500.02235174447,-187500.02235174447,-187500.02235174447,-187500.02235174447,1730330164.728789,1730330163.973121,4000
-1056.231684235535,-187500.02235174447,5510.800243711501,-187500.02235174447,-187500.02235174447,-187500.02235174447,-187500.02235174447,-187500.02235174447,1730330164.7337868,1730330163.973121,4000
-1121.521129789487,-187500.02235174447,5498.819708683456,-187500.02235174447,-187500.02235174447,-187500.02235174447,-187500.02235174447,-187500.02235174447,1730330164.7375853,1730330163.973121,4000
-1072.7943268769177,-187500.02235174447,5579.643616633847,-187500.02235174447,-187500.02235174447,-187500.02235174447,-187500.02235174447,-187500.02235174447,1730330164.7418213,1730330163.973121,4000
-1019.5524715843763,-187500.02235174447,5518.042208915021,-187500.02235174447,-187500.02235174447,-187500.02235174447,-187500.02235174447,-187500.02235174447,1730330164.7458253,1730330163.973121,4000
-1066.468783196066,-187500.02235174447,5424.522510114016,-187500.02235174447,-187500.02235174447,-187500.02235174447,-187500.02235174447,-187500.02235174447,1730330164.7498243,1730330163.973121,4000
-1139.8048567539283,-187500.02235174447,5480.111298574365,-187500.02235174447,-187500.02235174447,-187500.02235174447,-187500.02235174447,-187500.02235174447,1730330164.752846,1730330163.973121,4000
-1115.106179130814,-187500.02235174447,5441.643946366781,-187500.02235174447,-187500.02235174447,-187500.02235174447,-187500.02235174447,-187500.02235174447,1730330164.7565973,1730330163.973121,4000
-1019.1724919286362,-187500.02235174447,5432.278565440008,-187500.02235174447,-187500.02235174447,-187500.02235174447,-187500.02235174447,-187500.02235174447,1730330164.7618246,1730330163.973121,4000
-1037.7467915709965,-187500.02235174447,5458.608920408359,-187500.02235174447,-187500.02235174447,-187500.02235174447,-187500.02235174447,-187500.02235174447,1730330164.765838,1730330163.973121,4000
-1129.4112955822106,-187500.02235174447,5478.479621229127,-187500.02235174447,-187500.02235174447,-187500.02235174447,-187500.02235174447,-187500.02235174447,1730330164.7698653,1730330163.973121,4000
-1126.0361821694592,-187500.02235174447,5458.832437852912,-187500.02235174447,-187500.02235174447,-187500.02235174447,-187500.02235174447,-187500.02235174447,1730330164.7738929,1730330163.973121,4000
-1055.024690034949,-187500.02235174447,5453.289205227996,-187500.02235174447,-187500.02235174447,-187500.02235174447,-187500.02235174447,-187500.02235174447,1730330164.7769096,1730330163.973121,4000
-1045.6369573637196,-187500.02235174447,5476.1997432946855,-187500.02235174447,-187500.02235174447,-187500.02235174447,-187500.02235174447,-187500.02235174447,1730330164.7808197,1730330163.973121,4000
-1115.709676231107,-187500.02235174447,5480.51362997456,-187500.02235174447,-187500.02235174447,-187500.02235174447,-187500.02235174447,-187500.02235174447,1730330164.7848964,1730330163.973121,4000
-1145.2586824010232,-187500.02235174447,5461.872275098834,-187500.02235174447,-187500.02235174447,-187500.02235174447,-187500.02235174447,-187500.02235174447,1730330164.7896936,1730330163.973121,4000
-1081.2432862810238,-187500.02235174447,5464.643891411292,-187500.02235174447,-187500.02235174447,-187500.02235174447,-187500.02235174447,-187500.02235174447,1730330164.7938995,1730330163.973121,4000
-1034.72930606953,-187500.02235174447,5483.888743387312,-187500.02235174447,-187500.02235174447,-187500.02235174447,-187500.02235174447,-187500.02235174447,1730330164.7976785,1730330163.973121,4000
-1074.0236728219595,-187500.02235174447,5523.808958984489,-187500.02235174447,-187500.02235174447,-187500.02235174447,-187500.02235174447,-187500.02235174447,1730330164.801911,1730330163.973121,4000
-1130.5065310605207,-187500.02235174447,5432.725600329113,-187500.02235174447,-187500.02235174447,-187500.02235174447,-187500.02235174447,-187500.02235174447,1730330164.804907,1730330163.973121,4000
-1071.0061873204932,-187500.02235174447,5415.671219309714,-187500.02235174447,-187500.02235174447,-187500.02235174447,-187500.02235174447,-187500.02235174447,1730330164.8088045,1730330163.973121,4000
-1017.63022156122,-187500.02235174447,5456.261987240552,-187500.02235174447,-187500.02235174447,-187500.02235174447,-187500.02235174447,-187500.02235174447,1730330164.8128257,1730330163.973121,4000
-1060.791440104418,-187500.02235174447,5458.519513430538,-187500.02235174447,-187500.02235174447,-187500.02235174447,-187500.02235174447,-187500.02235174447,1730330164.816918,1730330163.973121,4000
-1124.5386152909537,-187500.02235174447,5473.115202559853,-187500.02235174447,-187500.02235174447,-187500.02235174447,-187500.02235174447,-187500.02235174447,1730330164.8218672,1730330163.973121,4000
-1078.8292978798506,-187500.02235174447,5418.867518766823,-187500.02235174447,-187500.02235174447,-187500.02235174447,-187500.02235174447,-187500.02235174447,1730330164.82591,1730330163.973121,4000
-1022.5476053413876,-187500.02235174447,5404.607105804337,-187500.02235174447,-187500.02235174447,-187500.02235174447,-187500.02235174447,-187500.02235174447,1730330164.8290024,1730330163.973121,4000
-1077.756414145996,-187500.02235174447,5444.661431868248,-187500.02235174447,-187500.02235174447,-187500.02235174447,-187500.02235174447,-187500.02235174447,1730330164.832925,1730330163.973121,4000
-1140.363650365311,-187500.02235174447,5423.628440335803,-187500.02235174447,-187500.02235174447,-187500.02235174447,-187500.02235174447,-187500.02235174447,1730330164.8367536,1730330163.973121,4000
-1094.654332954208,-187500.02235174447,5398.929762712689,-187500.02235174447,-187500.02235174447,-187500.02235174447,-187500.02235174447,-187500.02235174447,1730330164.8409555,1730330163.973121,4000
-1013.3163348813456,-187500.02235174447,5432.792655562479,-187500.02235174447,-187500.02235174447,-187500.02235174447,-187500.02235174447,-187500.02235174447,1730330164.8449695,1730330163.973121,4000
-1048.6097393762757,-187500.02235174447,5445.734315602103,-187500.02235174447,-187500.02235174447,-187500.02235174447,-187500.02235174447,-187500.02235174447,1730330164.8500514,1730330163.973121,4000
-1130.2830136159675,-187500.02235174447,5429.9316322722,-187500.02235174447,-187500.02235174447,-187500.02235174447,-187500.02235174447,-187500.02235174447,1730330164.8539617,1730330163.973121,4000
-1107.819510438384,-187500.02235174447,5406.529355827493,-187500.02235174447,-187500.02235174447,-187500.02235174447,-187500.02235174447,-187500.02235174447,1730330164.8567834,1730330163.973121,4000
-1002.4757388205218,-187500.02235174447,5418.420483877717,-187500.02235174447,-187500.02235174447,-187500.02235174447,-187500.02235174447,-187500.02235174447,1730330164.8610065,1730330163.973121,4000
-1043.1335619847252,-187500.02235174447,5405.098844182354,-187500.02235174447,-187500.02235174447,-187500.02235174447,-187500.02235174447,-187500.02235174447,1730330164.8648622,1730330163.973121,4000
-1127.6008042813307,-187500.02235174447,5406.752873272047,-187500.02235174447,-187500.02235174447,-187500.02235174447,-187500.02235174447,-187500.02235174447,1730330164.8690617,1730330163.973121,4000
-1129.1877781376577,-187500.02235174447,5418.956925744645,-187500.02235174447,-187500.02235174447,-187500.02235174447,-187500.02235174447,-187500.02235174447,1730330164.8729625,1730330163.973121,4000
-1056.6787191246417,-187500.02235174447,5418.68870481118,-187500.02235174447,-187500.02235174447,-187500.02235174447,-187500.02235174447,-187500.02235174447,1730330164.8780012,1730330163.973121,4000
-1053.3483092008007,-187500.02235174447,5451.836341838401,-187500.02235174447,-187500.02235174447,-187500.02235174447,-187500.02235174447,-187500.02235174447,1730330164.88195,1730330163.973121,4000
-1131.4453043276435,-187500.02235174447,5458.340699474896,-187500.02235174447,-187500.02235174447,-187500.02235174447,-187500.02235174447,-187500.02235174447,1730330164.8851163,1730330163.973121,4000
-1151.137191192769,-187500.02235174447,5395.241724877564,-187500.02235174447,-187500.02235174447,-187500.02235174447,-187500.02235174447,-187500.02235174447,1730330164.8890872,1730330163.973121,4000
-1075.364777489278,-187500.02235174447,5404.83062324889,-187500.02235174447,-187500.02235174447,-187500.02235174447,-187500.02235174447,-187500.02235174447,1730330164.8929915,1730330163.973121,4000
-1052.2530737224906,-187500.02235174447,5478.792545651501,-187500.02235174447,-187500.02235174447,-187500.02235174447,-187500.02235174447,-187500.02235174447,1730330164.897063,1730330163.973121,4000
-1116.3802285647666,-187500.02235174447,5473.852810126879,-187500.02235174447,-187500.02235174447,-187500.02235174447,-187500.02235174447,-187500.02235174447,1730330164.9010327,1730330163.973121,4000
-1126.393810080744,-187500.02235174447,5357.243759303541,-187500.02235174447,-187500.02235174447,-187500.02235174447,-187500.02235174447,-187500.02235174447,1730330164.90513,1730330163.973121,4000
-1072.146126287714,-187500.02235174447,5332.925061336167,-187500.02235174447,-187500.02235174447,-187500.02235174447,-187500.02235174447,-187500.02235174447,1730330164.9100523,1730330163.973121,4000
-1042.2171404620576,-187500.02235174447,5424.053123480454,-187500.02235174447,-187500.02235174447,-187500.02235174447,-187500.02235174447,-187500.02235174447,1730330164.913058,1730330163.973121,4000
-1061.4843441825324,-187500.02235174447,5423.829606035902,-187500.02235174447,-187500.02235174447,-187500.02235174447,-187500.02235174447,-187500.02235174447,1730330164.917149,1730330163.973121,4000
-1119.9565076776155,-187500.02235174447,5371.213599588108,-187500.02235174447,-187500.02235174447,-187500.02235174447,-187500.02235174447,-187500.02235174447,1730330164.9211133,1730330163.973121,4000
-1088.8428793958285,-187500.02235174447,5342.4245527296725,-187500.02235174447,-187500.02235174447,-187500.02235174447,-187500.02235174447,-187500.02235174447,1730330164.925078,1730330163.973121,4000
-1035.466913636555,-187500.02235174447,5377.628550246782,-187500.02235174447,-187500.02235174447,-187500.02235174447,-187500.02235174447,-187500.02235174447,1730330164.92918,1730330163.973121,4000
-1066.8711145962614,-187500.02235174447,5406.954038972144,-187500.02235174447,-187500.02235174447,-187500.02235174447,-187500.02235174447,-187500.02235174447,1730330164.9342527,1730330163.973121,4000
-1132.138208405758,-187500.02235174447,5400.986123202578,-187500.02235174447,-187500.02235174447,-187500.02235174447,-187500.02235174447,-187500.02235174447,1730330164.93795,1730330163.973121,4000
-1120.2470803555348,-187500.02235174447,5360.618872716293,-187500.02235174447,-187500.02235174447,-187500.02235174447,-187500.02235174447,-187500.02235174447,1730330164.9411316,1730330163.973121,4000
-1034.2822711804238,-187500.02235174447,5393.230067876586,-187500.02235174447,-187500.02235174447,-187500.02235174447,-187500.02235174447,-187500.02235174447,1730330164.945012,1730330163.973121,4000
-1052.3648324447672,-187500.02235174447,5413.458396608638,-187500.02235174447,-187500.02235174447,-187500.02235174447,-187500.02235174447,-187500.02235174447,1730330164.949011,1730330163.973121,4000
-1120.0906181443474,-187500.02235174447,5453.60212965037,-187500.02235174447,-187500.02235174447,-187500.02235174447,-187500.02235174447,-187500.02235174447,1730330164.9531024,1730330163.973121,4000
-1099.4152545231884,-187500.02235174447,5451.970452305133,-187500.02235174447,-187500.02235174447,-187500.02235174447,-187500.02235174447,-187500.02235174447,1730330164.9569874,1730330163.973121,4000
-1030.3483641562896,-187500.02235174447,5386.122213139798,-187500.02235174447,-187500.02235174447,-187500.02235174447,-187500.02235174447,-187500.02235174447,1730330164.9621823,1730330163.973121,4000
-1034.7740095584404,-187500.02235174447,5355.008584858011,-187500.02235174447,-187500.02235174447,-187500.02235174447,-187500.02235174447,-187500.02235174447,1730330164.9649286,1730330163.973121,4000
-1112.4910250295432,-187500.02235174447,5391.821907975902,-187500.02235174447,-187500.02235174447,-187500.02235174447,-187500.02235174447,-187500.02235174447,1730330164.968087,1730330163.973121,4000
-1121.6328885117637,-187500.02235174447,5379.595503758848,-187500.02235174447,-187500.02235174447,-187500.02235174447,-187500.02235174447,-187500.02235174447,1730330164.9729517,1730330163.973121,4000
-1048.6544428651862,-187500.02235174447,5367.749079197536,-187500.02235174447,-187500.02235174447,-187500.02235174447,-187500.02235174447,-187500.02235174447,1730330164.9771776,1730330163.973121,4000
-1039.9596142720718,-187500.02235174447,5394.548820799449,-187500.02235174447,-187500.02235174447,-187500.02235174447,-187500.02235174447,-187500.02235174447,1730330164.9809515,1730330163.973121,4000
-1106.724274960074,-187500.02235174447,5422.980239746599,-187500.02235174447,-187500.02235174447,-187500.02235174447,-187500.02235174447,-187500.02235174447,1730330164.9850123,1730330163.973121,4000
-1148.522037091498,-187500.02235174447,5416.967620488122,-187500.02235174447,-187500.02235174447,-187500.02235174447,-187500.02235174447,-187500.02235174447,1730330164.9889956,1730330163.973121,4000
-1066.6028936627977,-187500.02235174447,5406.395245360762,-187500.02235174447,-187500.02235174447,-187500.02235174447,-187500.02235174447,-187500.02235174447,1730330164.9931717,1730330163.973121,4000
-1030.4377711341108,-187500.02235174447,5380.243704348052,-187500.02235174447,-187500.02235174447,-187500.02235174447,-187500.02235174447,-187500.02235174447,1730330164.995986,1730330163.973121,4000
-1099.7952341789287,-187500.02235174447,5439.766399832535,-187500.02235174447,-187500.02235174447,-187500.02235174447,-187500.02235174447,-187500.02235174447,1730330165.0010865,1730330163.973121,4000
-1132.6299467837748,-187500.02235174447,5444.594376634882,-187500.02235174447,-187500.02235174447,-187500.02235174447,-187500.02235174447,-187500.02235174447,1730330165.0052123,1730330163.973121,4000
-1080.460975225088,-187500.02235174447,5341.15050329572,-187500.02235174447,-187500.02235174447,-187500.02235174447,-187500.02235174447,-187500.02235174447,1730330165.0092516,1730330163.973121,4000
-1040.2278352055357,-187500.02235174447,5339.071791061377,-187500.02235174447,-187500.02235174447,-187500.02235174447,-187500.02235174447,-187500.02235174447,1730330165.0132148,1730330163.973121,4000
-1087.5688299618755,-187500.02235174447,5406.372893616306,-187500.02235174447,-187500.02235174447,-187500.02235174447,-187500.02235174447,-187500.02235174447,1730330165.0170777,1730330163.973121,4000
-1136.7650195080066,-187500.02235174447,5407.222259905608,-187500.02235174447,-187500.02235174447,-187500.02235174447,-187500.02235174447,-187500.02235174447,1730330165.0212276,1730330163.973121,4000
-1094.4755189985656,-187500.02235174447,5374.789878700957,-187500.02235174447,-187500.02235174447,-187500.02235174447,-187500.02235174447,-187500.02235174447,1730330165.0242383,1730330163.973121,4000
-1042.3959544177,-187500.02235174447,5389.743195741558,-187500.02235174447,-187500.02235174447,-187500.02235174447,-187500.02235174447,-187500.02235174447,1730330165.028226,1730330163.973121,4000
-1080.1927542916244,-187500.02235174447,5416.297068154463,-187500.02235174447,-187500.02235174447,-187500.02235174447,-187500.02235174447,-187500.02235174447,1730330165.0331445,1730330163.973121,4000
-1143.5823015668752,-187500.02235174447,5389.184402130175,-187500.02235174447,-187500.02235174447,-187500.02235174447,-187500.02235174447,-187500.02235174447,1730330165.0376167,1730330163.973121,4000
-1096.2189550660796,-187500.02235174447,5353.131038323765,-187500.02235174447,-187500.02235174447,-187500.02235174447,-187500.02235174447,-187500.02235174447,1730330165.0413742,1730330163.973121,4000
-1037.6126811042643,-187500.02235174447,5368.039651875455,-187500.02235174447,-187500.02235174447,-187500.02235174447,-187500.02235174447,-187500.02235174447,1730330165.0452652,1730330163.973121,4000
-1054.6447103792084,-187500.02235174447,5427.875271782312,-187500.02235174447,-187500.02235174447,-187500.02235174447,-187500.02235174447,-187500.02235174447,1730330165.049508,1730330163.973121,4000
-1123.3763245792777,-187500.02235174447,5416.542937343471,-187500.02235174447,-187500.02235174447,-187500.02235174447,-187500.02235174447,-187500.02235174447,1730330165.0525832,1730330163.973121,4000
-1119.9565076776155,-187500.02235174447,5399.265038879519,-187500.02235174447,-187500.02235174447,-187500.02235174447,-187500.02235174447,-187500.02235174447,1730330165.0562773,1730330163.973121,4000
-1051.917797555661,-187500.02235174447,5366.475029763584,-187500.02235174447,-187500.02235174447,-187500.02235174447,-187500.02235174447,-187500.02235174447,1730330165.061688,1730330163.973121,4000
-1045.5251986414432,-187500.02235174447,5387.3292073403845,-187500.02235174447,-187500.02235174447,-187500.02235174447,-187500.02235174447,-187500.02235174447,1730330165.0651517,1730330163.973121,4000
-1125.320926346889,-187500.02235174447,5395.35348359984,-187500.02235174447,-187500.02235174447,-187500.02235174447,-187500.02235174447,-187500.02235174447,1730330165.0698066,1730330163.973121,4000
-1139.8048567539283,-187500.02235174447,5384.82581196139,-187500.02235174447,-187500.02235174447,-187500.02235174447,-187500.02235174447,-187500.02235174447,1730330165.0725024,1730330163.973121,4000
-1061.529047671443,-187500.02235174447,5406.618762805315,-187500.02235174447,-187500.02235174447,-187500.02235174447,-187500.02235174447,-187500.02235174447,1730330165.0768988,1730330163.973121,4000
-1023.6428408196977,-187500.02235174447,5440.816931821934,-187500.02235174447,-187500.02235174447,-187500.02235174447,-187500.02235174447,-187500.02235174447,1730330165.0802157,1730330163.973121,4000
-1095.6825131991525,-187500.02235174447,5473.718699660147,-187500.02235174447,-187500.02235174447,-187500.02235174447,-187500.02235174447,-187500.02235174447,1730330165.0843315,1730330163.973121,4000
-1138.0614206864143,-187500.02235174447,5386.502192795539,-187500.02235174447,-187500.02235174447,-187500.02235174447,-187500.02235174447,-187500.02235174447,1730330165.0893188,1730330163.973121,4000
-1073.0178443214709,-187500.02235174447,5329.080561289855,-187500.02235174447,-187500.02235174447,-187500.02235174447,-187500.02235174447,-187500.02235174447,1730330165.09367,1730330163.973121,4000
-1034.103457224781,-187500.02235174447,5369.984253643067,-187500.02235174447,-187500.02235174447,-187500.02235174447,-187500.02235174447,-187500.02235174447,1730330165.0976577,1730330163.973121,4000
-1082.0479490814148,-187500.02235174447,5398.840355734868,-187500.02235174447,-187500.02235174447,-187500.02235174447,-187500.02235174447,-187500.02235174447,1730330165.100321,1730330163.973121,4000
-1141.6376997992636,-187500.02235174447,5375.974521157089,-187500.02235174447,-187500.02235174447,-187500.02235174447,-187500.02235174447,-187500.02235174447,1730330165.1044445,1730330163.973121,4000
-1089.3793212627556,-187500.02235174447,5357.355518025818,-187500.02235174447,-187500.02235174447,-187500.02235174447,-187500.02235174447,-187500.02235174447,1730330165.1089792,1730330163.973121,4000
-1039.691393338608,-187500.02235174447,5397.9239342122,-187500.02235174447,-187500.02235174447,-187500.02235174447,-187500.02235174447,-187500.02235174447,1730330165.1122985,1730330163.973121,4000
-1080.6397891807303,-187500.02235174447,5476.378557250328,-187500.02235174447,-187500.02235174447,-187500.02235174447,-187500.02235174447,-187500.02235174447,1730330165.1174295,1730330163.973121,4000
-1159.6979093191517,-187500.02235174447,5407.199908161153,-187500.02235174447,-187500.02235174447,-187500.02235174447,-187500.02235174447,-187500.02235174447,1730330165.1214662,1730330163.973121,4000
-1128.9642606931045,-187500.02235174447,5306.706465090092,-187500.02235174447,-187500.02235174447,-187500.02235174447,-187500.02235174447,-187500.02235174447,1730330165.1254292,1730330163.973121,4000
-1052.342480700312,-187500.02235174447,5365.782125685469,-187500.02235174447,-187500.02235174447,-187500.02235174447,-187500.02235174447,-187500.02235174447,1730330165.128442,1730330163.973121,4000
-1051.1354864997252,-187500.02235174447,5376.220390346097,-187500.02235174447,-187500.02235174447,-187500.02235174447,-187500.02235174447,-187500.02235174447,1730330165.1322553,1730330163.973121,4000
-1111.5746035068755,-187500.02235174447,5358.182532570664,-187500.02235174447,-187500.02235174447,-187500.02235174447,-187500.02235174447,-187500.02235174447,1730330165.136495,1730330163.973121,4000
-1105.494929015032,-187500.02235174447,5342.156331796209,-187500.02235174447,-187500.02235174447,-187500.02235174447,-187500.02235174447,-187500.02235174447,1730330165.1402638,1730330163.973121,4000
-1038.7749718159405,-187500.02235174447,5345.956128353611,-187500.02235174447,-187500.02235174447,-187500.02235174447,-187500.02235174447,-187500.02235174447,1730330165.1453972,1730330163.973121,4000
-1049.8614370657726,-187500.02235174447,5374.544009511949,-187500.02235174447,-187500.02235174447,-187500.02235174447,-187500.02235174447,-187500.02235174447,1730330165.149438,1730330163.973121,4000
-1117.7436849765402,-187500.02235174447,5381.942436926656,-187500.02235174447,-187500.02235174447,-187500.02235174447,-187500.02235174447,-187500.02235174447,1730330165.1534252,1730330163.973121,4000
-1127.2208246255905,-187500.02235174447,5329.080561289855,-187500.02235174447,-187500.02235174447,-187500.02235174447,-187500.02235174447,-187500.02235174447,1730330165.1563048,1730330163.973121,4000
-1057.68454762513,-187500.02235174447,5352.77341041248,-187500.02235174447,-187500.02235174447,-187500.02235174447,-187500.02235174447,-187500.02235174447,1730330165.160457,1730330163.973121,4000
-1043.0218032624489,-187500.02235174447,5372.130021110776,-187500.02235174447,-187500.02235174447,-187500.02235174447,-187500.02235174447,-187500.02235174447,1730330165.1645336,1730330163.973121,4000
-1115.8884901867498,-187500.02235174447,5398.25921037903,-187500.02235174447,-187500.02235174447,-187500.02235174447,-187500.02235174447,-187500.02235174447,1730330165.168512,1730330163.973121,4000
-1141.1906649101577,-187500.02235174447,5372.934683911167,-187500.02235174447,-187500.02235174447,-187500.02235174447,-187500.02235174447,-187500.02235174447,1730330165.1723683,1730330163.973121,4000
-1082.6514461817085,-187500.02235174447,5341.0163928289885,-187500.02235174447,-187500.02235174447,-187500.02235174447,-187500.02235174447,-187500.02235174447,1730330165.177508,1730330163.973121,4000
-1043.6476521071977,-187500.02235174447,5359.3895267712505,-187500.02235174447,-187500.02235174447,-187500.02235174447,-187500.02235174447,-187500.02235174447,1730330165.1812909,1730330163.973121,4000
-1101.9186499021828,-187500.02235174447,5362.58582622836,-187500.02235174447,-187500.02235174447,-187500.02235174447,-187500.02235174447,-187500.02235174447,1730330165.1845694,1730330163.973121,4000
-1142.285900388467,-187500.02235174447,5370.654805976726,-187500.02235174447,-187500.02235174447,-187500.02235174447,-187500.02235174447,-187500.02235174447,1730330165.1885293,1730330163.973121,4000
-1078.5163734574764,-187500.02235174447,5393.990027188066,-187500.02235174447,-187500.02235174447,-187500.02235174447,-187500.02235174447,-187500.02235174447,1730330165.1925416,1730330163.973121,4000
-1038.2385299490131,-187500.02235174447,5358.897788393234,-187500.02235174447,-187500.02235174447,-187500.02235174447,-187500.02235174447,-187500.02235174447,1730330165.1965177,1730330163.973121,4000
-1098.722350445074,-187500.02235174447,5357.288462792452,-187500.02235174447,-187500.02235174447,-187500.02235174447,-187500.02235174447,-187500.02235174447,1730330165.2005565,1730330163.973121,4000
-1147.6726708021963,-187500.02235174447,5342.491607963038,-187500.02235174447,-187500.02235174447,-187500.02235174447,-187500.02235174447,-187500.02235174447,1730330165.2054064,1730330163.973121,4000
-1099.1246818452696,-187500.02235174447,5324.699619376615,-187500.02235174447,-187500.02235174447,-187500.02235174447,-187500.02235174447,-187500.02235174447,1730330165.209561,1730330163.973121,4000
-1037.433867148622,-187500.02235174447,5389.743195741558,-187500.02235174447,-187500.02235174447,-187500.02235174447,-187500.02235174447,-187500.02235174447,1730330165.212538,1730330163.973121,4000
-1089.0216933514707,-187500.02235174447,5419.582774589393,-187500.02235174447,-187500.02235174447,-187500.02235174447,-187500.02235174447,-187500.02235174447,1730330165.2165408,1730330163.973121,4000
-1148.522037091498,-187500.02235174447,5384.78110847248,-187500.02235174447,-187500.02235174447,-187500.02235174447,-187500.02235174447,-187500.02235174447,1730330165.2205825,1730330163.973121,4000
-1095.8613271547947,-187500.02235174447,5378.567323513905,-187500.02235174447,-187500.02235174447,-187500.02235174447,-187500.02235174447,-187500.02235174447,1730330165.2246327,1730330163.973121,4000
-1035.2657479364573,-187500.02235174447,5329.169968267675,-187500.02235174447,-187500.02235174447,-187500.02235174447,-187500.02235174447,-187500.02235174447,1730330165.228616,1730330163.973121,4000
-1044.139390485214,-187500.02235174447,5358.607215715315,-187500.02235174447,-187500.02235174447,-187500.02235174447,-187500.02235174447,-187500.02235174447,1730330165.2342072,1730330163.973121,4000
-1118.637754754753,-187500.02235174447,5389.340864341362,-187500.02235174447,-187500.02235174447,-187500.02235174447,-187500.02235174447,-187500.02235174447,1730330165.2370453,1730330163.973121,4000
-1128.2490048705347,-187500.02235174447,5354.293329035441,-187500.02235174447,-187500.02235174447,-187500.02235174447,-187500.02235174447,-187500.02235174447,1730330165.2404232,1730330163.973121,4000
-1050.3978789327,-187500.02235174447,5354.673308691181,-187500.02235174447,-187500.02235174447,-187500.02235174447,-187500.02235174447,-187500.02235174447,1730330165.2451296,1730330163.973121,4000
-1045.145218985703,-187500.02235174447,5386.770413729002,-187500.02235174447,-187500.02235174447,-187500.02235174447,-187500.02235174447,-187500.02235174447,1730330165.2484577,1730330163.973121,4000
-1127.0643624144034,-187500.02235174447,5378.29910258044,-187500.02235174447,-187500.02235174447,-187500.02235174447,-187500.02235174447,-187500.02235174447,1730330165.2529693,1730330163.973121,4000
-1143.6046533113306,-187500.02235174447,5351.275843533975,-187500.02235174447,-187500.02235174447,-187500.02235174447,-187500.02235174447,-187500.02235174447,1730330165.2565384,1730330163.973121,4000
-1051.694280111108,-187500.02235174447,5314.708389605092,-187500.02235174447,-187500.02235174447,-187500.02235174447,-187500.02235174447,-187500.02235174447,1730330165.2619617,1730330163.973121,4000
-1035.153989214181,-187500.02235174447,5364.597483229338,-187500.02235174447,-187500.02235174447,-187500.02235174447,-187500.02235174447,-187500.02235174447,1730330165.2645085,1730330163.973121,4000
-1121.208205367113,-187500.02235174447,5383.35059682734,-187500.02235174447,-187500.02235174447,-187500.02235174447,-187500.02235174447,-187500.02235174447,1730330165.2685852,1730330163.973121,4000
-1151.8077435264283,-187500.02235174447,5354.874474391279,-187500.02235174447,-187500.02235174447,-187500.02235174447,-187500.02235174447,-187500.02235174447,1730330165.2725189,1730330163.973121,4000
-1076.5494199454097,-187500.02235174447,5343.67625041917,-187500.02235174447,-187500.02235174447,-187500.02235174447,-187500.02235174447,-187500.02235174447,1730330165.2766912,1730330163.973121,4000
-1032.337669412812,-187500.02235174447,5388.804422474435,-187500.02235174447,-187500.02235174447,-187500.02235174447,-187500.02235174447,-187500.02235174447,1730330165.2806563,1730330163.973121,4000
-1109.9876296505488,-187500.02235174447,5379.953131670133,-187500.02235174447,-187500.02235174447,-187500.02235174447,-187500.02235174447,-187500.02235174447,1730330165.2847035,1730330163.973121,4000
-1164.6376448437743,-187500.02235174447,5323.470273431572,-187500.02235174447,-187500.02235174447,-187500.02235174447,-187500.02235174447,-187500.02235174447,1730330165.288712,1730330163.973121,4000
-1084.7748619049623,-187500.02235174447,5345.799666142424,-187500.02235174447,-187500.02235174447,-187500.02235174447,-187500.02235174447,-187500.02235174447,1730330165.292704,1730330163.973121,4000
-1036.7633148149628,-187500.02235174447,5357.757849426013,-187500.02235174447,-187500.02235174447,-187500.02235174447,-187500.02235174447,-187500.02235174447,1730330165.2956767,1730330163.973121,4000
-1086.8312223948506,-187500.02235174447,5370.498343765538,-187500.02235174447,-187500.02235174447,-187500.02235174447,-187500.02235174447,-187500.02235174447,1730330165.3007915,1730330163.973121,4000
-1138.0167171975038,-187500.02235174447,5350.24766328903,-187500.02235174447,-187500.02235174447,-187500.02235174447,-187500.02235174447,-187500.02235174447,1730330165.304839,1730330163.973121,4000
-1106.4337022821549,-187500.02235174447,5341.4857794625495,-187500.02235174447,-187500.02235174447,-187500.02235174447,-187500.02235174447,-187500.02235174447,1730330165.3087149,1730330163.973121,4000
-1030.4601228785662,-187500.02235174447,5394.794689988457,-187500.02235174447,-187500.02235174447,-187500.02235174447,-187500.02235174447,-187500.02235174447,1730330165.3125956,1730330163.973121,4000
-1075.0295013224486,-187500.02235174447,5363.256378562019,-187500.02235174447,-187500.02235174447,-187500.02235174447,-187500.02235174447,-187500.02235174447,1730330165.3166797,1730330163.973121,4000
-1146.5327318349755,-187500.02235174447,5350.091201077843,-187500.02235174447,-187500.02235174447,-187500.02235174447,-187500.02235174447,-187500.02235174447,1730330165.3196805,1730330163.973121,4000
-1119.688286744152,-187500.02235174447,5344.682078919659,-187500.02235174447,-187500.02235174447,-187500.02235174447,-187500.02235174447,-187500.02235174447,1730330165.3235304,1730330163.973121,4000
-1054.242378979013,-187500.02235174447,5333.975593325567,-187500.02235174447,-187500.02235174447,-187500.02235174447,-187500.02235174447,-187500.02235174447,1730330165.3287048,1730330163.973121,4000
-1066.7146523850745,-187500.02235174447,5352.549892967927,-187500.02235174447,-187500.02235174447,-187500.02235174447,-187500.02235174447,-187500.02235174447,1730330165.3327188,1730330163.973121,4000
-1151.0254324704924,-187500.02235174447,5355.030936602466,-187500.02235174447,-187500.02235174447,-187500.02235174447,-187500.02235174447,-187500.02235174447,1730330165.3365278,1730330163.973121,4000
-1115.9108419312051,-187500.02235174447,5345.710259164603,-187500.02235174447,-187500.02235174447,-187500.02235174447,-187500.02235174447,-187500.02235174447,1730330165.3406396,1730330163.973121,4000
-1034.1481607136918,-187500.02235174447,5348.951262110622,-187500.02235174447,-187500.02235174447,-187500.02235174447,-187500.02235174447,-187500.02235174447,1730330165.3437667,1730330163.973121,4000
-1047.0674690088597,-187500.02235174447,5417.280544910496,-187500.02235174447,-187500.02235174447,-187500.02235174447,-187500.02235174447,-187500.02235174447,1730330165.3475585,1730330163.973121,4000
-1123.4433798126436,-187500.02235174447,5395.174669644198,-187500.02235174447,-187500.02235174447,-187500.02235174447,-187500.02235174447,-187500.02235174447,1730330165.351734,1730330163.973121,4000
-1134.9321764626714,-187500.02235174447,5327.962974067089,-187500.02235174447,-187500.02235174447,-187500.02235174447,-187500.02235174447,-187500.02235174447,1730330165.3565524,1730330163.973121,4000
-1047.9615387870715,-187500.02235174447,5354.941529624645,-187500.02235174447,-187500.02235174447,-187500.02235174447,-187500.02235174447,-187500.02235174447,1730330165.3607483,1730330163.973121,4000
-1030.661288578664,-187500.02235174447,5356.617910458793,-187500.02235174447,-187500.02235174447,-187500.02235174447,-187500.02235174447,-187500.02235174447,1730330165.3645923,1730330163.973121,4000
-1107.9089174162052,-187500.02235174447,5355.097991835832,-187500.02235174447,-187500.02235174447,-187500.02235174447,-187500.02235174447,-187500.02235174447,1730330165.3686914,1730330163.973121,4000
-1144.811647511917,-187500.02235174447,5344.838541130846,-187500.02235174447,-187500.02235174447,-187500.02235174447,-187500.02235174447,-187500.02235174447,1730330165.3718429,1730330163.973121,4000
-1079.5222019579653,-187500.02235174447,5316.608287883793,-187500.02235174447,-187500.02235174447,-187500.02235174447,-187500.02235174447,-187500.02235174447,1730330165.3757887,1730330163.973121,4000
-1043.1335619847252,-187500.02235174447,5336.546043937927,-187500.02235174447,-187500.02235174447,-187500.02235174447,-187500.02235174447,-187500.02235174447,1730330165.3797636,1730330163.973121,4000
-1102.008056880004,-187500.02235174447,5361.334128538862,-187500.02235174447,-187500.02235174447,-187500.02235174447,-187500.02235174447,-187500.02235174447,1730330165.3848028,1730330163.973121,4000
-1139.715449776107,-187500.02235174447,5359.68009944917,-187500.02235174447,-187500.02235174447,-187500.02235174447,-187500.02235174447,-187500.02235174447,1730330165.3888187,1730330163.973121,4000
-1085.69128342763,-187500.02235174447,5329.661706645693,-187500.02235174447,-187500.02235174447,-187500.02235174447,-187500.02235174447,-187500.02235174447,1730330165.3929012,1730330163.973121,4000
-1040.9654427725604,-187500.02235174447,5344.011526586,-187500.02235174447,-187500.02235174447,-187500.02235174447,-187500.02235174447,-187500.02235174447,1730330165.3973248,1730330163.973121,4000
-1080.3492165028115,-187500.02235174447,5347.654860932214,-187500.02235174447,-187500.02235174447,-187500.02235174447,-187500.02235174447,-187500.02235174447,1730330165.3997235,1730330163.973121,4000
-1149.3490516363445,-187500.02235174447,5331.427494457662,-187500.02235174447,-187500.02235174447,-187500.02235174447,-187500.02235174447,-187500.02235174447,1730330165.404106,1730330163.973121,4000
-1107.528937760465,-187500.02235174447,5327.560642666894,-187500.02235174447,-187500.02235174447,-187500.02235174447,-187500.02235174447,-187500.02235174447,1730330165.4078467,1730330163.973121,4000
-1035.6457275921975,-187500.02235174447,5372.934683911167,-187500.02235174447,-187500.02235174447,-187500.02235174447,-187500.02235174447,-187500.02235174447,1730330165.411893,1730330163.973121,4000
-1066.6699488961635,-187500.02235174447,5357.221407559086,-187500.02235174447,-187500.02235174447,-187500.02235174447,-187500.02235174447,-187500.02235174447,1730330165.417246,1730330163.973121,4000
-1152.2100749266235,-187500.02235174447,5333.48385494755,-187500.02235174447,-187500.02235174447,-187500.02235174447,-187500.02235174447,-187500.02235174447,1730330165.4209251,1730330163.973121,4000
-1137.949661964138,-187500.02235174447,5291.797851538402,-187500.02235174447,-187500.02235174447,-187500.02235174447,-187500.02235174447,-187500.02235174447,1730330165.42478,1730330163.973121,4000
-1050.5766928883424,-187500.02235174447,5312.294401203919,-187500.02235174447,-187500.02235174447,-187500.02235174447,-187500.02235174447,-187500.02235174447,1730330165.428089,1730330163.973121,4000
-1059.2044662480912,-187500.02235174447,5314.7754448384585,-187500.02235174447,-187500.02235174447,-187500.02235174447,-187500.02235174447,-187500.02235174447,1730330165.431718,1730330163.973121,4000
-1138.687269531163,-187500.02235174447,5314.596630882816,-187500.02235174447,-187500.02235174447,-187500.02235174447,-187500.02235174447,-187500.02235174447,1730330165.435887,1730330163.973121,4000
-1148.2538161580344,-187500.02235174447,5289.495621859506,-187500.02235174447,-187500.02235174447,-187500.02235174447,-187500.02235174447,-187500.02235174447,1730330165.439741,1730330163.973121,4000
-1066.9381698296274,-187500.02235174447,5287.148688691698,-187500.02235174447,-187500.02235174447,-187500.02235174447,-187500.02235174447,-187500.02235174447,1730330165.4448912,1730330163.973121,4000
-1052.5212946559543,-187500.02235174447,5344.972651597578,-187500.02235174447,-187500.02235174447,-187500.02235174447,-187500.02235174447,-187500.02235174447,1730330165.4500136,1730330163.973121,4000
-1127.8690252147944,-187500.02235174447,5335.763732881991,-187500.02235174447,-187500.02235174447,-187500.02235174447,-187500.02235174447,-187500.02235174447,1730330165.4531567,1730330163.973121,4000
-1141.0565544434255,-187500.02235174447,5281.42664211114,-187500.02235174447,-187500.02235174447,-187500.02235174447,-187500.02235174447,-187500.02235174447,1730330165.4567404,1730330163.973121,4000
-1061.461992438077,-187500.02235174447,5284.131203190232,-187500.02235174447,-187500.02235174447,-187500.02235174447,-187500.02235174447,-187500.02235174447,1730330165.4609618,1730330163.973121,4000
-1040.9430910281053,-187500.02235174447,5351.029974344966,-187500.02235174447,-187500.02235174447,-187500.02235174447,-187500.02235174447,-187500.02235174447,1730330165.4647264,1730330163.973121,4000
-1097.8282806668617,-187500.02235174447,5375.795707201446,-187500.02235174447,-187500.02235174447,-187500.02235174447,-187500.02235174447,-187500.02235174447,1730330165.4680612,1730330163.973121,4000
-1146.9350632351714,-187500.02235174447,5294.971799251056,-187500.02235174447,-187500.02235174447,-187500.02235174447,-187500.02235174447,-187500.02235174447,1730330165.4721713,1730330163.973121,4000
-1090.183984063147,-187500.02235174447,5278.722081032048,-187500.02235174447,-187500.02235174447,-187500.02235174447,-187500.02235174447,-187500.02235174447,1730330165.475912,1730330163.973121,4000
-1039.5796346163315,-187500.02235174447,5299.017464997467,-187500.02235174447,-187500.02235174447,-187500.02235174447,-187500.02235174447,-187500.02235174447,1730330165.4804964,1730330163.973121,4000
-1088.2617340399902,-187500.02235174447,5324.587860654337,-187500.02235174447,-187500.02235174447,-187500.02235174447,-187500.02235174447,-187500.02235174447,1730330165.4842093,1730330163.973121,4000
-1147.6726708021963,-187500.02235174447,5310.238040714031,-187500.02235174447,-187500.02235174447,-187500.02235174447,-187500.02235174447,-187500.02235174447,1730330165.4890656,1730330163.973121,4000
-1103.7067894586075,-187500.02235174447,5292.066072471866,-187500.02235174447,-187500.02235174447,-187500.02235174447,-187500.02235174447,-187500.02235174447,1730330165.4932213,1730330163.973121,4000
-1039.8478555497952,-187500.02235174447,5314.708389605092,-187500.02235174447,-187500.02235174447,-187500.02235174447,-187500.02235174447,-187500.02235174447,1730330165.4960494,1730330163.973121,4000
-1084.528992715954,-187500.02235174447,5328.164139767187,-187500.02235174447,-187500.02235174447,-187500.02235174447,-187500.02235174447,-187500.02235174447,1730330165.5005429,1730330163.973121,4000
-1145.8845312457718,-187500.02235174447,5340.591709684338,-187500.02235174447,-187500.02235174447,-187500.02235174447,-187500.02235174447,-187500.02235174447,1730330165.5042255,1730330163.973121,4000
-1104.4443970256325,-187500.02235174447,5329.237023501042,-187500.02235174447,-187500.02235174447,-187500.02235174447,-187500.02235174447,-187500.02235174447,1730330165.5081022,1730330163.973121,4000
-1051.336652199823,-187500.02235174447,5279.549095576894,-187500.02235174447,-187500.02235174447,-187500.02235174447,-187500.02235174447,-187500.02235174447,1730330165.5120945,1730330163.973121,4000
-1079.7680711469736,-187500.02235174447,5324.0067152985,-187500.02235174447,-187500.02235174447,-187500.02235174447,-187500.02235174447,-187500.02235174447,1730330165.51729,1730330163.973121,4000
-1137.167350908202,-187500.02235174447,5310.640372114226,-187500.02235174447,-187500.02235174447,-187500.02235174447,-187500.02235174447,-187500.02235174447,1730330165.5201497,1730330163.973121,4000
-1126.5502722919314,-187500.02235174447,5278.833839754324,-187500.02235174447,-187500.02235174447,-187500.02235174447,-187500.02235174447,-187500.02235174447,1730330165.5238233,1730330163.973121,4000
-1067.7204808855631,-187500.02235174447,5293.7648050504695,-187500.02235174447,-187500.02235174447,-187500.02235174447,-187500.02235174447,-187500.02235174447,1730330165.5282688,1730330163.973121,4000
-1077.3764344902556,-187500.02235174447,5320.609250141293,-187500.02235174447,-187500.02235174447,-187500.02235174447,-187500.02235174447,-187500.02235174447,1730330165.531862,1730330163.973121,4000
-1141.3694788658,-187500.02235174447,5284.913514246168,-187500.02235174447,-187500.02235174447,-187500.02235174447,-187500.02235174447,-187500.02235174447,1730330165.539971,1730330163.973121,4000
-1142.3753073662886,-187500.02235174447,5231.470493253529,-187500.02235174447,-187500.02235174447,-187500.02235174447,-187500.02235174447,-187500.02235174447,1730330165.540242,1730330163.973121,4000
-1065.887637840228,-187500.02235174447,5243.719249215037,-187500.02235174447,-187500.02235174447,-187500.02235174447,-187500.02235174447,-187500.02235174447,1730330165.544936,1730330163.973121,4000
-1047.559207386876,-187500.02235174447,5291.909610260679,-187500.02235174447,-187500.02235174447,-187500.02235174447,-187500.02235174447,-187500.02235174447,1730330165.5515103,1730330163.973121,4000
-1130.0371444269592,-187500.02235174447,5283.460650856573,-187500.02235174447,-187500.02235174447,-187500.02235174447,-187500.02235174447,-187500.02235174447,1730330165.551537,1730330163.973121,4000
-1145.705717290129,-187500.02235174447,5255.163342376154,-187500.02235174447,-187500.02235174447,-187500.02235174447,-187500.02235174447,-187500.02235174447,1730330165.5600984,1730330163.973121,4000
-1081.7126729145853,-187500.02235174447,5246.1555893606655,-187500.02235174447,-187500.02235174447,-187500.02235174447,-187500.02235174447,-187500.02235174447,1730330165.560115,1730330163.973121,4000
-1050.4872859105212,-187500.02235174447,5277.492735087006,-187500.02235174447,-187500.02235174447,-187500.02235174447,-187500.02235174447,-187500.02235174447,1730330165.5638463,1730330163.973121,4000
-1120.180025122169,-187500.02235174447,5259.61133952276,-187500.02235174447,-187500.02235174447,-187500.02235174447,-187500.02235174447,-187500.02235174447,1730330165.5682948,1730330163.973121,4000
-1165.3081971774336,-187500.02235174447,5218.193557047076,-187500.02235174447,-187500.02235174447,-187500.02235174447,-187500.02235174447,-187500.02235174447,1730330165.5728588,1730330163.973121,4000
-1101.851594668817,-187500.02235174447,5206.83887086378,-187500.02235174447,-187500.02235174447,-187500.02235174447,-187500.02235174447,-187500.02235174447,1730330165.575874,1730330163.973121,4000
-1039.4231724051444,-187500.02235174447,5222.686257682593,-187500.02235174447,-187500.02235174447,-187500.02235174447,-187500.02235174447,-187500.02235174447,1730330165.579857,1730330163.973121,4000
-1092.9332486311494,-187500.02235174447,5250.983566163011,-187500.02235174447,-187500.02235174447,-187500.02235174447,-187500.02235174447,-187500.02235174447,1730330165.5838957,1730330163.973121,4000
-1158.982653496582,-187500.02235174447,5244.412153293151,-187500.02235174447,-187500.02235174447,-187500.02235174447,-187500.02235174447,-187500.02235174447,1730330165.587849,1730330163.973121,4000
-1111.0158098954928,-187500.02235174447,5214.1702430451205,-187500.02235174447,-187500.02235174447,-187500.02235174447,-187500.02235174447,-187500.02235174447,1730330165.591856,1730330163.973121,4000
-1055.4940766685102,-187500.02235174447,5252.928167930623,-187500.02235174447,-187500.02235174447,-187500.02235174447,-187500.02235174447,-187500.02235174447,1730330165.595874,1730330163.973121,4000
-1076.3482542453116,-187500.02235174447,5255.520970287439,-187500.02235174447,-187500.02235174447,-187500.02235174447,-187500.02235174447,-187500.02235174447,1730330165.6008706,1730330163.973121,4000
-1153.8864557607717,-187500.02235174447,5214.237298278487,-187500.02235174447,-187500.02235174447,-187500.02235174447,-187500.02235174447,-187500.02235174447,1730330165.607566,1730330163.973121,4000
-1118.8612721993056,-187500.02235174447,5223.379161760708,-187500.02235174447,-187500.02235174447,-187500.02235174447,-187500.02235174447,-187500.02235174447,1730330165.6075869,1730330163.973121,4000
-1038.529102626932,-187500.02235174447,5228.453007752062,-187500.02235174447,-187500.02235174447,-187500.02235174447,-187500.02235174447,-187500.02235174447,1730330165.6119697,1730330163.973121,4000
-1068.3910332192222,-187500.02235174447,5239.695935213082,-187500.02235174447,-187500.02235174447,-187500.02235174447,-187500.02235174447,-187500.02235174447,1730330165.616011,1730330163.973121,4000
-1139.0672491869032,-187500.02235174447,5246.602624249772,-187500.02235174447,-187500.02235174447,-187500.02235174447,-187500.02235174447,-187500.02235174447,1730330165.619943,1730330163.973121,4000
-1132.4734845725875,-187500.02235174447,5206.056559807845,-187500.02235174447,-187500.02235174447,-187500.02235174447,-187500.02235174447,-187500.02235174447,1730330165.6239336,1730330163.973121,4000
-1058.1539342586916,-187500.02235174447,5232.476321754018,-187500.02235174447,-187500.02235174447,-187500.02235174447,-187500.02235174447,-187500.02235174447,1730330165.6317234,1730330163.973121,4000
-1055.918759813161,-187500.02235174447,5256.035060409911,-187500.02235174447,-187500.02235174447,-187500.02235174447,-187500.02235174447,-187500.02235174447,1730330165.6321576,1730330163.973121,4000
-1138.8660834868056,-187500.02235174447,5226.195481562077,-187500.02235174447,-187500.02235174447,-187500.02235174447,-187500.02235174447,-187500.02235174447,1730330165.63806,1730330163.973121,4000
-1145.7951242679503,-187500.02235174447,5179.815611817314,-187500.02235174447,-187500.02235174447,-187500.02235174447,-187500.02235174447,-187500.02235174447,1730330165.6403656,1730330163.973121,4000
-1081.5785624478535,-187500.02235174447,5193.897210824158,-187500.02235174447,-187500.02235174447,-187500.02235174447,-187500.02235174447,-187500.02235174447,1730330165.6440675,1730330163.973121,4000
-1054.3541377012891,-187500.02235174447,5222.328629771308,-187500.02235174447,-187500.02235174447,-187500.02235174447,-187500.02235174447,-187500.02235174447,1730330165.6502829,1730330163.973121,4000
-1120.5376530334536,-187500.02235174447,5238.667754968137,-187500.02235174447,-187500.02235174447,-187500.02235174447,-187500.02235174447,-187500.02235174447,1730330165.6520388,1730330163.973121,4000
-1153.774697038495,-187500.02235174447,5198.367559715219,-187500.02235174447,-187500.02235174447,-187500.02235174447,-187500.02235174447,-187500.02235174447,1730330165.654966,1730330163.973121,4000
-1085.0207310939709,-187500.02235174447,5172.752460569437,-187500.02235174447,-187500.02235174447,-187500.02235174447,-187500.02235174447,-187500.02235174447,1730330165.6589732,1730330163.973121,4000
-1052.7001086115968,-187500.02235174447,5206.637705163683,-187500.02235174447,-187500.02235174447,-187500.02235174447,-187500.02235174447,-187500.02235174447,1730330165.6630907,1730330163.973121,4000
-1119.8671006997945,-187500.02235174447,5222.909775127146,-187500.02235174447,-187500.02235174447,-187500.02235174447,-187500.02235174447,-187500.02235174447,1730330165.6680138,1730330163.973121,4000
-1151.4724673595986,-187500.02235174447,5240.612356735749,-187500.02235174447,-187500.02235174447,-187500.02235174447,-187500.02235174447,-187500.02235174447,1730330165.6720004,1730330163.973121,4000
-1099.6387719677416,-187500.02235174447,5200.64743764966,-187500.02235174447,-187500.02235174447,-187500.02235174447,-187500.02235174447,-187500.02235174447,1730330165.6760375,1730330163.973121,4000
-1059.919722070661,-187500.02235174447,5181.536696140372,-187500.02235174447,-187500.02235174447,-187500.02235174447,-187500.02235174447,-187500.02235174447,1730330165.68003,1730330163.973121,4000
-1103.595030736331,-187500.02235174447,5207.531774941895,-187500.02235174447,-187500.02235174447,-187500.02235174447,-187500.02235174447,-187500.02235174447,1730330165.683051,1730330163.973121,4000
-1160.077888974892,-187500.02235174447,5193.7407486129705,-187500.02235174447,-187500.02235174447,-187500.02235174447,-187500.02235174447,-187500.02235174447,1730330165.6870177,1730330163.973121,4000
-1111.753417462518,-187500.02235174447,5180.26264670642,-187500.02235174447,-187500.02235174447,-187500.02235174447,-187500.02235174447,-187500.02235174447,1730330165.693404,1730330163.973121,4000
-1045.368736430256,-187500.02235174447,5185.984693286979,-187500.02235174447,-187500.02235174447,-187500.02235174447,-187500.02235174447,-187500.02235174447,1730330165.695892,1730330163.973121,4000
-1088.5076032289987,-187500.02235174447,5213.0303040779,-187500.02235174447,-187500.02235174447,-187500.02235174447,-187500.02235174447,-187500.02235174447,1730330165.7001345,1730330163.973121,4000
-1170.2926361909672,-187500.02235174447,5197.585248659283,-187500.02235174447,-187500.02235174447,-187500.02235174447,-187500.02235174447,-187500.02235174447,1730330165.7042155,1730330163.973121,4000
-1140.520112576498,-187500.02235174447,5203.351998728753,-187500.02235174447,-187500.02235174447,-187500.02235174447,-187500.02235174447,-187500.02235174447,1730330165.7120404,1730330163.973121,4000
-1051.850742322295,-187500.02235174447,5238.89127241269,-187500.02235174447,-187500.02235174447,-187500.02235174447,-187500.02235174447,-187500.02235174447,1730330165.712082,1730330163.973121,4000
-1079.9245333581607,-187500.02235174447,5209.588135431783,-187500.02235174447,-187500.02235174447,-187500.02235174447,-187500.02235174447,-187500.02235174447,1730330165.7227845,1730330163.973121,4000
-1166.0011012555483,-187500.02235174447,5194.500707924451,-187500.02235174447,-187500.02235174447,-187500.02235174447,-187500.02235174447,-187500.02235174447,1730330165.7228005,1730330163.973121,4000
-1150.1537144367355,-187500.02235174447,5163.208265687021,-187500.02235174447,-187500.02235174447,-187500.02235174447,-187500.02235174447,-187500.02235174447,1730330165.723124,1730330163.973121,4000
-1055.0917452683143,-187500.02235174447,5177.960417027523,-187500.02235174447,-187500.02235174447,-187500.02235174447,-187500.02235174447,-187500.02235174447,1730330165.7282383,1730330163.973121,4000
-1048.274463209446,-187500.02235174447,5200.714492883026,-187500.02235174447,-187500.02235174447,-187500.02235174447,-187500.02235174447,-187500.02235174447,1730330165.7320917,1730330163.973121,4000
-1128.9195572041938,-187500.02235174447,5196.445309692062,-187500.02235174447,-187500.02235174447,-187500.02235174447,-187500.02235174447,-187500.02235174447,1730330165.7367616,1730330163.973121,4000
-1146.912711490716,-187500.02235174447,5176.909885038124,-187500.02235174447,-187500.02235174447,-187500.02235174447,-187500.02235174447,-187500.02235174447,1730330165.739179,1730330163.973121,4000
-1071.855553609795,-187500.02235174447,5171.009024501923,-187500.02235174447,-187500.02235174447,-187500.02235174447,-187500.02235174447,-187500.02235174447,1730330165.743542,1730330163.973121,4000
-1053.236550478524,-187500.02235174447,5231.6046037202605,-187500.02235174447,-187500.02235174447,-187500.02235174447,-187500.02235174447,-187500.02235174447,1730330165.747275,1730330163.973121,4000
-1130.975917694082,-187500.02235174447,5210.571612187817,-187500.02235174447,-187500.02235174447,-187500.02235174447,-187500.02235174447,-187500.02235174447,1730330165.7517557,1730330163.973121,4000
-1151.3383568928668,-187500.02235174447,5134.821550228781,-187500.02235174447,-187500.02235174447,-187500.02235174447,-187500.02235174447,-187500.02235174447,1730330165.7553587,1730330163.973121,4000
-1089.3569695183005,-187500.02235174447,5141.638832287649,-187500.02235174447,-187500.02235174447,-187500.02235174447,-187500.02235174447,-187500.02235174447,1730330165.760756,1730330163.973121,4000
-1048.1180009982588,-187500.02235174447,5178.765079827915,-187500.02235174447,-187500.02235174447,-187500.02235174447,-187500.02235174447,-187500.02235174447,1730330165.7633164,1730330163.973121,4000
-1115.9331936756605,-187500.02235174447,5204.179013273599,-187500.02235174447,-187500.02235174447,-187500.02235174447,-187500.02235174447,-187500.02235174447,1730330165.7678297,1730330163.973121,4000
-1154.8252290278947,-187500.02235174447,5156.770963283892,-187500.02235174447,-187500.02235174447,-187500.02235174447,-187500.02235174447,-187500.02235174447,1730330165.771406,1730330163.973121,4000
-1098.0517981114149,-187500.02235174447,5140.498893320429,-187500.02235174447,-187500.02235174447,-187500.02235174447,-187500.02235174447,-187500.02235174447,1730330165.775377,1730330163.973121,4000
-1046.1957509751023,-187500.02235174447,5155.228692916477,-187500.02235174447,-187500.02235174447,-187500.02235174447,-187500.02235174447,-187500.02235174447,1730330165.7795017,1730330163.973121,4000
-1103.103292358314,-187500.02235174447,5171.411355902119,-187500.02235174447,-187500.02235174447,-187500.02235174447,-187500.02235174447,-187500.02235174447,1730330165.7846289,1730330163.973121,4000
-1171.7454995805622,-187500.02235174447,5171.344300668753,-187500.02235174447,-187500.02235174447,-187500.02235174447,-187500.02235174447,-187500.02235174447,1730330165.7885227,1730330163.973121,4000
-1122.0352199119593,-187500.02235174447,5140.767114253893,-187500.02235174447,-187500.02235174447,-187500.02235174447,-187500.02235174447,-187500.02235174447,1730330165.791469,1730330163.973121,4000
-1052.1860184891248,-187500.02235174447,5150.288957391854,-187500.02235174447,-187500.02235174447,-187500.02235174447,-187500.02235174447,-187500.02235174447,1730330165.795404,1730330163.973121,4000
-1085.7583386609958,-187500.02235174447,5184.308312452831,-187500.02235174447,-187500.02235174447,-187500.02235174447,-187500.02235174447,-187500.02235174447,1730330165.7994833,1730330163.973121,4000
-1163.8329820433837,-187500.02235174447,5188.59984738825,-187500.02235174447,-187500.02235174447,-187500.02235174447,-187500.02235174447,-187500.02235174447,1730330165.8038013,1730330163.973121,4000
-1151.427763870688,-187500.02235174447,5123.757436723404,-187500.02235174447,-187500.02235174447,-187500.02235174447,-187500.02235174447,-187500.02235174447,1730330165.8075397,1730330163.973121,4000
-1063.2948354834125,-187500.02235174447,5137.950794452524,-187500.02235174447,-187500.02235174447,-187500.02235174447,-187500.02235174447,-187500.02235174447,1730330165.8115225,1730330163.973121,4000
-1068.145164030214,-187500.02235174447,5186.185858987076,-187500.02235174447,-187500.02235174447,-187500.02235174447,-187500.02235174447,-187500.02235174447,1730330165.816665,1730330163.973121,4000
-1150.1537144367355,-187500.02235174447,5162.962396498013,-187500.02235174447,-187500.02235174447,-187500.02235174447,-187500.02235174447,-187500.02235174447,1730330165.819903,1730330163.973121,4000
-1155.2722639170008,-187500.02235174447,5120.53878552184,-187500.02235174447,-187500.02235174447,-187500.02235174447,-187500.02235174447,-187500.02235174447,1730330165.8232636,1730330163.973121,4000
-1081.1315275587474,-187500.02235174447,5135.223881628976,-187500.02235174447,-187500.02235174447,-187500.02235174447,-187500.02235174447,-187500.02235174447,1730330165.8277607,1730330163.973121,4000
-1067.7204808855631,-187500.02235174447,5160.481352863473,-187500.02235174447,-187500.02235174447,-187500.02235174447,-187500.02235174447,-187500.02235174447,1730330165.8312829,1730330163.973121,4000
-1129.008964182015,-187500.02235174447,5154.9381202385575,-187500.02235174447,-187500.02235174447,-187500.02235174447,-187500.02235174447,-187500.02235174447,1730330165.8354409,1730330163.973121,4000
-1156.4122028842214,-187500.02235174447,5122.818663456281,-187500.02235174447,-187500.02235174447,-187500.02235174447,-187500.02235174447,-187500.02235174447,1730330165.8394022,1730330163.973121,4000
-1093.3802835202555,-187500.02235174447,5147.83026550177,-187500.02235174447,-187500.02235174447,-187500.02235174447,-187500.02235174447,-187500.02235174447,1730330165.8445232,1730330163.973121,4000
-1046.307509697379,-187500.02235174447,5192.556106156839,-187500.02235174447,-187500.02235174447,-187500.02235174447,-187500.02235174447,-187500.02235174447,1730330165.8473215,1730330163.973121,4000
-1114.525033774976,-187500.02235174447,5156.011003972412,-187500.02235174447,-187500.02235174447,-187500.02235174447,-187500.02235174447,-187500.02235174447,1730330165.851545,1730330163.973121,4000
-1159.6308540857858,-187500.02235174447,5140.968279953991,-187500.02235174447,-187500.02235174447,-187500.02235174447,-187500.02235174447,-187500.02235174447,1730330165.8554306,1730330163.973121,4000
-1091.1898125636355,-187500.02235174447,5164.728184309982,-187500.02235174447,-187500.02235174447,-187500.02235174447,-187500.02235174447,-187500.02235174447,1730330165.859568,1730330163.973121,4000
-1041.0995532392924,-187500.02235174447,5183.123669996699,-187500.02235174447,-187500.02235174447,-187500.02235174447,-187500.02235174447,-187500.02235174447,1730330165.8636932,1730330163.973121,4000
-1108.6018214943197,-187500.02235174447,5165.890475021658,-187500.02235174447,-187500.02235174447,-187500.02235174447,-187500.02235174447,-187500.02235174447,1730330165.8675652,1730330163.973121,4000
-1170.6726158467077,-187500.02235174447,5136.92261420758,-187500.02235174447,-187500.02235174447,-187500.02235174447,-187500.02235174447,-187500.02235174447,1730330165.8723304,1730330163.973121,4000
-1101.5833737353532,-187500.02235174447,5117.834224442748,-187500.02235174447,-187500.02235174447,-187500.02235174447,-187500.02235174447,-187500.02235174447,1730330165.8755093,1730330163.973121,4000
-1039.311413682868,-187500.02235174447,5144.656317789116,-187500.02235174447,-187500.02235174447,-187500.02235174447,-187500.02235174447,-187500.02235174447,1730330165.879603,1730330163.973121,4000
-1080.3268647583564,-187500.02235174447,5143.941061966546,-187500.02235174447,-187500.02235174447,-187500.02235174447,-187500.02235174447,-187500.02235174447,1730330165.883594,1730330163.973121,4000
-1158.557970351931,-187500.02235174447,5152.613538815205,-187500.02235174447,-187500.02235174447,-187500.02235174447,-187500.02235174447,-187500.02235174447,1730330165.8876195,1730330163.973121,4000
-1131.2888421164564,-187500.02235174447,5129.278317603865,-187500.02235174447,-187500.02235174447,-187500.02235174447,-187500.02235174447,-187500.02235174447,1730330165.8916276,1730330163.973121,4000
-1059.137411014725,-187500.02235174447,5128.719523992482,-187500.02235174447,-187500.02235174447,-187500.02235174447,-187500.02235174447,-187500.02235174447,1730330165.8955483,1730330163.973121,4000
-1084.59604794932,-187500.02235174447,5139.716582264493,-187500.02235174447,-187500.02235174447,-187500.02235174447,-187500.02235174447,-187500.02235174447,1730330165.899722,1730330163.973121,4000
-1152.5677028379089,-187500.02235174447,5151.093620192244,-187500.02235174447,-187500.02235174447,-187500.02235174447,-187500.02235174447,-187500.02235174447,1730330165.9026356,1730330163.973121,4000
-1135.0215834404926,-187500.02235174447,5135.49210256244,-187500.02235174447,-187500.02235174447,-187500.02235174447,-187500.02235174447,-187500.02235174447,1730330165.906484,1730330163.973121,4000
-1065.4182512066664,-187500.02235174447,5122.908070434102,-187500.02235174447,-187500.02235174447,-187500.02235174447,-187500.02235174447,-187500.02235174447,1730330165.912065,1730330163.973121,4000
-1071.2297047650463,-187500.02235174447,5154.625195816183,-187500.02235174447,-187500.02235174447,-187500.02235174447,-187500.02235174447,-187500.02235174447,1730330165.915429,1730330163.973121,4000
-1145.7727725234954,-187500.02235174447,5146.645623045638,-187500.02235174447,-187500.02235174447,-187500.02235174447,-187500.02235174447,-187500.02235174447,1730330165.919889,1730330163.973121,4000
-1148.075002202392,-187500.02235174447,5101.919782390569,-187500.02235174447,-187500.02235174447,-187500.02235174447,-187500.02235174447,-187500.02235174447,1730330165.923436,1730330163.973121,4000
-1078.6728356686635,-187500.02235174447,5116.180195353055,-187500.02235174447,-187500.02235174447,-187500.02235174447,-187500.02235174447,-187500.02235174447,1730330165.9277976,1730330163.973121,4000
-1063.8759808392504,-187500.02235174447,5152.390021370652,-187500.02235174447,-187500.02235174447,-187500.02235174447,-187500.02235174447,-187500.02235174447,1730330165.9306028,1730330163.973121,4000
-1125.320926346889,-187500.02235174447,5160.168428441099,-187500.02235174447,-187500.02235174447,-187500.02235174447,-187500.02235174447,-187500.02235174447,1730330165.9347236,1730330163.973121,4000
-1159.5414471079646,-187500.02235174447,5105.227840569954,-187500.02235174447,-187500.02235174447,-187500.02235174447,-187500.02235174447,-187500.02235174447,1730330165.9394195,1730330163.973121,4000
-1094.006132365004,-187500.02235174447,5087.86053512818,-187500.02235174447,-187500.02235174447,-187500.02235174447,-187500.02235174447,-187500.02235174447,1730330165.9439616,1730330163.973121,4000
-1056.2763877244458,-187500.02235174447,5123.600974512216,-187500.02235174447,-187500.02235174447,-187500.02235174447,-187500.02235174447,-187500.02235174447,1730330165.947513,1730330163.973121,4000
-1122.817530967895,-187500.02235174447,5142.577605554772,-187500.02235174447,-187500.02235174447,-187500.02235174447,-187500.02235174447,-187500.02235174447,1730330165.95211,1730330163.973121,4000
-1172.304293191945,-187500.02235174447,5116.224898841965,-187500.02235174447,-187500.02235174447,-187500.02235174447,-187500.02235174447,-187500.02235174447,1730330165.955506,1730330163.973121,4000
-1099.3929027787333,-187500.02235174447,5116.738988964437,-187500.02235174447,-187500.02235174447,-187500.02235174447,-187500.02235174447,-187500.02235174447,1730330165.9587188,1730330163.973121,4000
-1047.916835298161,-187500.02235174447,5118.191852354033,-187500.02235174447,-187500.02235174447,-187500.02235174447,-187500.02235174447,-187500.02235174447,1730330165.9628289,1730330163.973121,4000
-1102.9915336360375,-187500.02235174447,5136.140303151644,-187500.02235174447,-187500.02235174447,-187500.02235174447,-187500.02235174447,-187500.02235174447,1730330165.9676018,1730330163.973121,4000
-1159.139115707769,-187500.02235174447,5130.239442615443,-187500.02235174447,-187500.02235174447,-187500.02235174447,-187500.02235174447,-187500.02235174447,1730330165.9720604,1730330163.973121,4000
-1101.7621876909957,-187500.02235174447,5118.616535498683,-187500.02235174447,-187500.02235174447,-187500.02235174447,-187500.02235174447,-187500.02235174447,1730330165.975603,1730330163.973121,4000
-1047.9615387870715,-187500.02235174447,5120.002343654913,-187500.02235174447,-187500.02235174447,-187500.02235174447,-187500.02235174447,-187500.02235174447,1730330165.980016,1730330163.973121,4000
-1090.854536396806,-187500.02235174447,5127.758398980904,-187500.02235174447,-187500.02235174447,-187500.02235174447,-187500.02235174447,-187500.02235174447,1730330165.9837625,1730330163.973121,4000
-1154.4676011166098,-187500.02235174447,5116.291954075331,-187500.02235174447,-187500.02235174447,-187500.02235174447,-187500.02235174447,-187500.02235174447,1730330165.9871955,1730330163.973121,4000
-1124.6950775021407,-187500.02235174447,5084.48542171543,-187500.02235174447,-187500.02235174447,-187500.02235174447,-187500.02235174447,-187500.02235174447,1730330165.99057,1730330163.973121,4000
-1050.2637684659685,-187500.02235174447,5120.7175994774825,-187500.02235174447,-187500.02235174447,-187500.02235174447,-187500.02235174447,-187500.02235174447,1730330165.9957209,1730330163.973121,4000
-1065.977044818049,-187500.02235174447,5147.83026550177,-187500.02235174447,-187500.02235174447,-187500.02235174447,-187500.02235174447,-187500.02235174447,1730330165.99986,1730330163.973121,4000
-1151.94185399316,-187500.02235174447,5123.936250679047,-187500.02235174447,-187500.02235174447,-187500.02235174447,-187500.02235174447,-187500.02235174447,1730330166.0037928,1730330163.973121,4000
-1151.204246426135,-187500.02235174447,5116.828395942259,-187500.02235174447,-187500.02235174447,-187500.02235174447,-187500.02235174447,-187500.02235174447,1730330166.0078552,1730330163.973121,4000
-1067.11698378527,-187500.02235174447,5113.497986018418,-187500.02235174447,-187500.02235174447,-187500.02235174447,-187500.02235174447,-187500.02235174447,1730330166.0108647,1730330163.973121,4000
-1065.5523616733983,-187500.02235174447,5133.279279861365,-187500.02235174447,-187500.02235174447,-187500.02235174447,-187500.02235174447,-187500.02235174447,1730330166.01454,1730330163.973121,4000
-1139.782505009473,-187500.02235174447,5111.82160518427,-187500.02235174447,-187500.02235174447,-187500.02235174447,-187500.02235174447,-187500.02235174447,1730330166.0190656,1730330163.973121,4000
-1150.0866592033697,-187500.02235174447,5085.603008938195,-187500.02235174447,-187500.02235174447,-187500.02235174447,-187500.02235174447,-187500.02235174447,1730330166.0227454,1730330163.973121,4000
-1068.6145506637754,-187500.02235174447,5085.200677538,-187500.02235174447,-187500.02235174447,-187500.02235174447,-187500.02235174447,-187500.02235174447,1730330166.0278988,1730330163.973121,4000
-1045.6369573637196,-187500.02235174447,5122.371628567174,-187500.02235174447,-187500.02235174447,-187500.02235174447,-187500.02235174447,-187500.02235174447,1730330166.031624,1730330163.973121,4000
-1122.7504757345291,-187500.02235174447,5129.479483303962,-187500.02235174447,-187500.02235174447,-187500.02235174447,-187500.02235174447,-187500.02235174447,1730330166.035081,1730330163.973121,4000
-1168.0127582565258,-187500.02235174447,5104.557288236295,-187500.02235174447,-187500.02235174447,-187500.02235174447,-187500.02235174447,-187500.02235174447,1730330166.038874,1730330163.973121,4000
-1104.2208795810795,-187500.02235174447,5094.163727064577,-187500.02235174447,-187500.02235174447,-187500.02235174447,-187500.02235174447,-187500.02235174447,1730330166.0429142,1730330163.973121,4000
-1060.076184281848,-187500.02235174447,5097.494136988418,-187500.02235174447,-187500.02235174447,-187500.02235174447,-187500.02235174447,-187500.02235174447,1730330166.0471592,1730330163.973121,4000
-1111.3510860623226,-187500.02235174447,5110.0558173723,-187500.02235174447,-187500.02235174447,-187500.02235174447,-187500.02235174447,-187500.02235174447,1730330166.0508788,1730330163.973121,4000
-1159.2508744300455,-187500.02235174447,5097.382378266141,-187500.02235174447,-187500.02235174447,-187500.02235174447,-187500.02235174447,-187500.02235174447,1730330166.0556495,1730330163.973121,4000
-1116.5813942648642,-187500.02235174447,5082.741985647916,-187500.02235174447,-187500.02235174447,-187500.02235174447,-187500.02235174447,-187500.02235174447,1730330166.0599985,1730330163.973121,4000
-1048.7662015874628,-187500.02235174447,5125.63498325765,-187500.02235174447,-187500.02235174447,-187500.02235174447,-187500.02235174447,-187500.02235174447,1730330166.063161,1730330163.973121,4000
-1102.3880365357445,-187500.02235174447,5120.739951221937,-187500.02235174447,-187500.02235174447,-187500.02235174447,-187500.02235174447,-187500.02235174447,1730330166.067021,1730330163.973121,4000
-1170.1808774686906,-187500.02235174447,5070.917912831058,-187500.02235174447,-187500.02235174447,-187500.02235174447,-187500.02235174447,-187500.02235174447,1730330166.0710804,1730330163.973121,4000
-1117.4084088097106,-187500.02235174447,5053.818828322748,-187500.02235174447,-187500.02235174447,-187500.02235174447,-187500.02235174447,-187500.02235174447,1730330166.0747595,1730330163.973121,4000
-1065.2170855065688,-187500.02235174447,5075.9917588224125,-187500.02235174447,-187500.02235174447,-187500.02235174447,-187500.02235174447,-187500.02235174447,1730330166.078872,1730330163.973121,4000
-1094.8554986543058,-187500.02235174447,5076.349386733697,-187500.02235174447,-187500.02235174447,-187500.02235174447,-187500.02235174447,-187500.02235174447,1730330166.0841875,1730330163.973121,4000
-1167.0292815004923,-187500.02235174447,5080.484459457929,-187500.02235174447,-187500.02235174447,-187500.02235174447,-187500.02235174447,-187500.02235174447,1730330166.088012,1730330163.973121,4000
-1132.5405398059536,-187500.02235174447,5059.339709203209,-187500.02235174447,-187500.02235174447,-187500.02235174447,-187500.02235174447,-187500.02235174447,1730330166.0907767,1730330163.973121,4000
-1046.1510474861918,-187500.02235174447,5073.801287865793,-187500.02235174447,-187500.02235174447,-187500.02235174447,-187500.02235174447,-187500.02235174447,1730330166.0952475,1730330163.973121,4000
-1061.1714197601582,-187500.02235174447,5118.460073287496,-187500.02235174447,-187500.02235174447,-187500.02235174447,-187500.02235174447,-187500.02235174447,1730330166.0988684,1730330163.973121,4000
-1146.8903597462606,-187500.02235174447,5100.086939345234,-187500.02235174447,-187500.02235174447,-187500.02235174447,-187500.02235174447,-187500.02235174447,1730330166.1031704,1730330163.973121,4000
-1147.9408917356602,-187500.02235174447,5053.170627733544,-187500.02235174447,-187500.02235174447,-187500.02235174447,-187500.02235174447,-187500.02235174447,1730330166.1067293,1730330163.973121,4000
-1064.8147541063731,-187500.02235174447,5051.695412599494,-187500.02235174447,-187500.02235174447,-187500.02235174447,-187500.02235174447,-187500.02235174447,1730330166.1109636,1730330163.973121,4000
-1068.2569227524905,-187500.02235174447,5094.029616597845,-187500.02235174447,-187500.02235174447,-187500.02235174447,-187500.02235174447,-187500.02235174447,1730330166.115877,1730330163.973121,4000
-1143.4034876112328,-187500.02235174447,5090.520392718362,-187500.02235174447,-187500.02235174447,-187500.02235174447,-187500.02235174447,-187500.02235174447,1730330166.1193595,1730330163.973121,4000
-1146.4433248571545,-187500.02235174447,5031.198862933978,-187500.02235174447,-187500.02235174447,-187500.02235174447,-187500.02235174447,-187500.02235174447,1730330166.1227212,1730330163.973121,4000
-1074.2024867776022,-187500.02235174447,5039.156083960067,-187500.02235174447,-187500.02235174447,-187500.02235174447,-187500.02235174447,-187500.02235174447,1730330166.1275048,1730330163.973121,4000
-1060.9702540600604,-187500.02235174447,5097.337674777231,-187500.02235174447,-187500.02235174447,-187500.02235174447,-187500.02235174447,-187500.02235174447,1730330166.1308875,1730330163.973121,4000
-1123.8904147017497,-187500.02235174447,5045.794552063293,-187500.02235174447,-187500.02235174447,-187500.02235174447,-187500.02235174447,-187500.02235174447,1730330166.134872,1730330163.973121,4000
-1156.300444161945,-187500.02235174447,5024.828615764215,-187500.02235174447,-187500.02235174447,-187500.02235174447,-187500.02235174447,-187500.02235174447,1730330166.1398065,1730330163.973121,4000
-1093.0003038645154,-187500.02235174447,5006.65664752205,-187500.02235174447,-187500.02235174447,-187500.02235174447,-187500.02235174447,-187500.02235174447,1730330166.1430893,1730330163.973121,4000
-1056.9469400581052,-187500.02235174447,5025.789740775793,-187500.02235174447,-187500.02235174447,-187500.02235174447,-187500.02235174447,-187500.02235174447,1730330166.145959,1730330163.973121,4000
-1124.8515397133278,-187500.02235174447,5051.248377710388,-187500.02235174447,-187500.02235174447,-187500.02235174447,-187500.02235174447,-187500.02235174447,1730330166.1509511,1730330163.973121,4000
-1163.3412436653666,-187500.02235174447,5049.102610242679,-187500.02235174447,-187500.02235174447,-187500.02235174447,-187500.02235174447,-187500.02235174447,1730330166.154774,1730330163.973121,4000
-1105.4055220372109,-187500.02235174447,5039.7148775714495,-187500.02235174447,-187500.02235174447,-187500.02235174447,-187500.02235174447,-187500.02235174447,1730330166.1590075,1730330163.973121,4000
-1058.7797831034402,-187500.02235174447,5040.228967693922,-187500.02235174447,-187500.02235174447,-187500.02235174447,-187500.02235174447,-187500.02235174447,1730330166.1630158,1730330163.973121,4000
-1112.714542474096,-187500.02235174447,5039.111380471156,-187500.02235174447,-187500.02235174447,-187500.02235174447,-187500.02235174447,-187500.02235174447,1730330166.1679916,1730330163.973121,4000
-1178.428671172699,-187500.02235174447,5031.131807700612,-187500.02235174447,-187500.02235174447,-187500.02235174447,-187500.02235174447,-187500.02235174447,1730330166.1709456,1730330163.973121,4000
-1129.4336473266658,-187500.02235174447,5012.915135969536,-187500.02235174447,-187500.02235174447,-187500.02235174447,-187500.02235174447,-187500.02235174447,1730330166.1737952,1730330163.973121,4000
-1057.9974720475043,-187500.02235174447,5021.386447118098,-187500.02235174447,-187500.02235174447,-187500.02235174447,-187500.02235174447,-187500.02235174447,1730330166.1789217,1730330163.973121,4000
-1084.2607717824903,-187500.02235174447,5039.916043271547,-187500.02235174447,-187500.02235174447,-187500.02235174447,-187500.02235174447,-187500.02235174447,1730330166.18298,1730330163.973121,4000
-1159.8543715303388,-187500.02235174447,5043.089990984201,-187500.02235174447,-187500.02235174447,-187500.02235174447,-187500.02235174447,-187500.02235174447,1730330166.1870065,1730330163.973121,4000
-1143.1129149333135,-187500.02235174447,5038.172607204033,-187500.02235174447,-187500.02235174447,-187500.02235174447,-187500.02235174447,-187500.02235174447,1730330166.191003,1730330163.973121,4000
-1059.338576714823,-187500.02235174447,5052.298909699787,-187500.02235174447,-187500.02235174447,-187500.02235174447,-187500.02235174447,-187500.02235174447,1730330166.194934,1730330163.973121,4000
-1075.4765362115547,-187500.02235174447,5038.597290348684,-187500.02235174447,-187500.02235174447,-187500.02235174447,-187500.02235174447,-187500.02235174447,1730330166.1989408,1730330163.973121,4000
-1159.3179296634114,-187500.02235174447,5025.767389031338,-187500.02235174447,-187500.02235174447,-187500.02235174447,-187500.02235174447,-187500.02235174447,1730330166.2020688,1730330163.973121,4000
-1163.3412436653666,-187500.02235174447,5014.859737737148,-187500.02235174447,-187500.02235174447,-187500.02235174447,-187500.02235174447,-187500.02235174447,1730330166.207016,1730330163.973121,4000
-1083.590219448831,-187500.02235174447,5014.569165059229,-187500.02235174447,-187500.02235174447,-187500.02235174447,-187500.02235174447,-187500.02235174447,1730330166.2110777,1730330163.973121,4000
-1066.7146523850745,-187500.02235174447,5040.676002583027,-187500.02235174447,-187500.02235174447,-187500.02235174447,-187500.02235174447,-187500.02235174447,1730330166.2149332,1730330163.973121,4000
-1138.620214297797,-187500.02235174447,5052.388316677609,-187500.02235174447,-187500.02235174447,-187500.02235174447,-187500.02235174447,-187500.02235174447,1730330166.219443,1730330163.973121,4000
-1155.361670894822,-187500.02235174447,5029.656592566561,-187500.02235174447,-187500.02235174447,-187500.02235174447,-187500.02235174447,-187500.02235174447,1730330166.2229593,1730330163.973121,4000
-1082.8302601373507,-187500.02235174447,5005.270839365821,-187500.02235174447,-187500.02235174447,-187500.02235174447,-187500.02235174447,-187500.02235174447,1730330166.2271483,1730330163.973121,4000
-1041.948919528594,-187500.02235174447,5023.711028541449,-187500.02235174447,-187500.02235174447,-187500.02235174447,-187500.02235174447,-187500.02235174447,1730330166.2302113,1730330163.973121,4000
-1111.395789551233,-187500.02235174447,5044.788723562804,-187500.02235174447,-187500.02235174447,-187500.02235174447,-187500.02235174447,-187500.02235174447,1730330166.234058,1730330163.973121,4000
-1164.8611622883277,-187500.02235174447,5012.691618524983,-187500.02235174447,-187500.02235174447,-187500.02235174447,-187500.02235174447,-187500.02235174447,1730330166.2389555,1730330163.973121,4000
-1099.6387719677416,-187500.02235174447,5012.222231891422,-187500.02235174447,-187500.02235174447,-187500.02235174447,-187500.02235174447,-187500.02235174447,1730330166.2435172,1730330163.973121,4000
-1055.7846493464292,-187500.02235174447,5043.112342728656,-187500.02235174447,-187500.02235174447,-187500.02235174447,-187500.02235174447,-187500.02235174447,1730330166.2472036,1730330163.973121,4000
-1110.7028854731186,-187500.02235174447,5038.619642093139,-187500.02235174447,-187500.02235174447,-187500.02235174447,-187500.02235174447,-187500.02235174447,1730330166.2505777,1730330163.973121,4000
-1164.3247204214,-187500.02235174447,5016.245545893377,-187500.02235174447,-187500.02235174447,-187500.02235174447,-187500.02235174447,-187500.02235174447,1730330166.2542837,1730330163.973121,4000
-1119.8671006997945,-187500.02235174447,5013.093949925179,-187500.02235174447,-187500.02235174447,-187500.02235174447,-187500.02235174447,-187500.02235174447,1730330166.2587116,1730330163.973121,4000
-1068.3463297303117,-187500.02235174447,5023.845139008181,-187500.02235174447,-187500.02235174447,-187500.02235174447,-187500.02235174447,-187500.02235174447,1730330166.262524,1730330163.973121,4000
-1103.5503272474202,-187500.02235174447,5004.42147307652,-187500.02235174447,-187500.02235174447,-187500.02235174447,-187500.02235174447,-187500.02235174447,1730330166.2676532,1730330163.973121,4000
-1162.6483395872522,-187500.02235174447,5008.131862656101,-187500.02235174447,-187500.02235174447,-187500.02235174447,-187500.02235174447,-187500.02235174447,1730330166.271671,1730330163.973121,4000
-1132.160560150213,-187500.02235174447,4985.131917611589,-187500.02235174447,-187500.02235174447,-187500.02235174447,-187500.02235174447,-187500.02235174447,1730330166.2751696,1730330163.973121,4000
-1059.1597627591805,-187500.02235174447,5002.745092242371,-187500.02235174447,-187500.02235174447,-187500.02235174447,-187500.02235174447,-187500.02235174447,1730330166.2786083,1730330163.973121,4000
-1078.3599112462891,-187500.02235174447,5061.194903993,-187500.02235174447,-187500.02235174447,-187500.02235174447,-187500.02235174447,-187500.02235174447,1730330166.2820754,1730330163.973121,4000
-1156.881589517783,-187500.02235174447,5030.416551878042,-187500.02235174447,-187500.02235174447,-187500.02235174447,-187500.02235174447,-187500.02235174447,1730330166.28628,1730330163.973121,4000
-1161.3742901532996,-187500.02235174447,4974.224266317399,-187500.02235174447,-187500.02235174447,-187500.02235174447,-187500.02235174447,-187500.02235174447,1730330166.2899833,1730330163.973121,4000
-1078.270504268468,-187500.02235174447,4990.496336280863,-187500.02235174447,-187500.02235174447,-187500.02235174447,-187500.02235174447,-187500.02235174447,1730330166.2951653,1730330163.973121,4000
-1075.6553501671972,-187500.02235174447,5025.521519842329,-187500.02235174447,-187500.02235174447,-187500.02235174447,-187500.02235174447,-187500.02235174447,1730330166.2991977,1730330163.973121,4000
-1145.951586479138,-187500.02235174447,5025.543871586785,-187500.02235174447,-187500.02235174447,-187500.02235174447,-187500.02235174447,-187500.02235174447,1730330166.3034763,1730330163.973121,4000
-1151.9195022487047,-187500.02235174447,4980.169830342511,-187500.02235174447,-187500.02235174447,-187500.02235174447,-187500.02235174447,-187500.02235174447,1730330166.306044,1730330163.973121,4000
-1082.919667115172,-187500.02235174447,5012.713970269439,-187500.02235174447,-187500.02235174447,-187500.02235174447,-187500.02235174447,-187500.02235174447,1730330166.3104377,1730330163.973121,4000
-1073.5766379328536,-187500.02235174447,5034.305755413265,-187500.02235174447,-187500.02235174447,-187500.02235174447,-187500.02235174447,-187500.02235174447,1730330166.3140187,1730330163.973121,4000
-1132.428781083677,-187500.02235174447,5035.535101358307,-187500.02235174447,-187500.02235174447,-187500.02235174447,-187500.02235174447,-187500.02235174447,1730330166.3183775,1730330163.973121,4000
-1161.5307523644867,-187500.02235174447,4985.713062967428,-187500.02235174447,-187500.02235174447,-187500.02235174447,-187500.02235174447,-187500.02235174447,1730330166.3230522,1730330163.973121,4000
-1104.5785074923645,-187500.02235174447,4971.206780815934,-187500.02235174447,-187500.02235174447,-187500.02235174447,-187500.02235174447,-187500.02235174447,1730330166.3271785,1730330163.973121,4000
-1068.7039576415966,-187500.02235174447,5013.026894691813,-187500.02235174447,-187500.02235174447,-187500.02235174447,-187500.02235174447,-187500.02235174447,1730330166.3310864,1730330163.973121,4000
-1132.697002017141,-187500.02235174447,5023.5769180747175,-187500.02235174447,-187500.02235174447,-187500.02235174447,-187500.02235174447,-187500.02235174447,1730330166.334304,1730330163.973121,4000
-1168.6609588457295,-187500.02235174447,4991.256295592344,-187500.02235174447,-187500.02235174447,-187500.02235174447,-187500.02235174447,-187500.02235174447,1730330166.3386376,1730330163.973121,4000
-1107.6183447382862,-187500.02235174447,4956.07464981969,-187500.02235174447,-187500.02235174447,-187500.02235174447,-187500.02235174447,-187500.02235174447,1730330166.3427129,1730330163.973121,4000
-1059.8303150928398,-187500.02235174447,4961.8190481447045,-187500.02235174447,-187500.02235174447,-187500.02235174447,-187500.02235174447,-187500.02235174447,1730330166.3464732,1730330163.973121,4000
-1108.5124145164984,-187500.02235174447,4992.016254903824,-187500.02235174447,-187500.02235174447,-187500.02235174447,-187500.02235174447,-187500.02235174447,1730330166.350557,1730330163.973121,4000
-1169.6444356017632,-187500.02235174447,4989.311693824732,-187500.02235174447,-187500.02235174447,-187500.02235174447,-187500.02235174447,-187500.02235174447,1730330166.3552363,1730330163.973121,4000
-1128.137246148258,-187500.02235174447,4985.824821689704,-187500.02235174447,-187500.02235174447,-187500.02235174447,-187500.02235174447,-187500.02235174447,1730330166.359208,1730330163.973121,4000
-1056.2987394689012,-187500.02235174447,4998.364150329131,-187500.02235174447,-187500.02235174447,-187500.02235174447,-187500.02235174447,-187500.02235174447,1730330166.3625083,1730330163.973121,4000
-1075.9235711006609,-187500.02235174447,4991.457461292442,-187500.02235174447,-187500.02235174447,-187500.02235174447,-187500.02235174447,-187500.02235174447,1730330166.3663926,1730330163.973121,4000
-1152.3441853933557,-187500.02235174447,4989.848135691659,-187500.02235174447,-187500.02235174447,-187500.02235174447,-187500.02235174447,-187500.02235174447,1730330166.3704996,1730330163.973121,4000
