Fp1,Fp2,C3,C4,P7,P8,O1,O2,time_board,time_marker,marker
-468.3361015720489,-187500.02235174447,-63.5907129753486,-187500.02235174447,-187500.02235174447,-187500.02235174447,-187500.02235174447,-187500.02235174447,1730245509.8147628,1730245509.8124063,4000
-466.34679631552655,-187500.02235174447,-58.91919838418941,-187500.02235174447,-187500.02235174447,-187500.02235174447,-187500.02235174447,-187500.02235174447,1730245509.8189464,1730245509.8124063,4000
-475.8462877090321,-187500.02235174447,-87.77530047599083,-187500.02235174447,-187500.02235174447,-187500.02235174447,-187500.02235174447,-187500.02235174447,1730245509.8229604,1730245509.8124063,4000
-480.2942848556382,-187500.02235174447,-101.52162331600468,-187500.02235174447,-187500.02235174447,-187500.02235174447,-187500.02235174447,-187500.02235174447,1730245509.8279407,1730245509.8124063,4000
-449.85120890750994,-187500.02235174447,-65.8482391653346,-187500.02235174447,-187500.02235174447,-187500.02235174447,-187500.02235174447,-187500.02235174447,1730245509.8317635,1730245509.8124063,4000
-438.8988541244095,-187500.02235174447,-40.836637119846,-187500.02235174447,-187500.02235174447,-187500.02235174447,-187500.02235174447,-187500.02235174447,1730245509.8359034,1730245509.8124063,4000
-466.03387189315225,-187500.02235174447,-76.08533812586523,-187500.02235174447,-187500.02235174447,-187500.02235174447,-187500.02235174447,-187500.02235174447,1730245509.8388147,1730245509.8124063,4000
-476.69565399833374,-187500.02235174447,-105.74610301805772,-187500.02235174447,-187500.02235174447,-187500.02235174447,-187500.02235174447,-187500.02235174447,1730245509.8439715,1730245509.8124063,4000
-438.2506535352056,-187500.02235174447,-71.41382353470607,-187500.02235174447,-187500.02235174447,-187500.02235174447,-187500.02235174447,-187500.02235174447,1730245509.8478167,1730245509.8124063,4000
-446.2972815391161,-187500.02235174447,-42.04363132043258,-187500.02235174447,-187500.02235174447,-187500.02235174447,-187500.02235174447,-187500.02235174447,1730245509.8508384,1730245509.8124063,4000
-469.11841262798464,-187500.02235174447,-68.6645589667033,-187500.02235174447,-187500.02235174447,-187500.02235174447,-187500.02235174447,-187500.02235174447,1730245509.8558428,1730245509.8124063,4000
-477.8132412210991,-187500.02235174447,-103.91325997272251,-187500.02235174447,-187500.02235174447,-187500.02235174447,-187500.02235174447,-187500.02235174447,1730245509.859831,1730245509.8124063,4000
-444.0174036046748,-187500.02235174447,-88.89288769875618,-187500.02235174447,-187500.02235174447,-187500.02235174447,-187500.02235174447,-187500.02235174447,1730245509.863909,1730245509.8124063,4000
-444.5091419826916,-187500.02235174447,-48.413878490195096,-187500.02235174447,-187500.02235174447,-187500.02235174447,-187500.02235174447,-187500.02235174447,1730245509.866953,1730245509.8124063,4000
-471.7559184737109,-187500.02235174447,-64.97652113157763,-187500.02235174447,-187500.02235174447,-187500.02235174447,-187500.02235174447,-187500.02235174447,1730245509.8708844,1730245509.8124063,4000
-480.0707674110851,-187500.02235174447,-104.18148090618622,-187500.02235174447,-187500.02235174447,-187500.02235174447,-187500.02235174447,-187500.02235174447,1730245509.8749883,1730245509.8124063,4000
-469.14076437244,-187500.02235174447,-95.03961742396564,-187500.02235174447,-187500.02235174447,-187500.02235174447,-187500.02235174447,-187500.02235174447,1730245509.8788369,1730245509.8124063,4000
-461.13883985744,-187500.02235174447,-63.054271108421226,-187500.02235174447,-187500.02235174447,-187500.02235174447,-187500.02235174447,-187500.02235174447,1730245509.8830516,1730245509.8124063,4000
-476.02510166467454,-187500.02235174447,-79.88513468326744,-187500.02235174447,-187500.02235174447,-187500.02235174447,-187500.02235174447,-187500.02235174447,1730245509.887862,1730245509.8124063,4000
-488.43031983737,-187500.02235174447,-113.2786408994962,-187500.02235174447,-187500.02235174447,-187500.02235174447,-187500.02235174447,-187500.02235174447,1730245509.8919742,1730245509.8124063,4000
-478.975531932775,-187500.02235174447,-112.3398676323733,-187500.02235174447,-187500.02235174447,-187500.02235174447,-187500.02235174447,-187500.02235174447,1730245509.8951042,1730245509.8124063,4000
-449.0912495960295,-187500.02235174447,-69.9386084006558,-187500.02235174447,-187500.02235174447,-187500.02235174447,-187500.02235174447,-187500.02235174447,1730245509.899106,1730245509.8124063,4000
-459.5295142566579,-187500.02235174447,-63.68011995316982,-187500.02235174447,-187500.02235174447,-187500.02235174447,-187500.02235174447,-187500.02235174447,1730245509.9039454,1730245509.8124063,4000
-478.684959254856,-187500.02235174447,-113.3233443884068,-187500.02235174447,-187500.02235174447,-187500.02235174447,-187500.02235174447,-187500.02235174447,1730245509.908069,1730245509.8124063,4000
-488.78794774865486,-187500.02235174447,-118.7101148021358,-187500.02235174447,-187500.02235174447,-187500.02235174447,-187500.02235174447,-187500.02235174447,1730245509.9110904,1730245509.8124063,4000
-453.38278453144846,-187500.02235174447,-84.06491089640986,-187500.02235174447,-187500.02235174447,-187500.02235174447,-187500.02235174447,-187500.02235174447,1730245509.916083,1730245509.8124063,4000
-463.7986974476216,-187500.02235174447,-66.80936417691281,-187500.02235174447,-187500.02235174447,-187500.02235174447,-187500.02235174447,-187500.02235174447,1730245509.9190695,1730245509.8124063,4000
-503.7859682781659,-187500.02235174447,-100.58285004888178,-187500.02235174447,-187500.02235174447,-187500.02235174447,-187500.02235174447,-187500.02235174447,1730245509.9241056,1730245509.8124063,4000
-500.4555583543252,-187500.02235174447,-113.97154497761072,-187500.02235174447,-187500.02235174447,-187500.02235174447,-187500.02235174447,-187500.02235174447,1730245509.926988,1730245509.8124063,4000
-478.3049795991158,-187500.02235174447,-72.41965203519489,-187500.02235174447,-187500.02235174447,-187500.02235174447,-187500.02235174447,-187500.02235174447,1730245509.932078,1730245509.8124063,4000
-465.34096781503774,-187500.02235174447,-55.7005471826252,-187500.02235174447,-187500.02235174447,-187500.02235174447,-187500.02235174447,-187500.02235174447,1730245509.9350815,1730245509.8124063,4000
-494.50999432921344,-187500.02235174447,-83.90844868522271,-187500.02235174447,-187500.02235174447,-187500.02235174447,-187500.02235174447,-187500.02235174447,1730245509.9392312,1730245509.8124063,4000
-507.9657444913083,-187500.02235174447,-103.8462047393566,-187500.02235174447,-187500.02235174447,-187500.02235174447,-187500.02235174447,-187500.02235174447,1730245509.9441917,1730245509.8124063,4000
-469.4760405392696,-187500.02235174447,-79.90748642772274,-187500.02235174447,-187500.02235174447,-187500.02235174447,-187500.02235174447,-187500.02235174447,1730245509.9471128,1730245509.8124063,4000
-460.87061892397634,-187500.02235174447,-49.263244779496766,-187500.02235174447,-187500.02235174447,-187500.02235174447,-187500.02235174447,-187500.02235174447,1730245509.9501207,1730245509.8124063,4000
-481.0989476560292,-187500.02235174447,-68.15046884423123,-187500.02235174447,-187500.02235174447,-187500.02235174447,-187500.02235174447,-187500.02235174447,1730245509.955092,1730245509.8124063,4000
-496.38754086345926,-187500.02235174447,-110.05998969793198,-187500.02235174447,-187500.02235174447,-187500.02235174447,-187500.02235174447,-187500.02235174447,1730245509.9591324,1730245509.8124063,4000
-469.4760405392696,-187500.02235174447,-98.88411747027844,-187500.02235174447,-187500.02235174447,-187500.02235174447,-187500.02235174447,-187500.02235174447,1730245509.9630313,1730245509.8124063,4000
-448.8677321514765,-187500.02235174447,-59.12036408428718,-187500.02235174447,-187500.02235174447,-187500.02235174447,-187500.02235174447,-187500.02235174447,1730245509.967141,1730245509.8124063,4000
-472.7393952297444,-187500.02235174447,-61.95903563011118,-187500.02235174447,-187500.02235174447,-187500.02235174447,-187500.02235174447,-187500.02235174447,1730245509.9721427,1730245509.8124063,4000
-488.5867820485571,-187500.02235174447,-105.58964080687056,-187500.02235174447,-187500.02235174447,-187500.02235174447,-187500.02235174447,-187500.02235174447,1730245509.975146,1730245509.8124063,4000
-466.8608864379986,-187500.02235174447,-102.8403762388678,-187500.02235174447,-187500.02235174447,-187500.02235174447,-187500.02235174447,-187500.02235174447,1730245509.978006,1730245509.8124063,4000
-431.7462958987112,-187500.02235174447,-62.67429145268101,-187500.02235174447,-187500.02235174447,-187500.02235174447,-187500.02235174447,-187500.02235174447,1730245509.983218,1730245509.8124063,4000
-438.4071157463927,-187500.02235174447,-66.74230894354689,-187500.02235174447,-187500.02235174447,-187500.02235174447,-187500.02235174447,-187500.02235174447,1730245509.9871106,1730245509.8124063,4000
-474.9969214197304,-187500.02235174447,-108.98710596407724,-187500.02235174447,-187500.02235174447,-187500.02235174447,-187500.02235174447,-187500.02235174447,1730245509.9911752,1730245509.8124063,4000
-478.10381389901806,-187500.02235174447,-109.97058272011076,-187500.02235174447,-187500.02235174447,-187500.02235174447,-187500.02235174447,-187500.02235174447,1730245509.995242,1730245509.8124063,4000
-448.398345517915,-187500.02235174447,-82.07560563988753,-187500.02235174447,-187500.02235174447,-187500.02235174447,-187500.02235174447,-187500.02235174447,1730245509.9992113,1730245509.8124063,4000
-456.6014357330127,-187500.02235174447,-82.74615797354674,-187500.02235174447,-187500.02235174447,-187500.02235174447,-187500.02235174447,-187500.02235174447,1730245510.003214,1730245509.8124063,4000
-487.2456773812386,-187500.02235174447,-124.27569917150728,-187500.02235174447,-187500.02235174447,-187500.02235174447,-187500.02235174447,-187500.02235174447,1730245510.006108,1730245509.8124063,4000
-482.6188662789901,-187500.02235174447,-130.46713238562734,-187500.02235174447,-187500.02235174447,-187500.02235174447,-187500.02235174447,-187500.02235174447,1730245510.0112588,1730245509.8124063,4000
-452.93574964234233,-187500.02235174447,-77.24762883754121,-187500.02235174447,-187500.02235174447,-187500.02235174447,-187500.02235174447,-187500.02235174447,1730245510.0152352,1730245509.8124063,4000
-451.4828862527473,-187500.02235174447,-60.93085538516705,-187500.02235174447,-187500.02235174447,-187500.02235174447,-187500.02235174447,-187500.02235174447,1730245510.0192468,1730245509.8124063,4000
-474.7287004862667,-187500.02235174447,-97.25244012504103,-187500.02235174447,-187500.02235174447,-187500.02235174447,-187500.02235174447,-187500.02235174447,1730245510.0232613,1730245509.8124063,4000
-469.878371939465,-187500.02235174447,-124.9909549940771,-187500.02235174447,-187500.02235174447,-187500.02235174447,-187500.02235174447,-187500.02235174447,1730245510.0272412,1730245509.8124063,4000
-445.1796943163508,-187500.02235174447,-84.64605625224785,-187500.02235174447,-187500.02235174447,-187500.02235174447,-187500.02235174447,-187500.02235174447,1730245510.0312848,1730245509.8124063,4000
-439.301185524605,-187500.02235174447,-53.86770413729002,-187500.02235174447,-187500.02235174447,-187500.02235174447,-187500.02235174447,-187500.02235174447,1730245510.0342295,1730245509.8124063,4000
-456.109697354996,-187500.02235174447,-79.14752711624232,-187500.02235174447,-187500.02235174447,-187500.02235174447,-187500.02235174447,-187500.02235174447,1730245510.0380998,1730245509.8124063,4000
-456.6908427108339,-187500.02235174447,-102.8627279833231,-187500.02235174447,-187500.02235174447,-187500.02235174447,-187500.02235174447,-187500.02235174447,1730245510.043265,1730245509.8124063,4000
-467.8220114495769,-187500.02235174447,-76.46531778160546,-187500.02235174447,-187500.02235174447,-187500.02235174447,-187500.02235174447,-187500.02235174447,1730245510.0472991,1730245509.8124063,4000
-445.6043774610016,-187500.02235174447,-51.05138433592133,-187500.02235174447,-187500.02235174447,-187500.02235174447,-187500.02235174447,-187500.02235174447,1730245510.051284,1730245509.8124063,4000
-461.5188195131802,-187500.02235174447,-64.73065194256925,-187500.02235174447,-187500.02235174447,-187500.02235174447,-187500.02235174447,-187500.02235174447,1730245510.0541587,1730245509.8124063,4000
-459.50716251220257,-187500.02235174447,-85.62953300828136,-187500.02235174447,-187500.02235174447,-187500.02235174447,-187500.02235174447,-187500.02235174447,1730245510.0583389,1730245509.8124063,4000
-431.61218543197936,-187500.02235174447,-71.95026540163343,-187500.02235174447,-187500.02235174447,-187500.02235174447,-187500.02235174447,-187500.02235174447,1730245510.0621233,1730245509.8124063,4000
-419.7881126151219,-187500.02235174447,-29.705468381103085,-187500.02235174447,-187500.02235174447,-187500.02235174447,-187500.02235174447,-187500.02235174447,1730245510.0663433,1730245509.8124063,4000
-435.948423856309,-187500.02235174447,-39.13790454124267,-187500.02235174447,-187500.02235174447,-187500.02235174447,-187500.02235174447,-187500.02235174447,1730245510.0711694,1730245509.8124063,4000
-458.2331130782501,-187500.02235174447,-87.14945163124224,-187500.02235174447,-187500.02235174447,-187500.02235174447,-187500.02235174447,-187500.02235174447,1730245510.0753536,1730245509.8124063,4000
-439.8599791359877,-187500.02235174447,-75.83946893685686,-187500.02235174447,-187500.02235174447,-187500.02235174447,-187500.02235174447,-187500.02235174447,1730245510.0792031,1730245509.8124063,4000
-412.657906133879,-187500.02235174447,-40.05432606391025,-187500.02235174447,-187500.02235174447,-187500.02235174447,-187500.02235174447,-187500.02235174447,1730245510.0823524,1730245509.8124063,4000
-428.4605894637811,-187500.02235174447,-41.82011387587952,-187500.02235174447,-187500.02235174447,-187500.02235174447,-187500.02235174447,-187500.02235174447,1730245510.0862956,1730245509.8124063,4000
-461.0270811351635,-187500.02235174447,-81.09212888385402,-187500.02235174447,-187500.02235174447,-187500.02235174447,-187500.02235174447,-187500.02235174447,1730245510.0903072,1730245509.8124063,4000
-454.72388919876687,-187500.02235174447,-93.74321624555782,-187500.02235174447,-187500.02235174447,-187500.02235174447,-187500.02235174447,-187500.02235174447,1730245510.0962052,1730245509.8124063,4000
-421.5315486826359,-187500.02235174447,-62.45077400812794,-187500.02235174447,-187500.02235174447,-187500.02235174447,-187500.02235174447,-187500.02235174447,1730245510.0993016,1730245509.8124063,4000
-446.94548212832,-187500.02235174447,-35.874549850767835,-187500.02235174447,-187500.02235174447,-187500.02235174447,-187500.02235174447,-187500.02235174447,1730245510.1033444,1730245509.8124063,4000
-475.3769010754706,-187500.02235174447,-69.15629734472004,-187500.02235174447,-187500.02235174447,-187500.02235174447,-187500.02235174447,-187500.02235174447,1730245510.1072044,1730245509.8124063,4000
-465.6091887485014,-187500.02235174447,-91.30687609992935,-187500.02235174447,-187500.02235174447,-187500.02235174447,-187500.02235174447,-187500.02235174447,1730245510.1103103,1730245509.8124063,4000
-428.7958656306107,-187500.02235174447,-59.56739897339333,-187500.02235174447,-187500.02235174447,-187500.02235174447,-187500.02235174447,-187500.02235174447,1730245510.114356,1730245509.8124063,4000
-449.5382844851357,-187500.02235174447,-43.854122621312456,-187500.02235174447,-187500.02235174447,-187500.02235174447,-187500.02235174447,-187500.02235174447,1730245510.1183648,1730245509.8124063,4000
-476.6733022538784,-187500.02235174447,-78.11934687129819,-187500.02235174447,-187500.02235174447,-187500.02235174447,-187500.02235174447,-187500.02235174447,1730245510.122377,1730245509.8124063,4000
-479.64608426643423,-187500.02235174447,-109.45649259763869,-187500.02235174447,-187500.02235174447,-187500.02235174447,-187500.02235174447,-187500.02235174447,1730245510.1263716,1730245509.8124063,4000
-449.4712292517697,-187500.02235174447,-75.6383032367591,-187500.02235174447,-187500.02235174447,-187500.02235174447,-187500.02235174447,-187500.02235174447,1730245510.131344,1730245509.8124063,4000
-438.0718395795631,-187500.02235174447,-55.141753571242525,-187500.02235174447,-187500.02235174447,-187500.02235174447,-187500.02235174447,-187500.02235174447,1730245510.134482,1730245509.8124063,4000
-463.8210491920769,-187500.02235174447,-78.72284397159147,-187500.02235174447,-187500.02235174447,-187500.02235174447,-187500.02235174447,-187500.02235174447,1730245510.1382449,1730245509.8124063,4000
-460.64710147942327,-187500.02235174447,-100.38168434878402,-187500.02235174447,-187500.02235174447,-187500.02235174447,-187500.02235174447,-187500.02235174447,1730245510.1424932,1730245509.8124063,4000
-443.6821274378452,-187500.02235174447,-60.26030305150784,-187500.02235174447,-187500.02235174447,-187500.02235174447,-187500.02235174447,-187500.02235174447,1730245510.1463008,1730245509.8124063,4000
-428.0806098080409,-187500.02235174447,-28.029087546955058,-187500.02235174447,-187500.02235174447,-187500.02235174447,-187500.02235174447,-187500.02235174447,1730245510.1504908,1730245509.8124063,4000
-444.2185693047726,-187500.02235174447,-51.00668084701072,-187500.02235174447,-187500.02235174447,-187500.02235174447,-187500.02235174447,-187500.02235174447,1730245510.154297,1730245509.8124063,4000
-468.4702120387808,-187500.02235174447,-90.56926853290422,-187500.02235174447,-187500.02235174447,-187500.02235174447,-187500.02235174447,-187500.02235174447,1730245510.159522,1730245509.8124063,4000
-445.40321176090384,-187500.02235174447,-79.72867247208029,-187500.02235174447,-187500.02235174447,-187500.02235174447,-187500.02235174447,-187500.02235174447,1730245510.1624002,1730245509.8124063,4000
-425.6219179179571,-187500.02235174447,-49.97850060206659,-187500.02235174447,-187500.02235174447,-187500.02235174447,-187500.02235174447,-187500.02235174447,1730245510.1665056,1730245509.8124063,4000
-441.4693047367698,-187500.02235174447,-52.370137258784446,-187500.02235174447,-187500.02235174447,-187500.02235174447,-187500.02235174447,-187500.02235174447,1730245510.1703873,1730245509.8124063,4000
-458.3225200560713,-187500.02235174447,-85.74129173055789,-187500.02235174447,-187500.02235174447,-187500.02235174447,-187500.02235174447,-187500.02235174447,1730245510.17443,1730245509.8124063,4000
-450.0300228631524,-187500.02235174447,-85.13779463026461,-187500.02235174447,-187500.02235174447,-187500.02235174447,-187500.02235174447,-187500.02235174447,1730245510.178444,1730245509.8124063,4000
-432.2156825322727,-187500.02235174447,-43.74236389903592,-187500.02235174447,-187500.02235174447,-187500.02235174447,-187500.02235174447,-187500.02235174447,1730245510.1835215,1730245509.8124063,4000
-438.8094471465882,-187500.02235174447,-41.73070689805829,-187500.02235174447,-187500.02235174447,-187500.02235174447,-187500.02235174447,-187500.02235174447,1730245510.187422,1730245509.8124063,4000
-461.0717846240741,-187500.02235174447,-71.88321016826751,-187500.02235174447,-187500.02235174447,-187500.02235174447,-187500.02235174447,-187500.02235174447,1730245510.1905572,1730245509.8124063,4000
-454.00863337619705,-187500.02235174447,-78.8122509494127,-187500.02235174447,-187500.02235174447,-187500.02235174447,-187500.02235174447,-187500.02235174447,1730245510.1945524,1730245509.8124063,4000
-437.2448250347168,-187500.02235174447,-52.41484074769506,-187500.02235174447,-187500.02235174447,-187500.02235174447,-187500.02235174447,-187500.02235174447,1730245510.1983745,1730245509.8124063,4000
-457.49550551122496,-187500.02235174447,-36.14277078423152,-187500.02235174447,-187500.02235174447,-187500.02235174447,-187500.02235174447,-187500.02235174447,1730245510.202376,1730245509.8124063,4000
-471.9570841738087,-187500.02235174447,-63.41189901970613,-187500.02235174447,-187500.02235174447,-187500.02235174447,-187500.02235174447,-187500.02235174447,1730245510.206381,1730245509.8124063,4000
-480.87543021147616,-187500.02235174447,-87.95411443163329,-187500.02235174447,-187500.02235174447,-187500.02235174447,-187500.02235174447,-187500.02235174447,1730245510.2103395,1730245509.8124063,4000
-463.99986314771934,-187500.02235174447,-55.83465764935704,-187500.02235174447,-187500.02235174447,-187500.02235174447,-187500.02235174447,-187500.02235174447,1730245510.2156246,1730245509.8124063,4000
-433.9814703442419,-187500.02235174447,-31.27009049297458,-187500.02235174447,-187500.02235174447,-187500.02235174447,-187500.02235174447,-187500.02235174447,1730245510.2186096,1730245509.8124063,4000
-461.4741160242696,-187500.02235174447,-57.15341057222016,-187500.02235174447,-187500.02235174447,-187500.02235174447,-187500.02235174447,-187500.02235174447,1730245510.2225184,1730245509.8124063,4000
-491.0454739386408,-187500.02235174447,-79.63926549425906,-187500.02235174447,-187500.02235174447,-187500.02235174447,-187500.02235174447,-187500.02235174447,1730245510.2265203,1730245509.8124063,4000
-459.4177555343813,-187500.02235174447,-51.72193666958054,-187500.02235174447,-187500.02235174447,-187500.02235174447,-187500.02235174447,-187500.02235174447,1730245510.230428,1730245509.8124063,4000
-449.5829879740463,-187500.02235174447,-16.67440136365907,-187500.02235174447,-187500.02235174447,-187500.02235174447,-187500.02235174447,-187500.02235174447,1730245510.2344508,1730245509.8124063,4000
-470.2136481062946,-187500.02235174447,-33.438209705139364,-187500.02235174447,-187500.02235174447,-187500.02235174447,-187500.02235174447,-187500.02235174447,1730245510.2384465,1730245509.8124063,4000
-476.3380260870488,-187500.02235174447,-67.27875081047426,-187500.02235174447,-187500.02235174447,-187500.02235174447,-187500.02235174447,-187500.02235174447,1730245510.2424858,1730245509.8124063,4000
-462.0999648690182,-187500.02235174447,-49.41970699068391,-187500.02235174447,-187500.02235174447,-187500.02235174447,-187500.02235174447,-187500.02235174447,1730245510.2464628,1730245509.8124063,4000
-445.13499082744016,-187500.02235174447,-19.20014848710877,-187500.02235174447,-187500.02235174447,-187500.02235174447,-187500.02235174447,-187500.02235174447,1730245510.2507024,1730245509.8124063,4000
-455.4391450213367,-187500.02235174447,-28.945509069622645,-187500.02235174447,-187500.02235174447,-187500.02235174447,-187500.02235174447,-187500.02235174447,1730245510.2544713,1730245509.8124063,4000
-490.9784187052749,-187500.02235174447,-67.63637872175917,-187500.02235174447,-187500.02235174447,-187500.02235174447,-187500.02235174447,-187500.02235174447,1730245510.258444,1730245509.8124063,4000
-496.2534303967274,-187500.02235174447,-64.75300368702456,-187500.02235174447,-187500.02235174447,-187500.02235174447,-187500.02235174447,-187500.02235174447,1730245510.2624836,1730245509.8124063,4000
-460.53534275714674,-187500.02235174447,-22.061171777388072,-187500.02235174447,-187500.02235174447,-187500.02235174447,-187500.02235174447,-187500.02235174447,1730245510.266678,1730245509.8124063,4000
-471.8229737070768,-187500.02235174447,-16.875567063756833,-187500.02235174447,-187500.02235174447,-187500.02235174447,-187500.02235174447,-187500.02235174447,1730245510.2696877,1730245509.8124063,4000
-501.103758943529,-187500.02235174447,-59.74621292903578,-187500.02235174447,-187500.02235174447,-187500.02235174447,-187500.02235174447,-187500.02235174447,1730245510.273687,1730245509.8124063,4000
-485.9045727139202,-187500.02235174447,-61.04261410744359,-187500.02235174447,-187500.02235174447,-187500.02235174447,-187500.02235174447,-187500.02235174447,1730245510.2776415,1730245509.8124063,4000
-447.1689995728731,-187500.02235174447,-25.972727057066805,-187500.02235174447,-187500.02235174447,-187500.02235174447,-187500.02235174447,-187500.02235174447,1730245510.282637,1730245509.8124063,4000
-453.6957089538228,-187500.02235174447,-23.558738655893645,-187500.02235174447,-187500.02235174447,-187500.02235174447,-187500.02235174447,-187500.02235174447,1730245510.2866282,1730245509.8124063,4000
-487.9162297148979,-187500.02235174447,-51.83369539185708,-187500.02235174447,-187500.02235174447,-187500.02235174447,-187500.02235174447,-187500.02235174447,1730245510.2906027,1730245509.8124063,4000
-478.3049795991158,-187500.02235174447,-65.78118393196868,-187500.02235174447,-187500.02235174447,-187500.02235174447,-187500.02235174447,-187500.02235174447,1730245510.2947187,1730245509.8124063,4000
-444.0397553491301,-187500.02235174447,-33.28174749395222,-187500.02235174447,-187500.02235174447,-187500.02235174447,-187500.02235174447,-187500.02235174447,1730245510.297736,1730245509.8124063,4000
-448.51010424019154,-187500.02235174447,-9.097159993309974,-187500.02235174447,-187500.02235174447,-187500.02235174447,-187500.02235174447,-187500.02235174447,1730245510.3017237,1730245509.8124063,4000
-467.2185143492835,-187500.02235174447,-46.961015100600136,-187500.02235174447,-187500.02235174447,-187500.02235174447,-187500.02235174447,-187500.02235174447,1730245510.307595,1730245509.8124063,4000
-477.8579447100097,-187500.02235174447,-78.05229163793226,-187500.02235174447,-187500.02235174447,-187500.02235174447,-187500.02235174447,-187500.02235174447,1730245510.3106828,1730245509.8124063,4000
-458.6130927339903,-187500.02235174447,-44.055288321410224,-187500.02235174447,-187500.02235174447,-187500.02235174447,-187500.02235174447,-187500.02235174447,1730245510.3147173,1730245509.8124063,4000
-448.5324559846469,-187500.02235174447,-26.576224157360095,-187500.02235174447,-187500.02235174447,-187500.02235174447,-187500.02235174447,-187500.02235174447,1730245510.3187363,1730245509.8124063,4000
-473.7675754746885,-187500.02235174447,-59.768564673491085,-187500.02235174447,-187500.02235174447,-187500.02235174447,-187500.02235174447,-187500.02235174447,1730245510.3227615,1730245509.8124063,4000
-494.5323460736688,-187500.02235174447,-83.70728298512495,-187500.02235174447,-187500.02235174447,-187500.02235174447,-187500.02235174447,-187500.02235174447,1730245510.326676,1730245509.8124063,4000
-472.7617469741997,-187500.02235174447,-57.82396290587937,-187500.02235174447,-187500.02235174447,-187500.02235174447,-187500.02235174447,-187500.02235174447,1730245510.3296463,1730245509.8124063,4000
-454.6121304764904,-187500.02235174447,-32.231215504552786,-187500.02235174447,-187500.02235174447,-187500.02235174447,-187500.02235174447,-187500.02235174447,1730245510.3339028,1730245509.8124063,4000
-464.96098815929753,-187500.02235174447,-61.69081469664749,-187500.02235174447,-187500.02235174447,-187500.02235174447,-187500.02235174447,-187500.02235174447,1730245510.3378136,1730245509.8124063,4000
-497.2369071527609,-187500.02235174447,-92.02213192249916,-187500.02235174447,-187500.02235174447,-187500.02235174447,-187500.02235174447,-187500.02235174447,1730245510.3427868,1730245509.8124063,4000
-500.9696484767972,-187500.02235174447,-67.21169557710834,-187500.02235174447,-187500.02235174447,-187500.02235174447,-187500.02235174447,-187500.02235174447,1730245510.3467813,1730245509.8124063,4000
-459.462459023292,-187500.02235174447,-19.915404309678596,-187500.02235174447,-187500.02235174447,-187500.02235174447,-187500.02235174447,-187500.02235174447,1730245510.349878,1730245509.8124063,4000
-492.4536338393252,-187500.02235174447,-28.4761224360612,-187500.02235174447,-187500.02235174447,-187500.02235174447,-187500.02235174447,-187500.02235174447,1730245510.3537505,1730245509.8124063,4000
-514.5818608500792,-187500.02235174447,-73.89486716924515,-187500.02235174447,-187500.02235174447,-187500.02235174447,-187500.02235174447,-187500.02235174447,1730245510.3578353,1730245509.8124063,4000
-470.3924620619371,-187500.02235174447,-67.61402697730387,-187500.02235174447,-187500.02235174447,-187500.02235174447,-187500.02235174447,-187500.02235174447,1730245510.3619633,1730245509.8124063,4000
-442.8327611485435,-187500.02235174447,-28.76669511398019,-187500.02235174447,-187500.02235174447,-187500.02235174447,-187500.02235174447,-187500.02235174447,1730245510.3658872,1730245509.8124063,4000
-487.8268227370767,-187500.02235174447,-25.525692167960667,-187500.02235174447,-187500.02235174447,-187500.02235174447,-187500.02235174447,-187500.02235174447,1730245510.3707187,1730245509.8124063,4000
-499.8744129984872,-187500.02235174447,-52.99598610353305,-187500.02235174447,-187500.02235174447,-187500.02235174447,-187500.02235174447,-187500.02235174447,1730245510.3746903,1730245509.8124063,4000
-494.2864768846604,-187500.02235174447,-67.94930314413347,-187500.02235174447,-187500.02235174447,-187500.02235174447,-187500.02235174447,-187500.02235174447,1730245510.3780365,1730245509.8124063,4000
-466.5032585267137,-187500.02235174447,-32.25356724900809,-187500.02235174447,-187500.02235174447,-187500.02235174447,-187500.02235174447,-187500.02235174447,1730245510.3817394,1730245509.8124063,4000
-469.9230754283757,-187500.02235174447,-19.49072116502776,-187500.02235174447,-187500.02235174447,-187500.02235174447,-187500.02235174447,-187500.02235174447,1730245510.3858535,1730245509.8124063,4000
-494.1076629290179,-187500.02235174447,-56.52756172747157,-187500.02235174447,-187500.02235174447,-187500.02235174447,-187500.02235174447,-187500.02235174447,1730245510.3919249,1730245509.8124063,4000
-492.7889100061548,-187500.02235174447,-73.1349078577647,-187500.02235174447,-187500.02235174447,-187500.02235174447,-187500.02235174447,-187500.02235174447,1730245510.3949287,1730245509.8124063,4000
-464.67041548137854,-187500.02235174447,-41.7754103869689,-187500.02235174447,-187500.02235174447,-187500.02235174447,-187500.02235174447,-187500.02235174447,1730245510.3989563,1730245509.8124063,4000
-461.1611916018953,-187500.02235174447,-23.558738655893645,-187500.02235174447,-187500.02235174447,-187500.02235174447,-187500.02235174447,-187500.02235174447,1730245510.403206,1730245509.8124063,4000
-488.7432442597442,-187500.02235174447,-62.62958796377039,-187500.02235174447,-187500.02235174447,-187500.02235174447,-187500.02235174447,-187500.02235174447,1730245510.4061224,1730245509.8124063,4000
-495.6946367853448,-187500.02235174447,-101.52162331600468,-187500.02235174447,-187500.02235174447,-187500.02235174447,-187500.02235174447,-187500.02235174447,1730245510.4098065,1730245509.8124063,4000
-434.2720430221609,-187500.02235174447,-65.55766648741562,-187500.02235174447,-187500.02235174447,-187500.02235174447,-187500.02235174447,-187500.02235174447,1730245510.41382,1730245509.8124063,4000
-454.38861303193727,-187500.02235174447,-24.58691890083777,-187500.02235174447,-187500.02235174447,-187500.02235174447,-187500.02235174447,-187500.02235174447,1730245510.4180288,1730245509.8124063,4000
-491.89484022794255,-187500.02235174447,-50.80551514691295,-187500.02235174447,-187500.02235174447,-187500.02235174447,-187500.02235174447,-187500.02235174447,1730245510.421765,1730245509.8124063,4000
-482.9988459347303,-187500.02235174447,-81.00272190603279,-187500.02235174447,-187500.02235174447,-187500.02235174447,-187500.02235174447,-187500.02235174447,1730245510.4268684,1730245509.8124063,4000
-453.0922118535295,-187500.02235174447,-62.6519397082257,-187500.02235174447,-187500.02235174447,-187500.02235174447,-187500.02235174447,-187500.02235174447,1730245510.431046,1730245509.8124063,4000
-450.5441129856245,-187500.02235174447,-31.024221303966204,-187500.02235174447,-187500.02235174447,-187500.02235174447,-187500.02235174447,-187500.02235174447,1730245510.433993,1730245509.8124063,4000
-475.2204388642834,-187500.02235174447,-38.15442778520916,-187500.02235174447,-187500.02235174447,-187500.02235174447,-187500.02235174447,-187500.02235174447,1730245510.4377987,1730245509.8124063,4000
-473.0970231410293,-187500.02235174447,-79.32634107188477,-187500.02235174447,-187500.02235174447,-187500.02235174447,-187500.02235174447,-187500.02235174447,1730245510.4419217,1730245509.8124063,4000
-480.3836918334594,-187500.02235174447,-71.01149213451053,-187500.02235174447,-187500.02235174447,-187500.02235174447,-187500.02235174447,-187500.02235174447,1730245510.445783,1730245509.8124063,4000
-448.5995112180128,-187500.02235174447,-37.08154405135442,-187500.02235174447,-187500.02235174447,-187500.02235174447,-187500.02235174447,-187500.02235174447,1730245510.4501295,1730245509.8124063,4000
-476.5615435316019,-187500.02235174447,-41.7754103869689,-187500.02235174447,-187500.02235174447,-187500.02235174447,-187500.02235174447,-187500.02235174447,1730245510.4548228,1730245509.8124063,4000
-501.7966630216436,-187500.02235174447,-79.14752711624232,-187500.02235174447,-187500.02235174447,-187500.02235174447,-187500.02235174447,-187500.02235174447,1730245510.4590209,1730245509.8124063,4000
-476.1368603869511,-187500.02235174447,-83.66257949621433,-187500.02235174447,-187500.02235174447,-187500.02235174447,-187500.02235174447,-187500.02235174447,1730245510.462166,1730245509.8124063,4000
-419.6987056373007,-187500.02235174447,-38.44500046312815,-187500.02235174447,-187500.02235174447,-187500.02235174447,-187500.02235174447,-187500.02235174447,1730245510.4660356,1730245509.8124063,4000
-478.3496830880264,-187500.02235174447,-19.446017676117144,-187500.02235174447,-187500.02235174447,-187500.02235174447,-187500.02235174447,-187500.02235174447,1730245510.4700933,1730245509.8124063,4000
-574.8868673904976,-187500.02235174447,-70.78797468995747,-187500.02235174447,-187500.02235174447,-187500.02235174447,-187500.02235174447,-187500.02235174447,1730245510.4739923,1730245509.8124063,4000
-498.846232753543,-187500.02235174447,-67.43521302166141,-187500.02235174447,-187500.02235174447,-187500.02235174447,-187500.02235174447,-187500.02235174447,1730245510.478049,1730245509.8124063,4000
-421.2409760047169,-187500.02235174447,-24.18458750064224,-187500.02235174447,-187500.02235174447,-187500.02235174447,-187500.02235174447,-187500.02235174447,1730245510.4830236,1730245509.8124063,4000
-501.43903511035865,-187500.02235174447,-15.8250350743574,-187500.02235174447,-187500.02235174447,-187500.02235174447,-187500.02235174447,-187500.02235174447,1730245510.4859648,1730245509.8124063,4000
-546.5448554211683,-187500.02235174447,-53.06304133689897,-187500.02235174447,-187500.02235174447,-187500.02235174447,-187500.02235174447,-187500.02235174447,1730245510.4890437,1730245509.8124063,4000
-522.5614336206238,-187500.02235174447,-74.58777124735967,-187500.02235174447,-187500.02235174447,-187500.02235174447,-187500.02235174447,-187500.02235174447,1730245510.4940135,1730245509.8124063,4000
-501.0367037101631,-187500.02235174447,-36.25452950650806,-187500.02235174447,-187500.02235174447,-187500.02235174447,-187500.02235174447,-187500.02235174447,1730245510.4980135,1730245509.8124063,4000
-483.22236337928337,-187500.02235174447,-15.8250350743574,-187500.02235174447,-187500.02235174447,-187500.02235174447,-187500.02235174447,-187500.02235174447,1730245510.502096,1730245509.8124063,4000
-498.555660075624,-187500.02235174447,-38.33324174085161,-187500.02235174447,-187500.02235174447,-187500.02235174447,-187500.02235174447,-187500.02235174447,1730245510.505917,1730245509.8124063,4000
-543.8179425976208,-187500.02235174447,5.543232624916151,-187500.02235174447,-187500.02235174447,-187500.02235174447,-187500.02235174447,-187500.02235174447,1730245510.510034,1730245509.8124063,4000
-548.1765327664057,-187500.02235174447,153.10944951885338,-187500.02235174447,-187500.02235174447,-187500.02235174447,-187500.02235174447,-187500.02235174447,1730245510.5140195,1730245509.8124063,4000
-516.5264626176909,-187500.02235174447,168.15217353727502,-187500.02235174447,-187500.02235174447,-187500.02235174447,-187500.02235174447,-187500.02235174447,1730245510.5170176,1730245509.8124063,4000
-522.9637650208193,-187500.02235174447,-6.705523336592119,-187500.02235174447,-187500.02235174447,-187500.02235174447,-187500.02235174447,-187500.02235174447,1730245510.5220811,1730245509.8124063,4000
-446.3196332835714,-187500.02235174447,-53.71124192610287,-187500.02235174447,-187500.02235174447,-187500.02235174447,-187500.02235174447,-187500.02235174447,1730245510.5260844,1730245509.8124063,4000
-454.075688609563,-187500.02235174447,117.90545200174476,-187500.02235174447,-187500.02235174447,-187500.02235174447,-187500.02235174447,-187500.02235174447,1730245510.5300364,1730245509.8124063,4000
-539.5487594066572,-187500.02235174447,239.633052305347,-187500.02235174447,-187500.02235174447,-187500.02235174447,-187500.02235174447,-187500.02235174447,1730245510.5340707,1730245509.8124063,4000
-581.4582802603579,-187500.02235174447,113.52451008850456,-187500.02235174447,-187500.02235174447,-187500.02235174447,-187500.02235174447,-187500.02235174447,1730245510.5379148,1730245509.8124063,4000
-532.5303116476907,-187500.02235174447,14.774503084957969,-187500.02235174447,-187500.02235174447,-187500.02235174447,-187500.02235174447,-187500.02235174447,1730245510.542081,1730245509.8124063,4000
-447.5713309730686,-187500.02235174447,-60.37206177378437,-187500.02235174447,-187500.02235174447,-187500.02235174447,-187500.02235174447,-187500.02235174447,1730245510.5451572,1730245509.8124063,4000
-350.5200565481253,-187500.02235174447,-79.81807944990152,-187500.02235174447,-187500.02235174447,-187500.02235174447,-187500.02235174447,-187500.02235174447,1730245510.5501156,1730245509.8124063,4000
-435.5237407116581,-187500.02235174447,9.655953604692652,-187500.02235174447,-187500.02235174447,-187500.02235174447,-187500.02235174447,-187500.02235174447,1730245510.553908,1730245509.8124063,4000
-511.9890584932636,-187500.02235174447,201.41156928677196,-187500.02235174447,-187500.02235174447,-187500.02235174447,-187500.02235174447,-187500.02235174447,1730245510.558102,1730245509.8124063,4000
-591.4718617763355,-187500.02235174447,280.6485033808355,-187500.02235174447,-187500.02235174447,-187500.02235174447,-187500.02235174447,-187500.02235174447,1730245510.5619433,1730245509.8124063,4000
-512.3243346600932,-187500.02235174447,87.79765222044614,-187500.02235174447,-187500.02235174447,-187500.02235174447,-187500.02235174447,-187500.02235174447,1730245510.5661092,1730245509.8124063,4000
-426.0018975736973,-187500.02235174447,-122.33109740389555,-187500.02235174447,-187500.02235174447,-187500.02235174447,-187500.02235174447,-187500.02235174447,1730245510.570194,1730245509.8124063,4000
-408.5228334096472,-187500.02235174447,26.62092764627071,-187500.02235174447,-187500.02235174447,-187500.02235174447,-187500.02235174447,-187500.02235174447,1730245510.573137,1730245509.8124063,4000
-555.3514427365593,-187500.02235174447,434.8084848890883,-187500.02235174447,-187500.02235174447,-187500.02235174447,-187500.02235174447,-187500.02235174447,1730245510.5781293,1730245509.8124063,4000
-674.3744819610694,-187500.02235174447,358.45492582975936,-187500.02235174447,-187500.02235174447,-187500.02235174447,-187500.02235174447,-187500.02235174447,1730245510.582186,1730245509.8124063,4000
-561.4534689728581,-187500.02235174447,-83.64022775175903,-187500.02235174447,-187500.02235174447,-187500.02235174447,-187500.02235174447,-187500.02235174447,1730245510.586296,1730245509.8124063,4000
-401.2361647172171,-187500.02235174447,-232.2569766350957,-187500.02235174447,-187500.02235174447,-187500.02235174447,-187500.02235174447,-187500.02235174447,1730245510.5902004,1730245509.8124063,4000
-399.0009902716864,-187500.02235174447,-248.66315706529107,-187500.02235174447,-187500.02235174447,-187500.02235174447,-187500.02235174447,-187500.02235174447,1730245510.5941932,1730245509.8124063,4000
-428.0359063191303,-187500.02235174447,-169.11329854885324,-187500.02235174447,-187500.02235174447,-187500.02235174447,-187500.02235174447,-187500.02235174447,1730245510.598181,1730245509.8124063,4000
-456.1320490994513,-187500.02235174447,-54.18062855966432,-187500.02235174447,-187500.02235174447,-187500.02235174447,-187500.02235174447,-187500.02235174447,1730245510.601311,1730245509.8124063,4000
-460.4906392682361,-187500.02235174447,-20.04951477641044,-187500.02235174447,-187500.02235174447,-187500.02235174447,-187500.02235174447,-187500.02235174447,1730245510.6062217,1730245509.8124063,4000
-474.57223827507954,-187500.02235174447,-91.4856900555718,-187500.02235174447,-187500.02235174447,-187500.02235174447,-187500.02235174447,-187500.02235174447,1730245510.610069,1730245509.8124063,4000
-489.4361483378588,-187500.02235174447,-137.61969061132558,-187500.02235174447,-187500.02235174447,-187500.02235174447,-187500.02235174447,-187500.02235174447,1730245510.6142554,1730245509.8124063,4000
-447.12429608396246,-187500.02235174447,-29.4372474476394,-187500.02235174447,-187500.02235174447,-187500.02235174447,-187500.02235174447,-187500.02235174447,1730245510.6182413,1730245509.8124063,4000
-427.09713305200734,-187500.02235174447,35.04753530592147,-187500.02235174447,-187500.02235174447,-187500.02235174447,-187500.02235174447,-187500.02235174447,1730245510.6210763,1730245509.8124063,4000
-391.0661209900524,-187500.02235174447,-81.69562598414731,-187500.02235174447,-187500.02235174447,-187500.02235174447,-187500.02235174447,-187500.02235174447,1730245510.62523,1730245509.8124063,4000
-462.3234823135713,-187500.02235174447,-241.55530232850344,-187500.02235174447,-187500.02235174447,-187500.02235174447,-187500.02235174447,-187500.02235174447,1730245510.629074,1730245509.8124063,4000
-501.9978287217413,-187500.02235174447,-10.617078616270854,-187500.02235174447,-187500.02235174447,-187500.02235174447,-187500.02235174447,-187500.02235174447,1730245510.633236,1730245509.8124063,4000
-515.3194684171043,-187500.02235174447,90.09988189934278,-187500.02235174447,-187500.02235174447,-187500.02235174447,-187500.02235174447,-187500.02235174447,1730245510.6371562,1730245509.8124063,4000
-452.8239909200658,-187500.02235174447,34.5110934389941,-187500.02235174447,-187500.02235174447,-187500.02235174447,-187500.02235174447,-187500.02235174447,1730245510.6422582,1730245509.8124063,4000
-354.3198531055276,-187500.02235174447,-21.63648863273724,-187500.02235174447,-187500.02235174447,-187500.02235174447,-187500.02235174447,-187500.02235174447,1730245510.6461563,1730245509.8124063,4000
-354.4316118278041,-187500.02235174447,-5.230308202541853,-187500.02235174447,-187500.02235174447,-187500.02235174447,-187500.02235174447,-187500.02235174447,1730245510.649295,1730245509.8124063,4000
-498.3768461199816,-187500.02235174447,80.48863178356073,-187500.02235174447,-187500.02235174447,-187500.02235174447,-187500.02235174447,-187500.02235174447,1730245510.6531787,1730245509.8124063,4000
-570.7294429218106,-187500.02235174447,29.66076489219247,-187500.02235174447,-187500.02235174447,-187500.02235174447,-187500.02235174447,-187500.02235174447,1730245510.6572647,1730245509.8124063,4000
-498.6450670534453,-187500.02235174447,-42.4236109761728,-187500.02235174447,-187500.02235174447,-187500.02235174447,-187500.02235174447,-187500.02235174447,1730245510.6611807,1730245509.8124063,4000
-392.8095570575664,-187500.02235174447,-11.555851883393752,-187500.02235174447,-187500.02235174447,-187500.02235174447,-187500.02235174447,-187500.02235174447,1730245510.6663032,1730245509.8124063,4000
-459.70832821230033,-187500.02235174447,33.97465157206673,-187500.02235174447,-187500.02235174447,-187500.02235174447,-187500.02235174447,-187500.02235174447,1730245510.6701963,1730245509.8124063,4000
-496.38754086345926,-187500.02235174447,3.643334346215051,-187500.02235174447,-187500.02235174447,-187500.02235174447,-187500.02235174447,-187500.02235174447,1730245510.674312,1730245509.8124063,4000
-462.5693515025797,-187500.02235174447,-60.7743931739799,-187500.02235174447,-187500.02235174447,-187500.02235174447,-187500.02235174447,-187500.02235174447,1730245510.677294,1730245509.8124063,4000
-428.92997609734255,-187500.02235174447,-159.1891240106969,-187500.02235174447,-187500.02235174447,-187500.02235174447,-187500.02235174447,-187500.02235174447,1730245510.6813097,1730245509.8124063,4000
-309.72812291719,-187500.02235174447,-86.47889929758303,-187500.02235174447,-187500.02235174447,-187500.02235174447,-187500.02235174447,-187500.02235174447,1730245510.6853552,1730245509.8124063,4000
-354.1857426387957,-187500.02235174447,-55.36527101579559,-187500.02235174447,-187500.02235174447,-187500.02235174447,-187500.02235174447,-187500.02235174447,1730245510.689222,1730245509.8124063,4000
-531.2786139581935,-187500.02235174447,-34.354631227806955,-187500.02235174447,-187500.02235174447,-187500.02235174447,-187500.02235174447,-187500.02235174447,1730245510.6942143,1730245509.8124063,4000
-513.1066457160289,-187500.02235174447,57.37692801677323,-187500.02235174447,-187500.02235174447,-187500.02235174447,-187500.02235174447,-187500.02235174447,1730245510.698364,1730245509.8124063,4000
-466.6597207379008,-187500.02235174447,61.467297252094426,-187500.02235174447,-187500.02235174447,-187500.02235174447,-187500.02235174447,-187500.02235174447,1730245510.7023351,1730245509.8124063,4000
-456.6908427108339,-187500.02235174447,20.29538396541881,-187500.02235174447,-187500.02235174447,-187500.02235174447,-187500.02235174447,-187500.02235174447,1730245510.705207,1730245509.8124063,4000
-477.4109098209036,-187500.02235174447,-22.66466887768136,-187500.02235174447,-187500.02235174447,-187500.02235174447,-187500.02235174447,-187500.02235174447,1730245510.7091966,1730245509.8124063,4000
-431.4110197318816,-187500.02235174447,-18.57429964236017,-187500.02235174447,-187500.02235174447,-187500.02235174447,-187500.02235174447,-187500.02235174447,1730245510.7132728,1730245509.8124063,4000
-386.4393098878038,-187500.02235174447,19.24485197601938,-187500.02235174447,-187500.02235174447,-187500.02235174447,-187500.02235174447,-187500.02235174447,1730245510.7173836,1730245509.8124063,4000
-389.0097605001641,-187500.02235174447,1.765787811969258,-187500.02235174447,-187500.02235174447,-187500.02235174447,-187500.02235174447,-187500.02235174447,1730245510.7212017,1730245509.8124063,4000
-444.4197350048704,-187500.02235174447,-26.06213403488804,-187500.02235174447,-187500.02235174447,-187500.02235174447,-187500.02235174447,-187500.02235174447,1730245510.7266984,1730245509.8124063,4000
-444.0397553491301,-187500.02235174447,-16.36147694128477,-187500.02235174447,-187500.02235174447,-187500.02235174447,-187500.02235174447,-187500.02235174447,1730245510.7292707,1730245509.8124063,4000
-438.138894812929,-187500.02235174447,29.638413147737165,-187500.02235174447,-187500.02235174447,-187500.02235174447,-187500.02235174447,-187500.02235174447,1730245510.7335963,1730245509.8124063,4000
-474.0804998970628,-187500.02235174447,7.107854736787646,-187500.02235174447,-187500.02235174447,-187500.02235174447,-187500.02235174447,-187500.02235174447,1730245510.7372656,1730245509.8124063,4000
-461.54117125763554,-187500.02235174447,-48.413878490195096,-187500.02235174447,-187500.02235174447,-187500.02235174447,-187500.02235174447,-187500.02235174447,1730245510.7414424,1730245509.8124063,4000
-412.36733345596,-187500.02235174447,-82.54499227344898,-187500.02235174447,-187500.02235174447,-187500.02235174447,-187500.02235174447,-187500.02235174447,1730245510.7475717,1730245509.8124063,4000
-423.722019639256,-187500.02235174447,33.572320171871205,-187500.02235174447,-187500.02235174447,-187500.02235174447,-187500.02235174447,-187500.02235174447,1730245510.7505662,1730245509.8124063,4000
-491.42545359438105,-187500.02235174447,54.62766344877046,-187500.02235174447,-187500.02235174447,-187500.02235174447,-187500.02235174447,-187500.02235174447,1730245510.7543268,1730245509.8124063,4000
-526.8529685560428,-187500.02235174447,-54.04651809293248,-187500.02235174447,-187500.02235174447,-187500.02235174447,-187500.02235174447,-187500.02235174447,1730245510.7573576,1730245509.8124063,4000
-464.7821742036551,-187500.02235174447,-100.26992562650749,-187500.02235174447,-187500.02235174447,-187500.02235174447,-187500.02235174447,-187500.02235174447,1730245510.761458,1730245509.8124063,4000
-325.48610275818146,-187500.02235174447,-151.99186229608802,-187500.02235174447,-187500.02235174447,-187500.02235174447,-187500.02235174447,-187500.02235174447,1730245510.765443,1730245509.8124063,4000
-413.2166997452617,-187500.02235174447,-111.95988797663308,-187500.02235174447,-187500.02235174447,-187500.02235174447,-187500.02235174447,-187500.02235174447,1730245510.7692788,1730245509.8124063,4000
-496.9686862192973,-187500.02235174447,89.20581212113049,-187500.02235174447,-187500.02235174447,-187500.02235174447,-187500.02235174447,-187500.02235174447,1730245510.7734332,1730245509.8124063,4000
-527.8811488009869,-187500.02235174447,56.43815474965033,-187500.02235174447,-187500.02235174447,-187500.02235174447,-187500.02235174447,-187500.02235174447,1730245510.7774713,1730245509.8124063,4000
-459.7977351901216,-187500.02235174447,77.62760849328143,-187500.02235174447,-187500.02235174447,-187500.02235174447,-187500.02235174447,-187500.02235174447,1730245510.782483,1730245509.8124063,4000
-395.22354545873947,-187500.02235174447,49.01737559048839,-187500.02235174447,-187500.02235174447,-187500.02235174447,-187500.02235174447,-187500.02235174447,1730245510.7854505,1730245509.8124063,4000
-470.3701103174818,-187500.02235174447,-3.643334346215051,-187500.02235174447,-187500.02235174447,-187500.02235174447,-187500.02235174447,-187500.02235174447,1730245510.7894557,1730245509.8124063,4000
-517.3758289069925,-187500.02235174447,-34.824017861368404,-187500.02235174447,-187500.02235174447,-187500.02235174447,-187500.02235174447,-187500.02235174447,1730245510.793492,1730245509.8124063,4000
-471.1077178845069,-187500.02235174447,-12.002886772499892,-187500.02235174447,-187500.02235174447,-187500.02235174447,-187500.02235174447,-187500.02235174447,1730245510.797429,1730245509.8124063,4000
-458.7024997118115,-187500.02235174447,36.88037835125665,-187500.02235174447,-187500.02235174447,-187500.02235174447,-187500.02235174447,-187500.02235174447,1730245510.8014927,1730245509.8124063,4000
-451.3264240415602,-187500.02235174447,-0.8717180337569754,-187500.02235174447,-187500.02235174447,-187500.02235174447,-187500.02235174447,-187500.02235174447,1730245510.805392,1730245509.8124063,4000
-416.3459439690047,-187500.02235174447,-58.20394256161959,-187500.02235174447,-187500.02235174447,-187500.02235174447,-187500.02235174447,-187500.02235174447,1730245510.8105352,1730245509.8124063,4000
-438.1165430684737,-187500.02235174447,-77.06881488189875,-187500.02235174447,-187500.02235174447,-187500.02235174447,-187500.02235174447,-187500.02235174447,1730245510.8135111,1730245509.8124063,4000
-435.0543540780967,-187500.02235174447,58.36040477280674,-187500.02235174447,-187500.02235174447,-187500.02235174447,-187500.02235174447,-187500.02235174447,1730245510.8173947,1730245509.8124063,4000
-509.68682881436695,-187500.02235174447,116.40788512323918,-187500.02235174447,-187500.02235174447,-187500.02235174447,-187500.02235174447,-187500.02235174447,1730245510.8225727,1730245509.8124063,4000
-511.0502852261407,-187500.02235174447,22.485854922038904,-187500.02235174447,-187500.02235174447,-187500.02235174447,-187500.02235174447,-187500.02235174447,1730245510.8255672,1730245509.8124063,4000
-458.009595633697,-187500.02235174447,-13.880433306745688,-187500.02235174447,-187500.02235174447,-187500.02235174447,-187500.02235174447,-187500.02235174447,1730245510.829366,1730245509.8124063,4000
-412.7249613672449,-187500.02235174447,-0.5587936113826766,-187500.02235174447,-187500.02235174447,-187500.02235174447,-187500.02235174447,-187500.02235174447,1730245510.8334694,1730245509.8124063,4000
-415.0495427905968,-187500.02235174447,-3.3974651572066734,-187500.02235174447,-187500.02235174447,-187500.02235174447,-187500.02235174447,-187500.02235174447,1730245510.837402,1730245509.8124063,4000
-438.4741709797586,-187500.02235174447,-35.15929402819801,-187500.02235174447,-187500.02235174447,-187500.02235174447,-187500.02235174447,-187500.02235174447,1730245510.8407004,1730245509.8124063,4000
-405.013609530164,-187500.02235174447,-45.46344822209456,-187500.02235174447,-187500.02235174447,-187500.02235174447,-187500.02235174447,-187500.02235174447,1730245510.8449247,1730245509.8124063,4000
-411.65207763339015,-187500.02235174447,-13.612212373282,-187500.02235174447,-187500.02235174447,-187500.02235174447,-187500.02235174447,-187500.02235174447,1730245510.8499513,1730245509.8124063,4000
-437.334232012538,-187500.02235174447,16.473235663561304,-187500.02235174447,-187500.02235174447,-187500.02235174447,-187500.02235174447,-187500.02235174447,1730245510.8535388,1730245509.8124063,4000
-369.49668759068106,-187500.02235174447,-11.354686183295987,-187500.02235174447,-187500.02235174447,-187500.02235174447,-187500.02235174447,-187500.02235174447,1730245510.857635,1730245509.8124063,4000
-379.35380689547145,-187500.02235174447,-48.59269244583756,-187500.02235174447,-187500.02235174447,-187500.02235174447,-187500.02235174447,-187500.02235174447,1730245510.8616507,1730245509.8124063,4000
-404.2536502186836,-187500.02235174447,-16.652049619203762,-187500.02235174447,-187500.02235174447,-187500.02235174447,-187500.02235174447,-187500.02235174447,1730245510.8656662,1730245509.8124063,4000
-348.7766204806114,-187500.02235174447,15.042724018421652,-187500.02235174447,-187500.02235174447,-187500.02235174447,-187500.02235174447,-187500.02235174447,1730245510.8690245,1730245509.8124063,4000
-375.8222312715329,-187500.02235174447,19.60247988730429,-187500.02235174447,-187500.02235174447,-187500.02235174447,-187500.02235174447,-187500.02235174447,1730245510.872785,1730245509.8124063,4000
-461.6529299799121,-187500.02235174447,-36.47804695106112,-187500.02235174447,-187500.02235174447,-187500.02235174447,-187500.02235174447,-187500.02235174447,1730245510.87661,1730245509.8124063,4000
-471.2418283512388,-187500.02235174447,31.828884104357257,-187500.02235174447,-187500.02235174447,-187500.02235174447,-187500.02235174447,-187500.02235174447,1730245510.8827927,1730245509.8124063,4000
-480.87543021147616,-187500.02235174447,43.60825343230408,-187500.02235174447,-187500.02235174447,-187500.02235174447,-187500.02235174447,-187500.02235174447,1730245510.8857431,1730245509.8124063,4000
-431.3439644985157,-187500.02235174447,43.27297726547447,-187500.02235174447,-187500.02235174447,-187500.02235174447,-187500.02235174447,-187500.02235174447,1730245510.8920765,1730245509.8124063,4000
-404.0748362630411,-187500.02235174447,-47.296291267429744,-187500.02235174447,-187500.02235174447,-187500.02235174447,-187500.02235174447,-187500.02235174447,1730245510.894801,1730245509.8124063,4000
-399.8950600498986,-187500.02235174447,-33.92994808315612,-187500.02235174447,-187500.02235174447,-187500.02235174447,-187500.02235174447,-187500.02235174447,1730245510.8978293,1730245509.8124063,4000
-472.89585744093154,-187500.02235174447,0.0894069778212282,-187500.02235174447,-187500.02235174447,-187500.02235174447,-187500.02235174447,-187500.02235174447,1730245510.9011009,1730245509.8124063,4000
-469.9230754283757,-187500.02235174447,86.47889929758303,-187500.02235174447,-187500.02235174447,-187500.02235174447,-187500.02235174447,-187500.02235174447,1730245510.905687,1730245509.8124063,4000
-446.2525780502055,-187500.02235174447,72.1514311017312,-187500.02235174447,-187500.02235174447,-187500.02235174447,-187500.02235174447,-187500.02235174447,1730245510.909982,1730245509.8124063,4000
-425.8901388514208,-187500.02235174447,40.12138129727618,-187500.02235174447,-187500.02235174447,-187500.02235174447,-187500.02235174447,-187500.02235174447,1730245510.9135911,1730245509.8124063,4000
-399.58213562752434,-187500.02235174447,64.5741897313821,-187500.02235174447,-187500.02235174447,-187500.02235174447,-187500.02235174447,-187500.02235174447,1730245510.9177704,1730245509.8124063,4000
-389.2779814336278,-187500.02235174447,48.19036104564203,-187500.02235174447,-187500.02235174447,-187500.02235174447,-187500.02235174447,-187500.02235174447,1730245510.920614,1730245509.8124063,4000
-393.5024611356809,-187500.02235174447,-2.2798779344413203,-187500.02235174447,-187500.02235174447,-187500.02235174447,-187500.02235174447,-187500.02235174447,1730245510.9251187,1730245509.8124063,4000
-428.8405691195213,-187500.02235174447,-0.6482005892039048,-187500.02235174447,-187500.02235174447,-187500.02235174447,-187500.02235174447,-187500.02235174447,1730245510.9286554,1730245509.8124063,4000
-410.2886212216165,-187500.02235174447,36.63450916224828,-187500.02235174447,-187500.02235174447,-187500.02235174447,-187500.02235174447,-187500.02235174447,1730245510.9331713,1730245509.8124063,4000
-424.7278481397448,-187500.02235174447,48.77150640148001,-187500.02235174447,-187500.02235174447,-187500.02235174447,-187500.02235174447,-187500.02235174447,1730245510.9376173,1730245509.8124063,4000
-453.94157814283113,-187500.02235174447,7.353723925796023,-187500.02235174447,-187500.02235174447,-187500.02235174447,-187500.02235174447,-187500.02235174447,1730245510.9420016,1730245509.8124063,4000
-447.68308969534513,-187500.02235174447,-9.030104759944054,-187500.02235174447,-187500.02235174447,-187500.02235174447,-187500.02235174447,-187500.02235174447,1730245510.9456608,1730245509.8124063,4000
-340.8417511989774,-187500.02235174447,-12.919308295167482,-187500.02235174447,-187500.02235174447,-187500.02235174447,-187500.02235174447,-187500.02235174447,1730245510.949117,1730245509.8124063,4000
-343.8145332115332,-187500.02235174447,-29.16902651417572,-187500.02235174447,-187500.02235174447,-187500.02235174447,-187500.02235174447,-187500.02235174447,1730245510.9532063,1730245509.8124063,4000
-445.44791524981446,-187500.02235174447,-28.54317766942712,-187500.02235174447,-187500.02235174447,-187500.02235174447,-187500.02235174447,-187500.02235174447,1730245510.9567554,1730245509.8124063,4000
-462.3681858024819,-187500.02235174447,16.562642641382535,-187500.02235174447,-187500.02235174447,-187500.02235174447,-187500.02235174447,-187500.02235174447,1730245510.9608867,1730245509.8124063,4000
-455.6403107214345,-187500.02235174447,40.27784350846333,-187500.02235174447,-187500.02235174447,-187500.02235174447,-187500.02235174447,-187500.02235174447,1730245510.965834,1730245509.8124063,4000
-405.7065136082785,-187500.02235174447,20.09421826532105,-187500.02235174447,-187500.02235174447,-187500.02235174447,-187500.02235174447,-187500.02235174447,1730245510.9698365,1730245509.8124063,4000
-444.79971466061056,-187500.02235174447,10.862947805279232,-187500.02235174447,-187500.02235174447,-187500.02235174447,-187500.02235174447,-187500.02235174447,1730245510.9733562,1730245509.8124063,4000
-441.4916564812251,-187500.02235174447,-8.739532082025061,-187500.02235174447,-187500.02235174447,-187500.02235174447,-187500.02235174447,-187500.02235174447,1730245510.976911,1730245509.8124063,4000
-458.881313667454,-187500.02235174447,13.031067017444018,-187500.02235174447,-187500.02235174447,-187500.02235174447,-187500.02235174447,-187500.02235174447,1730245510.9808445,1730245509.8124063,4000
-448.6442147069234,-187500.02235174447,-33.39350621622875,-187500.02235174447,-187500.02235174447,-187500.02235174447,-187500.02235174447,-187500.02235174447,1730245510.9852612,1730245509.8124063,4000
-404.9912577857087,-187500.02235174447,24.408104945195312,-187500.02235174447,-187500.02235174447,-187500.02235174447,-187500.02235174447,-187500.02235174447,1730245510.9887235,1730245509.8124063,4000
-442.430429748348,-187500.02235174447,18.79781708691324,-187500.02235174447,-187500.02235174447,-187500.02235174447,-187500.02235174447,-187500.02235174447,1730245510.9932742,1730245509.8124063,4000
-434.45085697780337,-187500.02235174447,36.58980567333767,-187500.02235174447,-187500.02235174447,-187500.02235174447,-187500.02235174447,-187500.02235174447,1730245510.9984283,1730245509.8124063,4000
-420.8609963489767,-187500.02235174447,43.09416330983202,-187500.02235174447,-187500.02235174447,-187500.02235174447,-187500.02235174447,-187500.02235174447,1730245511.0011032,1730245509.8124063,4000
-403.9630775407645,-187500.02235174447,10.34885768280717,-187500.02235174447,-187500.02235174447,-187500.02235174447,-187500.02235174447,-187500.02235174447,1730245511.0047264,1730245509.8124063,4000
-394.821214058544,-187500.02235174447,-33.59467191632652,-187500.02235174447,-187500.02235174447,-187500.02235174447,-187500.02235174447,-187500.02235174447,1730245511.0089955,1730245509.8124063,4000
-385.2770191761279,-187500.02235174447,-18.48489266453894,-187500.02235174447,-187500.02235174447,-187500.02235174447,-187500.02235174447,-187500.02235174447,1730245511.0128229,1730245509.8124063,4000
-326.2013585807513,-187500.02235174447,12.539328639427264,-187500.02235174447,-187500.02235174447,-187500.02235174447,-187500.02235174447,-187500.02235174447,1730245511.0169263,1730245509.8124063,4000
-437.4236389903592,-187500.02235174447,-6.638468103226198,-187500.02235174447,-187500.02235174447,-187500.02235174447,-187500.02235174447,-187500.02235174447,1730245511.0207036,1730245509.8124063,4000
-485.9939796917415,-187500.02235174447,-58.09218383934306,-187500.02235174447,-187500.02235174447,-187500.02235174447,-187500.02235174447,-187500.02235174447,1730245511.0258975,1730245509.8124063,4000
-431.5898336875241,-187500.02235174447,-56.16993381618665,-187500.02235174447,-187500.02235174447,-187500.02235174447,-187500.02235174447,-187500.02235174447,1730245511.028714,1730245509.8124063,4000
-388.6074290999686,-187500.02235174447,26.44211369062825,-187500.02235174447,-187500.02235174447,-187500.02235174447,-187500.02235174447,-187500.02235174447,1730245511.0330155,1730245509.8124063,4000
-404.54422289660255,-187500.02235174447,51.319605269385015,-187500.02235174447,-187500.02235174447,-187500.02235174447,-187500.02235174447,-187500.02235174447,1730245511.0367265,1730245509.8124063,4000
-451.57229323056856,-187500.02235174447,-4.403293657695492,-187500.02235174447,-187500.02235174447,-187500.02235174447,-187500.02235174447,-187500.02235174447,1730245511.0414586,1730245509.8124063,4000
-340.2159023542288,-187500.02235174447,-35.740439384035994,-187500.02235174447,-187500.02235174447,-187500.02235174447,-187500.02235174447,-187500.02235174447,1730245511.0449948,1730245509.8124063,4000
-433.04269707711904,-187500.02235174447,-5.85615704729045,-187500.02235174447,-187500.02235174447,-187500.02235174447,-187500.02235174447,-187500.02235174447,1730245511.0492065,1730245509.8124063,4000
-475.3992528199259,-187500.02235174447,41.48483770904991,-187500.02235174447,-187500.02235174447,-187500.02235174447,-187500.02235174447,-187500.02235174447,1730245511.0539055,1730245509.8124063,4000
-482.7082732568113,-187500.02235174447,-16.67440136365907,-187500.02235174447,-187500.02235174447,-187500.02235174447,-187500.02235174447,-187500.02235174447,1730245511.056919,1730245509.8124063,4000
-440.1282000694514,-187500.02235174447,-74.23014333607476,-187500.02235174447,-187500.02235174447,-187500.02235174447,-187500.02235174447,-187500.02235174447,1730245511.06125,1730245509.8124063,4000
-338.2713005866171,-187500.02235174447,-2.503395378994391,-187500.02235174447,-187500.02235174447,-187500.02235174447,-187500.02235174447,-187500.02235174447,1730245511.0653949,1730245509.8124063,4000
-324.144998090863,-187500.02235174447,61.534352485460346,-187500.02235174447,-187500.02235174447,-187500.02235174447,-187500.02235174447,-187500.02235174447,1730245511.068967,1730245509.8124063,4000
-430.9192813538649,-187500.02235174447,1.4752151340502662,-187500.02235174447,-187500.02235174447,-187500.02235174447,-187500.02235174447,-187500.02235174447,1730245511.073454,1730245509.8124063,4000
-484.96579944679735,-187500.02235174447,-55.02999484896599,-187500.02235174447,-187500.02235174447,-187500.02235174447,-187500.02235174447,-187500.02235174447,1730245511.0782845,1730245509.8124063,4000
-424.1467027839069,-187500.02235174447,-27.40323870220646,-187500.02235174447,-187500.02235174447,-187500.02235174447,-187500.02235174447,-187500.02235174447,1730245511.0810485,1730245509.8124063,4000
-419.85516784848784,-187500.02235174447,48.57034070138225,-187500.02235174447,-187500.02235174447,-187500.02235174447,-187500.02235174447,-187500.02235174447,1730245511.0843816,1730245509.8124063,4000
-383.6453418308904,-187500.02235174447,16.74145659702499,-187500.02235174447,-187500.02235174447,-187500.02235174447,-187500.02235174447,-187500.02235174447,1730245511.0890608,1730245509.8124063,4000
-442.9445198708201,-187500.02235174447,-43.049459820921406,-187500.02235174447,-187500.02235174447,-187500.02235174447,-187500.02235174447,-187500.02235174447,1730245511.093364,1730245509.8124063,4000
-429.1758452863509,-187500.02235174447,-53.19715180363081,-187500.02235174447,-187500.02235174447,-187500.02235174447,-187500.02235174447,-187500.02235174447,1730245511.0968275,1730245509.8124063,4000
-393.3012954355831,-187500.02235174447,-9.90182279370103,-187500.02235174447,-187500.02235174447,-187500.02235174447,-187500.02235174447,-187500.02235174447,1730245511.1013107,1730245509.8124063,4000
-417.3294207250382,-187500.02235174447,21.32356421036294,-187500.02235174447,-187500.02235174447,-187500.02235174447,-187500.02235174447,-187500.02235174447,1730245511.1048772,1730245509.8124063,4000
-465.3186160705824,-187500.02235174447,-4.291534935418956,-187500.02235174447,-187500.02235174447,-187500.02235174447,-187500.02235174447,-187500.02235174447,1730245511.1085308,1730245509.8124063,4000
-417.3294207250382,-187500.02235174447,-22.39644794421768,-187500.02235174447,-187500.02235174447,-187500.02235174447,-187500.02235174447,-187500.02235174447,1730245511.1118083,1730245509.8124063,4000
-389.0544639890748,-187500.02235174447,26.79974160191317,-187500.02235174447,-187500.02235174447,-187500.02235174447,-187500.02235174447,-187500.02235174447,1730245511.1170683,1730245509.8124063,4000
-416.30124048009407,-187500.02235174447,29.86193059229024,-187500.02235174447,-187500.02235174447,-187500.02235174447,-187500.02235174447,-187500.02235174447,1730245511.120844,1730245509.8124063,4000
-415.42952244633705,-187500.02235174447,-34.1758172721645,-187500.02235174447,-187500.02235174447,-187500.02235174447,-187500.02235174447,-187500.02235174447,1730245511.1252227,1730245509.8124063,4000
-447.68308969534513,-187500.02235174447,-67.85989616631224,-187500.02235174447,-187500.02235174447,-187500.02235174447,-187500.02235174447,-187500.02235174447,1730245511.1315908,1730245509.8124063,4000
-399.02334201614167,-187500.02235174447,53.1524483147202,-187500.02235174447,-187500.02235174447,-187500.02235174447,-187500.02235174447,-187500.02235174447,1730245511.134278,1730245509.8124063,4000
-395.7152838367562,-187500.02235174447,95.285486612974,-187500.02235174447,-187500.02235174447,-187500.02235174447,-187500.02235174447,-187500.02235174447,1730245511.136911,1730245509.8124063,4000
-399.4480251607925,-187500.02235174447,9.007753015488746,-187500.02235174447,-187500.02235174447,-187500.02235174447,-187500.02235174447,-187500.02235174447,1730245511.1401684,1730245509.8124063,4000
-408.1875572428176,-187500.02235174447,-31.895939337723178,-187500.02235174447,-187500.02235174447,-187500.02235174447,-187500.02235174447,-187500.02235174447,1730245511.144433,1730245509.8124063,4000
-416.3459439690047,-187500.02235174447,-23.96107005608917,-187500.02235174447,-187500.02235174447,-187500.02235174447,-187500.02235174447,-187500.02235174447,1730245511.149121,1730245509.8124063,4000
-371.240123658195,-187500.02235174447,-4.313886679874263,-187500.02235174447,-187500.02235174447,-187500.02235174447,-187500.02235174447,-187500.02235174447,1730245511.1528957,1730245509.8124063,4000
-396.8328710595216,-187500.02235174447,-70.11742235629825,-187500.02235174447,-187500.02235174447,-187500.02235174447,-187500.02235174447,-187500.02235174447,1730245511.1570292,1730245509.8124063,4000
-421.5762521715465,-187500.02235174447,20.138921754231664,-187500.02235174447,-187500.02235174447,-187500.02235174447,-187500.02235174447,-187500.02235174447,1730245511.1615071,1730245509.8124063,4000
-360.3995275973711,-187500.02235174447,71.8385066793569,-187500.02235174447,-187500.02235174447,-187500.02235174447,-187500.02235174447,-187500.02235174447,1730245511.165398,1730245509.8124063,4000
-323.5862044794804,-187500.02235174447,65.71412869860276,-187500.02235174447,-187500.02235174447,-187500.02235174447,-187500.02235174447,-187500.02235174447,1730245511.1684976,1730245509.8124063,4000
-347.32375709101643,-187500.02235174447,29.683116636647775,-187500.02235174447,-187500.02235174447,-187500.02235174447,-187500.02235174447,-187500.02235174447,1730245511.1736455,1730245509.8124063,4000
-401.3479234394936,-187500.02235174447,-6.504357636494356,-187500.02235174447,-187500.02235174447,-187500.02235174447,-187500.02235174447,-187500.02235174447,1730245511.1769247,1730245509.8124063,4000
-355.079812417008,-187500.02235174447,5.386770413729002,-187500.02235174447,-187500.02235174447,-187500.02235174447,-187500.02235174447,-187500.02235174447,1730245511.1812527,1730245509.8124063,4000
-397.5928303710021,-187500.02235174447,25.61509914578189,-187500.02235174447,-187500.02235174447,-187500.02235174447,-187500.02235174447,-187500.02235174447,1730245511.1850529,1730245509.8124063,4000
-420.883348093432,-187500.02235174447,19.446017676117144,-187500.02235174447,-187500.02235174447,-187500.02235174447,-187500.02235174447,-187500.02235174447,1730245511.1879635,1730245509.8124063,4000
-437.0213075901637,-187500.02235174447,10.66178210518147,-187500.02235174447,-187500.02235174447,-187500.02235174447,-187500.02235174447,-187500.02235174447,1730245511.192547,1730245509.8124063,4000
-391.401397156882,-187500.02235174447,8.06897974836585,-187500.02235174447,-187500.02235174447,-187500.02235174447,-187500.02235174447,-187500.02235174447,1730245511.1959636,1730245509.8124063,4000
-375.8892865048989,-187500.02235174447,50.87257038027887,-187500.02235174447,-187500.02235174447,-187500.02235174447,-187500.02235174447,-187500.02235174447,1730245511.2002964,1730245509.8124063,4000
-348.4413443137818,-187500.02235174447,44.21175053259737,-187500.02235174447,-187500.02235174447,-187500.02235174447,-187500.02235174447,-187500.02235174447,1730245511.2049704,1730245509.8124063,4000
-380.1361179514072,-187500.02235174447,-17.859043819790344,-187500.02235174447,-187500.02235174447,-187500.02235174447,-187500.02235174447,-187500.02235174447,1730245511.2092888,1730245509.8124063,4000
-443.7044791823005,-187500.02235174447,-20.04951477641044,-187500.02235174447,-187500.02235174447,-187500.02235174447,-187500.02235174447,-187500.02235174447,1730245511.2129903,1730245509.8124063,4000
-403.2254699737394,-187500.02235174447,49.933797113155975,-187500.02235174447,-187500.02235174447,-187500.02235174447,-187500.02235174447,-187500.02235174447,1730245511.2161312,1730245509.8124063,4000
-400.6773711058344,-187500.02235174447,36.7015643956142,-187500.02235174447,-187500.02235174447,-187500.02235174447,-187500.02235174447,-187500.02235174447,1730245511.2199917,1730245509.8124063,4000
-380.2478766736838,-187500.02235174447,-1.3411046673184237,-187500.02235174447,-187500.02235174447,-187500.02235174447,-187500.02235174447,-187500.02235174447,1730245511.224183,1730245509.8124063,4000
-333.35391680644955,-187500.02235174447,2.101063978798864,-187500.02235174447,-187500.02235174447,-187500.02235174447,-187500.02235174447,-187500.02235174447,1730245511.2282767,1730245509.8124063,4000
-307.15767230482965,-187500.02235174447,-4.157424468687114,-187500.02235174447,-187500.02235174447,-187500.02235174447,-187500.02235174447,-187500.02235174447,1730245511.2332273,1730245509.8124063,4000
-388.1603942108625,-187500.02235174447,12.874604806256867,-187500.02235174447,-187500.02235174447,-187500.02235174447,-187500.02235174447,-187500.02235174447,1730245511.237115,1730245509.8124063,4000
-450.8123339190881,-187500.02235174447,13.32163969536301,-187500.02235174447,-187500.02235174447,-187500.02235174447,-187500.02235174447,-187500.02235174447,1730245511.2411828,1730245509.8124063,4000
-392.7201500797451,-187500.02235174447,8.359552426284841,-187500.02235174447,-187500.02235174447,-187500.02235174447,-187500.02235174447,-187500.02235174447,1730245511.2441795,1730245509.8124063,4000
-286.8175848505002,-187500.02235174447,105.7013995291471,-187500.02235174447,-187500.02235174447,-187500.02235174447,-187500.02235174447,-187500.02235174447,1730245511.2480311,1730245509.8124063,4000
-355.9962339396756,-187500.02235174447,72.08437586836527,-187500.02235174447,-187500.02235174447,-187500.02235174447,-187500.02235174447,-187500.02235174447,1730245511.2524707,1730245509.8124063,4000
-402.5996211289908,-187500.02235174447,57.466334994594455,-187500.02235174447,-187500.02235174447,-187500.02235174447,-187500.02235174447,-187500.02235174447,1730245511.2567835,1730245509.8124063,4000
-406.8464525754992,-187500.02235174447,7.778407070446858,-187500.02235174447,-187500.02235174447,-187500.02235174447,-187500.02235174447,-187500.02235174447,1730245511.2607684,1730245509.8124063,4000
-363.7075857767565,-187500.02235174447,15.713276352080864,-187500.02235174447,-187500.02235174447,-187500.02235174447,-187500.02235174447,-187500.02235174447,1730245511.26558,1730245509.8124063,4000
-329.30825106003897,-187500.02235174447,73.4254805356837,-187500.02235174447,-187500.02235174447,-187500.02235174447,-187500.02235174447,-187500.02235174447,1730245511.2693915,1730245509.8124063,4000
-369.6978532907788,-187500.02235174447,63.121326341787146,-187500.02235174447,-187500.02235174447,-187500.02235174447,-187500.02235174447,-187500.02235174447,1730245511.2721388,1730245509.8124063,4000
-402.73373159572265,-187500.02235174447,17.34495369731828,-187500.02235174447,-187500.02235174447,-187500.02235174447,-187500.02235174447,-187500.02235174447,1730245511.2766588,1730245509.8124063,4000
-318.51235848812564,-187500.02235174447,23.558738655893645,-187500.02235174447,-187500.02235174447,-187500.02235174447,-187500.02235174447,-187500.02235174447,1730245511.2800827,1730245509.8124063,4000
-327.72127720371213,-187500.02235174447,90.1445853882534,-187500.02235174447,-187500.02235174447,-187500.02235174447,-187500.02235174447,-187500.02235174447,1730245511.2846673,1730245509.8124063,4000
-355.68330951730127,-187500.02235174447,116.18436767868612,-187500.02235174447,-187500.02235174447,-187500.02235174447,-187500.02235174447,-187500.02235174447,1730245511.288216,1730245509.8124063,4000
-401.1467577393959,-187500.02235174447,81.82973645087915,-187500.02235174447,-187500.02235174447,-187500.02235174447,-187500.02235174447,-187500.02235174447,1730245511.293436,1730245509.8124063,4000
-341.91463493283214,-187500.02235174447,69.98331188956641,-187500.02235174447,-187500.02235174447,-187500.02235174447,-187500.02235174447,-187500.02235174447,1730245511.2971735,1730245509.8124063,4000
-181.0714818324425,-187500.02235174447,73.53723925796024,-187500.02235174447,-187500.02235174447,-187500.02235174447,-187500.02235174447,-187500.02235174447,1730245511.3004808,1730245509.8124063,4000
-286.9293435727768,-187500.02235174447,68.50809675551615,-187500.02235174447,-187500.02235174447,-187500.02235174447,-187500.02235174447,-187500.02235174447,1730245511.304143,1730245509.8124063,4000
-486.686883769856,-187500.02235174447,61.64611120773688,-187500.02235174447,-187500.02235174447,-187500.02235174447,-187500.02235174447,-187500.02235174447,1730245511.3083992,1730245509.8124063,4000
-438.6529849354011,-187500.02235174447,67.4128612772061,-187500.02235174447,-187500.02235174447,-187500.02235174447,-187500.02235174447,-187500.02235174447,1730245511.3121953,1730245509.8124063,4000
-356.3315101065052,-187500.02235174447,84.91427718571153,-187500.02235174447,-187500.02235174447,-187500.02235174447,-187500.02235174447,-187500.02235174447,1730245511.316739,1730245509.8124063,4000
-353.0905071604857,-187500.02235174447,105.29906812895156,-187500.02235174447,-187500.02235174447,-187500.02235174447,-187500.02235174447,-187500.02235174447,1730245511.3212202,1730245509.8124063,4000
-376.8951150053877,-187500.02235174447,55.45467799361682,-187500.02235174447,-187500.02235174447,-187500.02235174447,-187500.02235174447,-187500.02235174447,1730245511.3255224,1730245509.8124063,4000
-366.1662776668403,-187500.02235174447,50.11261106879844,-187500.02235174447,-187500.02235174447,-187500.02235174447,-187500.02235174447,-187500.02235174447,1730245511.3291523,1730245509.8124063,4000
-357.2702833736281,-187500.02235174447,80.86861143930095,-187500.02235174447,-187500.02235174447,-187500.02235174447,-187500.02235174447,-187500.02235174447,1730245511.3326304,1730245509.8124063,4000
-333.01864063961995,-187500.02235174447,83.14848937374228,-187500.02235174447,-187500.02235174447,-187500.02235174447,-187500.02235174447,-187500.02235174447,1730245511.3364549,1730245509.8124063,4000
-382.9077342638653,-187500.02235174447,21.368267699273552,-187500.02235174447,-187500.02235174447,-187500.02235174447,-187500.02235174447,-187500.02235174447,1730245511.340626,1730245509.8124063,4000
-378.41503362834857,-187500.02235174447,31.35949747079581,-187500.02235174447,-187500.02235174447,-187500.02235174447,-187500.02235174447,-187500.02235174447,1730245511.3445284,1730245509.8124063,4000
-337.2654720861283,-187500.02235174447,30.577186414860066,-187500.02235174447,-187500.02235174447,-187500.02235174447,-187500.02235174447,-187500.02235174447,1730245511.349434,1730245509.8124063,4000
-309.8845851283771,-187500.02235174447,70.5644572454044,-187500.02235174447,-187500.02235174447,-187500.02235174447,-187500.02235174447,-187500.02235174447,1730245511.352428,1730245509.8124063,4000
-279.5756196469807,-187500.02235174447,79.16987886069762,-187500.02235174447,-187500.02235174447,-187500.02235174447,-187500.02235174447,-187500.02235174447,1730245511.3553095,1730245509.8124063,4000
-305.9283263597878,-187500.02235174447,22.97759330005566,-187500.02235174447,-187500.02235174447,-187500.02235174447,-187500.02235174447,-187500.02235174447,1730245511.3607247,1730245509.8124063,4000
-365.38396661090457,-187500.02235174447,84.1543178742311,-187500.02235174447,-187500.02235174447,-187500.02235174447,-187500.02235174447,-187500.02235174447,1730245511.3647294,1730245509.8124063,4000
-343.3674983224271,-187500.02235174447,138.15613247825294,-187500.02235174447,-187500.02235174447,-187500.02235174447,-187500.02235174447,-187500.02235174447,1730245511.3682184,1730245509.8124063,4000
-394.3294756805272,-187500.02235174447,100.58285004888178,-187500.02235174447,-187500.02235174447,-187500.02235174447,-187500.02235174447,-187500.02235174447,1730245511.372455,1730245509.8124063,4000
-376.7610045386559,-187500.02235174447,46.73749765604707,-187500.02235174447,-187500.02235174447,-187500.02235174447,-187500.02235174447,-187500.02235174447,1730245511.3768103,1730245509.8124063,4000
-327.8777394148993,-187500.02235174447,98.90646921473376,-187500.02235174447,-187500.02235174447,-187500.02235174447,-187500.02235174447,-187500.02235174447,1730245511.380258,1730245509.8124063,4000
-270.3443491869389,-187500.02235174447,98.705303514636,-187500.02235174447,-187500.02235174447,-187500.02235174447,-187500.02235174447,-187500.02235174447,1730245511.3836164,1730245509.8124063,4000
-347.9272541913097,-187500.02235174447,98.54884130344884,-187500.02235174447,-187500.02235174447,-187500.02235174447,-187500.02235174447,-187500.02235174447,1730245511.3882892,1730245509.8124063,4000
-399.336266438516,-187500.02235174447,71.36912004579546,-187500.02235174447,-187500.02235174447,-187500.02235174447,-187500.02235174447,-187500.02235174447,1730245511.3926544,1730245509.8124063,4000
-306.19654729325146,-187500.02235174447,67.79284093294632,-187500.02235174447,-187500.02235174447,-187500.02235174447,-187500.02235174447,-187500.02235174447,1730245511.396291,1730245509.8124063,4000
-265.7398898291457,-187500.02235174447,76.75589045952445,-187500.02235174447,-187500.02235174447,-187500.02235174447,-187500.02235174447,-187500.02235174447,1730245511.4007022,1730245509.8124063,4000
-332.19162609477354,-187500.02235174447,67.7481374440357,-187500.02235174447,-187500.02235174447,-187500.02235174447,-187500.02235174447,-187500.02235174447,1730245511.4053545,1730245509.8124063,4000
-379.8678970179435,-187500.02235174447,44.9270063551672,-187500.02235174447,-187500.02235174447,-187500.02235174447,-187500.02235174447,-187500.02235174447,1730245511.4088311,1730245509.8124063,4000
-327.38600103688253,-187500.02235174447,65.02122462048824,-187500.02235174447,-187500.02235174447,-187500.02235174447,-187500.02235174447,-187500.02235174447,1730245511.4134264,1730245509.8124063,4000
-327.83303592598867,-187500.02235174447,101.72278901610244,-187500.02235174447,-187500.02235174447,-187500.02235174447,-187500.02235174447,-187500.02235174447,1730245511.4164329,1730245509.8124063,4000
-306.48711997117044,-187500.02235174447,84.55664927442662,-187500.02235174447,-187500.02235174447,-187500.02235174447,-187500.02235174447,-187500.02235174447,1730245511.4204571,1730245509.8124063,4000
-335.00794589614225,-187500.02235174447,49.196189546130846,-187500.02235174447,-187500.02235174447,-187500.02235174447,-187500.02235174447,-187500.02235174447,1730245511.42472,1730245509.8124063,4000
-373.7658707816447,-187500.02235174447,79.70632072762498,-187500.02235174447,-187500.02235174447,-187500.02235174447,-187500.02235174447,-187500.02235174447,1730245511.4283545,1730245509.8124063,4000
-326.3131173030278,-187500.02235174447,90.43515806617238,-187500.02235174447,-187500.02235174447,-187500.02235174447,-187500.02235174447,-187500.02235174447,1730245511.4345803,1730245509.8124063,4000
-323.1838730792848,-187500.02235174447,111.19992866515264,-187500.02235174447,-187500.02235174447,-187500.02235174447,-187500.02235174447,-187500.02235174447,1730245511.437423,1730245509.8124063,4000
-355.1021641614633,-187500.02235174447,98.81706223691252,-187500.02235174447,-187500.02235174447,-187500.02235174447,-187500.02235174447,-187500.02235174447,1730245511.4406867,1730245509.8124063,4000
-370.79308876908885,-187500.02235174447,66.85406766582342,-187500.02235174447,-187500.02235174447,-187500.02235174447,-187500.02235174447,-187500.02235174447,1730245511.444721,1730245509.8124063,4000
-328.12360860390766,-187500.02235174447,63.74717518653574,-187500.02235174447,-187500.02235174447,-187500.02235174447,-187500.02235174447,-187500.02235174447,1730245511.4487047,1730245509.8124063,4000
-316.00896310913123,-187500.02235174447,101.72278901610244,-187500.02235174447,-187500.02235174447,-187500.02235174447,-187500.02235174447,-187500.02235174447,1730245511.4524348,1730245509.8124063,4000
-384.4947081201921,-187500.02235174447,83.66257949621433,-187500.02235174447,-187500.02235174447,-187500.02235174447,-187500.02235174447,-187500.02235174447,1730245511.4564493,1730245509.8124063,4000
-350.16242863684045,-187500.02235174447,14.68509610713674,-187500.02235174447,-187500.02235174447,-187500.02235174447,-187500.02235174447,-187500.02235174447,1730245511.4595532,1730245509.8124063,4000
-308.5434804610587,-187500.02235174447,129.3271934184067,-187500.02235174447,-187500.02235174447,-187500.02235174447,-187500.02235174447,-187500.02235174447,1730245511.4633937,1730245509.8124063,4000
-313.2820502855838,-187500.02235174447,134.04341149847644,-187500.02235174447,-187500.02235174447,-187500.02235174447,-187500.02235174447,-187500.02235174447,1730245511.4696848,1730245509.8124063,4000
-304.1401868033632,-187500.02235174447,106.41665535171693,-187500.02235174447,-187500.02235174447,-187500.02235174447,-187500.02235174447,-187500.02235174447,1730245511.4731011,1730245509.8124063,4000
-306.82239613800004,-187500.02235174447,69.69273921164742,-187500.02235174447,-187500.02235174447,-187500.02235174447,-187500.02235174447,-187500.02235174447,1730245511.476698,1730245509.8124063,4000
-345.2003413677623,-187500.02235174447,55.72289892708051,-187500.02235174447,-187500.02235174447,-187500.02235174447,-187500.02235174447,-187500.02235174447,1730245511.4805684,1730245509.8124063,4000
-341.8699314439216,-187500.02235174447,111.78107402099062,-187500.02235174447,-187500.02235174447,-187500.02235174447,-187500.02235174447,-187500.02235174447,1730245511.4847152,1730245509.8124063,4000
-351.79410598207784,-187500.02235174447,96.29131511346284,-187500.02235174447,-187500.02235174447,-187500.02235174447,-187500.02235174447,-187500.02235174447,1730245511.4874864,1730245509.8124063,4000
-366.99329221168665,-187500.02235174447,36.4109917176952,-187500.02235174447,-187500.02235174447,-187500.02235174447,-187500.02235174447,-187500.02235174447,1730245511.491702,1730245509.8124063,4000
-318.758227677134,-187500.02235174447,64.30596879791842,-187500.02235174447,-187500.02235174447,-187500.02235174447,-187500.02235174447,-187500.02235174447,1730245511.49543,1730245509.8124063,4000
-308.96816360570955,-187500.02235174447,150.15901925075283,-187500.02235174447,-187500.02235174447,-187500.02235174447,-187500.02235174447,-187500.02235174447,1730245511.4996853,1730245509.8124063,4000
-306.9341548602766,-187500.02235174447,140.5030656460602,-187500.02235174447,-187500.02235174447,-187500.02235174447,-187500.02235174447,-187500.02235174447,1730245511.504538,1730245509.8124063,4000
-358.36551885193813,-187500.02235174447,91.26217261101874,-187500.02235174447,-187500.02235174447,-187500.02235174447,-187500.02235174447,-187500.02235174447,1730245511.5086513,1730245509.8124063,4000
-357.44909732927056,-187500.02235174447,62.71899494159162,-187500.02235174447,-187500.02235174447,-187500.02235174447,-187500.02235174447,-187500.02235174447,1730245511.512505,1730245509.8124063,4000
-341.0205651546199,-187500.02235174447,67.43521302166141,-187500.02235174447,-187500.02235174447,-187500.02235174447,-187500.02235174447,-187500.02235174447,1730245511.515695,1730245509.8124063,4000
-286.0129220501092,-187500.02235174447,97.4536058251388,-187500.02235174447,-187500.02235174447,-187500.02235174447,-187500.02235174447,-187500.02235174447,1730245511.519708,1730245509.8124063,4000
-312.5891462074693,-187500.02235174447,85.07073939689867,-187500.02235174447,-187500.02235174447,-187500.02235174447,-187500.02235174447,-187500.02235174447,1730245511.5238736,1730245509.8124063,4000
-358.209056640751,-187500.02235174447,61.355538529817885,-187500.02235174447,-187500.02235174447,-187500.02235174447,-187500.02235174447,-187500.02235174447,1730245511.5275867,1730245509.8124063,4000
-332.4821987726926,-187500.02235174447,66.80936417691281,-187500.02235174447,-187500.02235174447,-187500.02235174447,-187500.02235174447,-187500.02235174447,1730245511.532707,1730245509.8124063,4000
-280.7155586142014,-187500.02235174447,85.94245743065565,-187500.02235174447,-187500.02235174447,-187500.02235174447,-187500.02235174447,-187500.02235174447,1730245511.536557,1730245509.8124063,4000
-320.0099253666312,-187500.02235174447,41.64129992023706,-187500.02235174447,-187500.02235174447,-187500.02235174447,-187500.02235174447,-187500.02235174447,1730245511.5402007,1730245509.8124063,4000
-390.7308448232228,-187500.02235174447,20.2506804765082,-187500.02235174447,-187500.02235174447,-187500.02235174447,-187500.02235174447,-187500.02235174447,1730245511.544172,1730245509.8124063,4000
-357.40439384035994,-187500.02235174447,52.839523892345895,-187500.02235174447,-187500.02235174447,-187500.02235174447,-187500.02235174447,-187500.02235174447,1730245511.5477571,1730245509.8124063,4000
-326.15665509184066,-187500.02235174447,114.15035893325316,-187500.02235174447,-187500.02235174447,-187500.02235174447,-187500.02235174447,-187500.02235174447,1730245511.5518005,1730245509.8124063,4000
-325.48610275818146,-187500.02235174447,107.3107251299292,-187500.02235174447,-187500.02235174447,-187500.02235174447,-187500.02235174447,-187500.02235174447,1730245511.5557923,1730245509.8124063,4000
-290.66208489681304,-187500.02235174447,33.46056144959467,-187500.02235174447,-187500.02235174447,-187500.02235174447,-187500.02235174447,-187500.02235174447,1730245511.560704,1730245509.8124063,4000
-273.20537247721825,-187500.02235174447,67.77048918849101,-187500.02235174447,-187500.02235174447,-187500.02235174447,-187500.02235174447,-187500.02235174447,1730245511.565181,1730245509.8124063,4000
-307.0235618380978,-187500.02235174447,126.82379803941228,-187500.02235174447,-187500.02235174447,-187500.02235174447,-187500.02235174447,-187500.02235174447,1730245511.568112,1730245509.8124063,4000
-307.4258932382933,-187500.02235174447,112.45162635464985,-187500.02235174447,-187500.02235174447,-187500.02235174447,-187500.02235174447,-187500.02235174447,1730245511.5715673,1730245509.8124063,4000
-328.8165126820222,-187500.02235174447,61.48964899654973,-187500.02235174447,-187500.02235174447,-187500.02235174447,-187500.02235174447,-187500.02235174447,1730245511.5755248,1730245509.8124063,4000
-302.66497166931293,-187500.02235174447,76.77824220397976,-187500.02235174447,-187500.02235174447,-187500.02235174447,-187500.02235174447,-187500.02235174447,1730245511.579642,1730245509.8124063,4000
-266.00811076260936,-187500.02235174447,91.4409865666612,-187500.02235174447,-187500.02235174447,-187500.02235174447,-187500.02235174447,-187500.02235174447,1730245511.5839353,1730245509.8124063,4000
-301.6144396799135,-187500.02235174447,81.18153586167526,-187500.02235174447,-187500.02235174447,-187500.02235174447,-187500.02235174447,-187500.02235174447,1730245511.5887346,1730245509.8124063,4000
-379.08558596200777,-187500.02235174447,35.82984636185722,-187500.02235174447,-187500.02235174447,-187500.02235174447,-187500.02235174447,-187500.02235174447,1730245511.5930936,1730245509.8124063,4000
-356.1526961508627,-187500.02235174447,33.08058179385445,-187500.02235174447,-187500.02235174447,-187500.02235174447,-187500.02235174447,-187500.02235174447,1730245511.5955412,1730245509.8124063,4000
-297.97110533369846,-187500.02235174447,76.44296603715016,-187500.02235174447,-187500.02235174447,-187500.02235174447,-187500.02235174447,-187500.02235174447,1730245511.6000829,1730245509.8124063,4000
-321.30632654503904,-187500.02235174447,81.42740505068363,-187500.02235174447,-187500.02235174447,-187500.02235174447,-187500.02235174447,-187500.02235174447,1730245511.6036031,1730245509.8124063,4000
-309.32579151699446,-187500.02235174447,82.07560563988753,-187500.02235174447,-187500.02235174447,-187500.02235174447,-187500.02235174447,-187500.02235174447,1730245511.607676,1730245509.8124063,4000
-302.2849920135727,-187500.02235174447,35.89690159522314,-187500.02235174447,-187500.02235174447,-187500.02235174447,-187500.02235174447,-187500.02235174447,1730245511.611662,1730245509.8124063,4000
-292.5843349199695,-187500.02235174447,98.81706223691252,-187500.02235174447,-187500.02235174447,-187500.02235174447,-187500.02235174447,-187500.02235174447,1730245511.6157885,1730245509.8124063,4000
-318.0876753434748,-187500.02235174447,113.3009926439515,-187500.02235174447,-187500.02235174447,-187500.02235174447,-187500.02235174447,-187500.02235174447,1730245511.6197417,1730245509.8124063,4000
-351.52588504861416,-187500.02235174447,96.24661162455222,-187500.02235174447,-187500.02235174447,-187500.02235174447,-187500.02235174447,-187500.02235174447,1730245511.6237056,1730245509.8124063,4000
-343.52396053361423,-187500.02235174447,71.05619562342115,-187500.02235174447,-187500.02235174447,-187500.02235174447,-187500.02235174447,-187500.02235174447,1730245511.62769,1730245509.8124063,4000
-345.8261902125109,-187500.02235174447,83.8637451963121,-187500.02235174447,-187500.02235174447,-187500.02235174447,-187500.02235174447,-187500.02235174447,1730245511.6326468,1730245509.8124063,4000
-328.05655337054174,-187500.02235174447,95.46430056861648,-187500.02235174447,-187500.02235174447,-187500.02235174447,-187500.02235174447,-187500.02235174447,1730245511.6357045,1730245509.8124063,4000
-343.7921814670779,-187500.02235174447,92.1115389003204,-187500.02235174447,-187500.02235174447,-187500.02235174447,-187500.02235174447,-187500.02235174447,1730245511.6397111,1730245509.8124063,4000
-349.58128328100247,-187500.02235174447,54.426497748672695,-187500.02235174447,-187500.02235174447,-187500.02235174447,-187500.02235174447,-187500.02235174447,1730245511.6438797,1730245509.8124063,4000
-306.6659339268129,-187500.02235174447,66.1611635877089,-187500.02235174447,-187500.02235174447,-187500.02235174447,-187500.02235174447,-187500.02235174447,1730245511.6480484,1730245509.8124063,4000
-296.16061403281856,-187500.02235174447,102.34863786085104,-187500.02235174447,-187500.02235174447,-187500.02235174447,-187500.02235174447,-187500.02235174447,1730245511.6524377,1730245509.8124063,4000
-313.68438168577933,-187500.02235174447,52.48189598106098,-187500.02235174447,-187500.02235174447,-187500.02235174447,-187500.02235174447,-187500.02235174447,1730245511.6559072,1730245509.8124063,4000
-308.275259527595,-187500.02235174447,57.55574197241569,-187500.02235174447,-187500.02235174447,-187500.02235174447,-187500.02235174447,-187500.02235174447,1730245511.6611452,1730245509.8124063,4000
-318.1100270879301,-187500.02235174447,100.60520179333707,-187500.02235174447,-187500.02235174447,-187500.02235174447,-187500.02235174447,-187500.02235174447,1730245511.6640625,1730245509.8124063,4000
-316.791274165067,-187500.02235174447,117.65958281273636,-187500.02235174447,-187500.02235174447,-187500.02235174447,-187500.02235174447,-187500.02235174447,1730245511.6669202,1730245509.8124063,4000
-303.06730306950845,-187500.02235174447,113.54686183295988,-187500.02235174447,-187500.02235174447,-187500.02235174447,-187500.02235174447,-187500.02235174447,1730245511.6717825,1730245509.8124063,4000
-346.6308530129019,-187500.02235174447,86.63536150877017,-187500.02235174447,-187500.02235174447,-187500.02235174447,-187500.02235174447,-187500.02235174447,1730245511.6758568,1730245509.8124063,4000
-331.87870167239925,-187500.02235174447,75.3253788143848,-187500.02235174447,-187500.02235174447,-187500.02235174447,-187500.02235174447,-187500.02235174447,1730245511.67979,1730245509.8124063,4000
-294.17130877629626,-187500.02235174447,73.22431483558594,-187500.02235174447,-187500.02235174447,-187500.02235174447,-187500.02235174447,-187500.02235174447,1730245511.6843417,1730245509.8124063,4000
-343.6804227448014,-187500.02235174447,77.73936721555796,-187500.02235174447,-187500.02235174447,-187500.02235174447,-187500.02235174447,-187500.02235174447,1730245511.6888192,1730245509.8124063,4000
-355.8174199840331,-187500.02235174447,110.68583854268056,-187500.02235174447,-187500.02235174447,-187500.02235174447,-187500.02235174447,-187500.02235174447,1730245511.6920345,1730245509.8124063,4000
-310.8457101399553,-187500.02235174447,77.5382015154602,-187500.02235174447,-187500.02235174447,-187500.02235174447,-187500.02235174447,-187500.02235174447,1730245511.69495,1730245509.8124063,4000
-305.2577740261286,-187500.02235174447,96.98421919157734,-187500.02235174447,-187500.02235174447,-187500.02235174447,-187500.02235174447,-187500.02235174447,1730245511.7000225,1730245509.8124063,4000
-330.7611144496339,-187500.02235174447,105.74610301805772,-187500.02235174447,-187500.02235174447,-187500.02235174447,-187500.02235174447,-187500.02235174447,1730245511.703746,1730245509.8124063,4000
-320.61342246692453,-187500.02235174447,66.7646606880022,-187500.02235174447,-187500.02235174447,-187500.02235174447,-187500.02235174447,-187500.02235174447,1730245511.7081654,1730245509.8124063,4000
-272.02073002108693,-187500.02235174447,50.850218635823566,-187500.02235174447,-187500.02235174447,-187500.02235174447,-187500.02235174447,-187500.02235174447,1730245511.7117407,1730245509.8124063,4000
-286.52701217258124,-187500.02235174447,84.22137310759702,-187500.02235174447,-187500.02235174447,-187500.02235174447,-187500.02235174447,-187500.02235174447,1730245511.715886,1730245509.8124063,4000
-364.5346003216029,-187500.02235174447,125.37093464981731,-187500.02235174447,-187500.02235174447,-187500.02235174447,-187500.02235174447,-187500.02235174447,1730245511.7188835,1730245509.8124063,4000
-372.13419343640726,-187500.02235174447,101.36516110481752,-187500.02235174447,-187500.02235174447,-187500.02235174447,-187500.02235174447,-187500.02235174447,1730245511.725223,1730245509.8124063,4000
-352.10703040445213,-187500.02235174447,47.810381389901806,-187500.02235174447,-187500.02235174447,-187500.02235174447,-187500.02235174447,-187500.02235174447,1730245511.7280264,1730245509.8124063,4000
-324.7037917022457,-187500.02235174447,90.61397202181485,-187500.02235174447,-187500.02235174447,-187500.02235174447,-187500.02235174447,-187500.02235174447,1730245511.7350092,1730245509.8124063,4000
-288.9186488292991,-187500.02235174447,129.8189317964234,-187500.02235174447,-187500.02235174447,-187500.02235174447,-187500.02235174447,-187500.02235174447,1730245511.7377584,1730245509.8124063,4000
-302.2179367802068,-187500.02235174447,98.99587619255496,-187500.02235174447,-187500.02235174447,-187500.02235174447,-187500.02235174447,-187500.02235174447,1730245511.7410855,1730245509.8124063,4000
-314.1761200637961,-187500.02235174447,60.19324781814192,-187500.02235174447,-187500.02235174447,-187500.02235174447,-187500.02235174447,-187500.02235174447,1730245511.744866,1730245509.8124063,4000
-289.8797738408773,-187500.02235174447,71.1679543456977,-187500.02235174447,-187500.02235174447,-187500.02235174447,-187500.02235174447,-187500.02235174447,1730245511.7484832,1730245509.8124063,4000
-267.0809944964641,-187500.02235174447,72.7772799464798,-187500.02235174447,-187500.02235174447,-187500.02235174447,-187500.02235174447,-187500.02235174447,1730245511.7511773,1730245509.8124063,4000
-314.8913758863659,-187500.02235174447,55.83465764935704,-187500.02235174447,-187500.02235174447,-187500.02235174447,-187500.02235174447,-187500.02235174447,1730245511.756991,1730245509.8124063,4000
-328.3247743040054,-187500.02235174447,54.69471868213638,-187500.02235174447,-187500.02235174447,-187500.02235174447,-187500.02235174447,-187500.02235174447,1730245511.760028,1730245509.8124063,4000
-307.3588380049274,-187500.02235174447,59.07566059537657,-187500.02235174447,-187500.02235174447,-187500.02235174447,-187500.02235174447,-187500.02235174447,1730245511.7652447,1730245509.8124063,4000
-316.6571636983352,-187500.02235174447,97.72182675860248,-187500.02235174447,-187500.02235174447,-187500.02235174447,-187500.02235174447,-187500.02235174447,1730245511.7690752,1730245509.8124063,4000
-295.9147448438102,-187500.02235174447,89.49638479904948,-187500.02235174447,-187500.02235174447,-187500.02235174447,-187500.02235174447,-187500.02235174447,1730245511.7719195,1730245509.8124063,4000
-362.0982601759744,-187500.02235174447,77.96288466011103,-187500.02235174447,-187500.02235174447,-187500.02235174447,-187500.02235174447,-187500.02235174447,1730245511.7752109,1730245509.8124063,4000
-348.1507716358628,-187500.02235174447,35.51692193948292,-187500.02235174447,-187500.02235174447,-187500.02235174447,-187500.02235174447,-187500.02235174447,1730245511.778823,1730245509.8124063,4000
-320.99340212266475,-187500.02235174447,53.08539308135428,-187500.02235174447,-187500.02235174447,-187500.02235174447,-187500.02235174447,-187500.02235174447,1730245511.7840452,1730245509.8124063,4000
-299.55807919002524,-187500.02235174447,97.31949535840695,-187500.02235174447,-187500.02235174447,-187500.02235174447,-187500.02235174447,-187500.02235174447,1730245511.7878532,1730245509.8124063,4000
-352.4423065712818,-187500.02235174447,75.6383032367591,-187500.02235174447,-187500.02235174447,-187500.02235174447,-187500.02235174447,-187500.02235174447,1730245511.7920542,1730245509.8124063,4000
-320.94869863375413,-187500.02235174447,80.46628003910543,-187500.02235174447,-187500.02235174447,-187500.02235174447,-187500.02235174447,-187500.02235174447,1730245511.795852,1730245509.8124063,4000
-285.34236971645,-187500.02235174447,106.14843441825325,-187500.02235174447,-187500.02235174447,-187500.02235174447,-187500.02235174447,-187500.02235174447,1730245511.7990932,1730245509.8124063,4000
-304.85544262593305,-187500.02235174447,128.54488236247093,-187500.02235174447,-187500.02235174447,-187500.02235174447,-187500.02235174447,-187500.02235174447,1730245511.803203,1730245509.8124063,4000
-343.7027744892567,-187500.02235174447,82.25441959553,-187500.02235174447,-187500.02235174447,-187500.02235174447,-187500.02235174447,-187500.02235174447,1730245511.8069353,1730245509.8124063,4000
-342.0263936551087,-187500.02235174447,64.12715484227596,-187500.02235174447,-187500.02235174447,-187500.02235174447,-187500.02235174447,-187500.02235174447,1730245511.8146036,1730245509.8124063,4000
-319.18291082178484,-187500.02235174447,101.11929191580916,-187500.02235174447,-187500.02235174447,-187500.02235174447,-187500.02235174447,-187500.02235174447,1730245511.8184292,1730245509.8124063,4000
-292.5619831755141,-187500.02235174447,124.0298299824989,-187500.02235174447,-187500.02235174447,-187500.02235174447,-187500.02235174447,-187500.02235174447,1730245511.8209777,1730245509.8124063,4000
-313.3491055189497,-187500.02235174447,88.35644583182882,-187500.02235174447,-187500.02235174447,-187500.02235174447,-187500.02235174447,-187500.02235174447,1730245511.825389,1730245509.8124063,4000
-315.5395764755698,-187500.02235174447,19.17779674265346,-187500.02235174447,-187500.02235174447,-187500.02235174447,-187500.02235174447,-187500.02235174447,1730245511.828196,1730245509.8124063,4000
-296.92057334429904,-187500.02235174447,59.65680595121455,-187500.02235174447,-187500.02235174447,-187500.02235174447,-187500.02235174447,-187500.02235174447,1730245511.8316236,1730245509.8124063,4000
-316.9700881207095,-187500.02235174447,128.72369631811338,-187500.02235174447,-187500.02235174447,-187500.02235174447,-187500.02235174447,-187500.02235174447,1730245511.8354847,1730245509.8124063,4000
-325.7096202027345,-187500.02235174447,98.50413781453824,-187500.02235174447,-187500.02235174447,-187500.02235174447,-187500.02235174447,-187500.02235174447,1730245511.839232,1730245509.8124063,4000
-295.244192510151,-187500.02235174447,32.164160271186866,-187500.02235174447,-187500.02235174447,-187500.02235174447,-187500.02235174447,-187500.02235174447,1730245511.8444412,1730245509.8124063,4000
-258.8779042813664,-187500.02235174447,80.93566667266687,-187500.02235174447,-187500.02235174447,-187500.02235174447,-187500.02235174447,-187500.02235174447,1730245511.8486063,1730245509.8124063,4000
-280.2014684917293,-187500.02235174447,143.90053080326686,-187500.02235174447,-187500.02235174447,-187500.02235174447,-187500.02235174447,-187500.02235174447,1730245511.851336,1730245509.8124063,4000
-314.42198925280445,-187500.02235174447,130.46713238562734,-187500.02235174447,-187500.02235174447,-187500.02235174447,-187500.02235174447,-187500.02235174447,1730245511.8549893,1730245509.8124063,4000
-321.8427684119664,-187500.02235174447,67.3905095327508,-187500.02235174447,-187500.02235174447,-187500.02235174447,-187500.02235174447,-187500.02235174447,1730245511.85931,1730245509.8124063,4000
-341.4005448103601,-187500.02235174447,38.46735220758345,-187500.02235174447,-187500.02235174447,-187500.02235174447,-187500.02235174447,-187500.02235174447,1730245511.8630188,1730245509.8124063,4000
-316.9924398651648,-187500.02235174447,82.65675099572552,-187500.02235174447,-187500.02235174447,-187500.02235174447,-187500.02235174447,-187500.02235174447,1730245511.8670692,1730245509.8124063,4000
-332.39279179487136,-187500.02235174447,151.00838554005452,-187500.02235174447,-187500.02235174447,-187500.02235174447,-187500.02235174447,-187500.02235174447,1730245511.8720877,1730245509.8124063,4000
-316.4559979982374,-187500.02235174447,116.54199558997102,-187500.02235174447,-187500.02235174447,-187500.02235174447,-187500.02235174447,-187500.02235174447,1730245511.876196,1730245509.8124063,4000
-295.17713727678506,-187500.02235174447,70.16212584520888,-187500.02235174447,-187500.02235174447,-187500.02235174447,-187500.02235174447,-187500.02235174447,1730245511.879001,1730245509.8124063,4000
-250.0266134770648,-187500.02235174447,98.19121339216392,-187500.02235174447,-187500.02235174447,-187500.02235174447,-187500.02235174447,-187500.02235174447,1730245511.8833632,1730245509.8124063,4000
-227.33959285492813,-187500.02235174447,140.2571964570518,-187500.02235174447,-187500.02235174447,-187500.02235174447,-187500.02235174447,-187500.02235174447,1730245511.8870509,1730245509.8124063,4000
-302.8661373694107,-187500.02235174447,100.76166400452423,-187500.02235174447,-187500.02235174447,-187500.02235174447,-187500.02235174447,-187500.02235174447,1730245511.89134,1730245509.8124063,4000
-319.0040968661424,-187500.02235174447,67.56932348839325,-187500.02235174447,-187500.02235174447,-187500.02235174447,-187500.02235174447,-187500.02235174447,1730245511.8950584,1730245509.8124063,4000
-217.68363925023547,-187500.02235174447,66.31762579889606,-187500.02235174447,-187500.02235174447,-187500.02235174447,-187500.02235174447,-187500.02235174447,1730245511.9004676,1730245509.8124063,4000
-260.35311941541664,-187500.02235174447,140.5030656460602,-187500.02235174447,-187500.02235174447,-187500.02235174447,-187500.02235174447,-187500.02235174447,1730245511.9040303,1730245509.8124063,4000
-377.1186324499408,-187500.02235174447,99.73348375958012,-187500.02235174447,-187500.02235174447,-187500.02235174447,-187500.02235174447,-187500.02235174447,1730245511.9071193,1730245509.8124063,4000
-337.10900987494114,-187500.02235174447,64.73065194256925,-187500.02235174447,-187500.02235174447,-187500.02235174447,-187500.02235174447,-187500.02235174447,1730245511.9112673,1730245509.8124063,4000
-281.2296487366735,-187500.02235174447,90.94924818864445,-187500.02235174447,-187500.02235174447,-187500.02235174447,-187500.02235174447,-187500.02235174447,1730245511.9152884,1730245509.8124063,4000
-305.4142362373157,-187500.02235174447,104.1144256728203,-187500.02235174447,-187500.02235174447,-187500.02235174447,-187500.02235174447,-187500.02235174447,1730245511.919314,1730245509.8124063,4000
-311.94094561826535,-187500.02235174447,81.27094283949648,-187500.02235174447,-187500.02235174447,-187500.02235174447,-187500.02235174447,-187500.02235174447,1730245511.9234605,1730245509.8124063,4000
-301.5697361910029,-187500.02235174447,67.56932348839325,-187500.02235174447,-187500.02235174447,-187500.02235174447,-187500.02235174447,-187500.02235174447,1730245511.928291,1730245509.8124063,4000
-290.30445698552813,-187500.02235174447,79.70632072762498,-187500.02235174447,-187500.02235174447,-187500.02235174447,-187500.02235174447,-187500.02235174447,1730245511.9323945,1730245509.8124063,4000
-208.8770519348445,-187500.02235174447,106.28254488498509,-187500.02235174447,-187500.02235174447,-187500.02235174447,-187500.02235174447,-187500.02235174447,1730245511.9353397,1730245509.8124063,4000
-299.93805884576545,-187500.02235174447,81.85208819533446,-187500.02235174447,-187500.02235174447,-187500.02235174447,-187500.02235174447,-187500.02235174447,1730245511.9397883,1730245509.8124063,4000
-342.5181320331254,-187500.02235174447,64.61889322029272,-187500.02235174447,-187500.02235174447,-187500.02235174447,-187500.02235174447,-187500.02235174447,1730245511.9437008,1730245509.8124063,4000
-315.74074217566755,-187500.02235174447,45.28463426645211,-187500.02235174447,-187500.02235174447,-187500.02235174447,-187500.02235174447,-187500.02235174447,1730245511.9471164,1730245509.8124063,4000
-272.5124683991037,-187500.02235174447,82.88026844027858,-187500.02235174447,-187500.02235174447,-187500.02235174447,-187500.02235174447,-187500.02235174447,1730245511.951574,1730245509.8124063,4000
-283.04014003755333,-187500.02235174447,37.50622719600525,-187500.02235174447,-187500.02235174447,-187500.02235174447,-187500.02235174447,-187500.02235174447,1730245511.9568768,1730245509.8124063,4000
-308.09644557195253,-187500.02235174447,29.191378258631023,-187500.02235174447,-187500.02235174447,-187500.02235174447,-187500.02235174447,-187500.02235174447,1730245511.959613,1730245509.8124063,4000
-318.9817451216871,-187500.02235174447,46.17870404466439,-187500.02235174447,-187500.02235174447,-187500.02235174447,-187500.02235174447,-187500.02235174447,1730245511.962134,1730245509.8124063,4000
-299.64748616784647,-187500.02235174447,126.6002805948592,-187500.02235174447,-187500.02235174447,-187500.02235174447,-187500.02235174447,-187500.02235174447,1730245511.9672992,1730245509.8124063,4000
-289.0974627849416,-187500.02235174447,102.8627279833231,-187500.02235174447,-187500.02235174447,-187500.02235174447,-187500.02235174447,-187500.02235174447,1730245511.9711404,1730245509.8124063,4000
-299.31221000101687,-187500.02235174447,61.288483296451965,-187500.02235174447,-187500.02235174447,-187500.02235174447,-187500.02235174447,-187500.02235174447,1730245511.9753096,1730245509.8124063,4000
-348.03901291358625,-187500.02235174447,35.941605084133755,-187500.02235174447,-187500.02235174447,-187500.02235174447,-187500.02235174447,-187500.02235174447,1730245511.979218,1730245509.8124063,4000
-296.7864628775672,-187500.02235174447,60.95320712962236,-187500.02235174447,-187500.02235174447,-187500.02235174447,-187500.02235174447,-187500.02235174447,1730245511.9845438,1730245509.8124063,4000
-316.61246020942457,-187500.02235174447,116.22907116759671,-187500.02235174447,-187500.02235174447,-187500.02235174447,-187500.02235174447,-187500.02235174447,1730245511.987132,1730245509.8124063,4000
-321.97687887869824,-187500.02235174447,48.57034070138225,-187500.02235174447,-187500.02235174447,-187500.02235174447,-187500.02235174447,-187500.02235174447,1730245511.9903212,1730245509.8124063,4000
-306.3977129933492,-187500.02235174447,25.659802634692507,-187500.02235174447,-187500.02235174447,-187500.02235174447,-187500.02235174447,-187500.02235174447,1730245511.9951556,1730245509.8124063,4000
-294.21601226520687,-187500.02235174447,44.6140819327929,-187500.02235174447,-187500.02235174447,-187500.02235174447,-187500.02235174447,-187500.02235174447,1730245511.9993625,1730245509.8124063,4000
-293.2325355091734,-187500.02235174447,74.31955031389599,-187500.02235174447,-187500.02235174447,-187500.02235174447,-187500.02235174447,-187500.02235174447,1730245512.0031404,1730245509.8124063,4000
-298.21697452270683,-187500.02235174447,34.24287250553042,-187500.02235174447,-187500.02235174447,-187500.02235174447,-187500.02235174447,-187500.02235174447,1730245512.007295,1730245509.8124063,4000
-359.10312641896326,-187500.02235174447,30.107799781298613,-187500.02235174447,-187500.02235174447,-187500.02235174447,-187500.02235174447,-187500.02235174447,1730245512.0113032,1730245509.8124063,4000
-327.9224429038099,-187500.02235174447,46.98336684505544,-187500.02235174447,-187500.02235174447,-187500.02235174447,-187500.02235174447,-187500.02235174447,1730245512.0153902,1730245509.8124063,4000
-295.1547855323297,-187500.02235174447,55.074698337876605,-187500.02235174447,-187500.02235174447,-187500.02235174447,-187500.02235174447,-187500.02235174447,1730245512.0183425,1730245509.8124063,4000
-312.6114979519246,-187500.02235174447,16.27206996346354,-187500.02235174447,-187500.02235174447,-187500.02235174447,-187500.02235174447,-187500.02235174447,1730245512.022322,1730245509.8124063,4000
-279.1062330134193,-187500.02235174447,22.70937236659197,-187500.02235174447,-187500.02235174447,-187500.02235174447,-187500.02235174447,-187500.02235174447,1730245512.0273514,1730245509.8124063,4000
-278.4356806797601,-187500.02235174447,53.621834948281645,-187500.02235174447,-187500.02235174447,-187500.02235174447,-187500.02235174447,-187500.02235174447,1730245512.031336,1730245509.8124063,4000
-311.7397799181676,-187500.02235174447,78.29816082694065,-187500.02235174447,-187500.02235174447,-187500.02235174447,-187500.02235174447,-187500.02235174447,1730245512.0353456,1730245509.8124063,4000
-344.70860298974554,-187500.02235174447,41.52954119796052,-187500.02235174447,-187500.02235174447,-187500.02235174447,-187500.02235174447,-187500.02235174447,1730245512.0393405,1730245509.8124063,4000
-324.502626002148,-187500.02235174447,-43.18357028765325,-187500.02235174447,-187500.02235174447,-187500.02235174447,-187500.02235174447,-187500.02235174447,1730245512.0433533,1730245509.8124063,4000
-344.68625124529024,-187500.02235174447,15.713276352080864,-187500.02235174447,-187500.02235174447,-187500.02235174447,-187500.02235174447,-187500.02235174447,1730245512.0463495,1730245509.8124063,4000
-326.40252428084904,-187500.02235174447,95.46430056861648,-187500.02235174447,-187500.02235174447,-187500.02235174447,-187500.02235174447,-187500.02235174447,1730245512.0516264,1730245509.8124063,4000
-315.2043003087402,-187500.02235174447,82.09795738434283,-187500.02235174447,-187500.02235174447,-187500.02235174447,-187500.02235174447,-187500.02235174447,1730245512.055652,1730245509.8124063,4000
-300.51920420160343,-187500.02235174447,37.17095102917565,-187500.02235174447,-187500.02235174447,-187500.02235174447,-187500.02235174447,-187500.02235174447,1730245512.059548,1730245509.8124063,4000
-285.61059064991366,-187500.02235174447,11.824072816857436,-187500.02235174447,-187500.02235174447,-187500.02235174447,-187500.02235174447,-187500.02235174447,1730245512.0633757,1730245509.8124063,4000
-241.085915694942,-187500.02235174447,50.98432910255541,-187500.02235174447,-187500.02235174447,-187500.02235174447,-187500.02235174447,-187500.02235174447,1730245512.0667148,1730245509.8124063,4000
-285.6776458832796,-187500.02235174447,61.355538529817885,-187500.02235174447,-187500.02235174447,-187500.02235174447,-187500.02235174447,-187500.02235174447,1730245512.070294,1730245509.8124063,4000
-360.6901002752901,-187500.02235174447,15.266241462974724,-187500.02235174447,-187500.02235174447,-187500.02235174447,-187500.02235174447,-187500.02235174447,1730245512.0746958,1730245509.8124063,4000
-370.74838528017824,-187500.02235174447,8.739532082025061,-187500.02235174447,-187500.02235174447,-187500.02235174447,-187500.02235174447,-187500.02235174447,1730245512.078298,1730245509.8124063,4000
-343.0322221555975,-187500.02235174447,43.787067387946536,-187500.02235174447,-187500.02235174447,-187500.02235174447,-187500.02235174447,-187500.02235174447,1730245512.0836864,1730245509.8124063,4000
-331.49872201665903,-187500.02235174447,46.625738933770535,-187500.02235174447,-187500.02235174447,-187500.02235174447,-187500.02235174447,-187500.02235174447,1730245512.087371,1730245509.8124063,4000
-346.563797779536,-187500.02235174447,32.54413992692708,-187500.02235174447,-187500.02235174447,-187500.02235174447,-187500.02235174447,-187500.02235174447,1730245512.0916638,1730245509.8124063,4000
-339.6124052539355,-187500.02235174447,8.06897974836585,-187500.02235174447,-187500.02235174447,-187500.02235174447,-187500.02235174447,-187500.02235174447,1730245512.0947084,1730245509.8124063,4000
-296.8535181109331,-187500.02235174447,1.6763808341480295,-187500.02235174447,-187500.02235174447,-187500.02235174447,-187500.02235174447,-187500.02235174447,1730245512.09841,1730245509.8124063,4000
-314.8690241419106,-187500.02235174447,69.08924211135412,-187500.02235174447,-187500.02235174447,-187500.02235174447,-187500.02235174447,-187500.02235174447,1730245512.1029446,1730245509.8124063,4000
-344.2615681006393,-187500.02235174447,37.84150336283486,-187500.02235174447,-187500.02235174447,-187500.02235174447,-187500.02235174447,-187500.02235174447,1730245512.106808,1730245509.8124063,4000
-380.9854842407089,-187500.02235174447,1.430511645139652,-187500.02235174447,-187500.02235174447,-187500.02235174447,-187500.02235174447,-187500.02235174447,1730245512.1114523,1730245509.8124063,4000
-312.8350153964777,-187500.02235174447,39.54023594143819,-187500.02235174447,-187500.02235174447,-187500.02235174447,-187500.02235174447,-187500.02235174447,1730245512.115778,1730245509.8124063,4000
-273.0265585215758,-187500.02235174447,40.27784350846333,-187500.02235174447,-187500.02235174447,-187500.02235174447,-187500.02235174447,-187500.02235174447,1730245512.1195946,1730245509.8124063,4000
-323.5862044794804,-187500.02235174447,1.430511645139652,-187500.02235174447,-187500.02235174447,-187500.02235174447,-187500.02235174447,-187500.02235174447,1730245512.122852,1730245509.8124063,4000
-345.2450448566729,-187500.02235174447,-10.818244316368618,-187500.02235174447,-187500.02235174447,-187500.02235174447,-187500.02235174447,-187500.02235174447,1730245512.1266549,1730245509.8124063,4000
-314.1761200637961,-187500.02235174447,-21.927061310656228,-187500.02235174447,-187500.02235174447,-187500.02235174447,-187500.02235174447,-187500.02235174447,1730245512.130416,1730245509.8124063,4000
-323.7873701795781,-187500.02235174447,77.09116662635405,-187500.02235174447,-187500.02235174447,-187500.02235174447,-187500.02235174447,-187500.02235174447,1730245512.134492,1730245509.8124063,4000
-343.6357192558908,-187500.02235174447,73.1125561133094,-187500.02235174447,-187500.02235174447,-187500.02235174447,-187500.02235174447,-187500.02235174447,1730245512.138595,1730245509.8124063,4000
-387.7804145551222,-187500.02235174447,24.341049711829392,-187500.02235174447,-187500.02235174447,-187500.02235174447,-187500.02235174447,-187500.02235174447,1730245512.143692,1730245509.8124063,4000
-344.66389950083493,-187500.02235174447,13.142825739720552,-187500.02235174447,-187500.02235174447,-187500.02235174447,-187500.02235174447,-187500.02235174447,1730245512.147694,1730245509.8124063,4000
-295.9594483327208,-187500.02235174447,39.18260803015328,-187500.02235174447,-187500.02235174447,-187500.02235174447,-187500.02235174447,-187500.02235174447,1730245512.1510117,1730245509.8124063,4000
-294.9089163433214,-187500.02235174447,53.21950354808612,-187500.02235174447,-187500.02235174447,-187500.02235174447,-187500.02235174447,-187500.02235174447,1730245512.1544356,1730245509.8124063,4000
-384.4723563757368,-187500.02235174447,15.44505541861718,-187500.02235174447,-187500.02235174447,-187500.02235174447,-187500.02235174447,-187500.02235174447,1730245512.159048,1730245509.8124063,4000
-360.3995275973711,-187500.02235174447,-4.045665746410578,-187500.02235174447,-187500.02235174447,-187500.02235174447,-187500.02235174447,-187500.02235174447,1730245512.162563,1730245509.8124063,4000
-311.7397799181676,-187500.02235174447,43.76471564349123,-187500.02235174447,-187500.02235174447,-187500.02235174447,-187500.02235174447,-187500.02235174447,1730245512.166602,1730245509.8124063,4000
-304.7660356481118,-187500.02235174447,38.73557314104714,-187500.02235174447,-187500.02235174447,-187500.02235174447,-187500.02235174447,-187500.02235174447,1730245512.171559,1730245509.8124063,4000
-327.6765737148015,-187500.02235174447,-8.06897974836585,-187500.02235174447,-187500.02235174447,-187500.02235174447,-187500.02235174447,-187500.02235174447,1730245512.175868,1730245509.8124063,4000
-394.7765105696333,-187500.02235174447,-35.00283181701086,-187500.02235174447,-187500.02235174447,-187500.02235174447,-187500.02235174447,-187500.02235174447,1730245512.1784892,1730245509.8124063,4000
-301.77090189110066,-187500.02235174447,-5.207956458086546,-187500.02235174447,-187500.02235174447,-187500.02235174447,-187500.02235174447,-187500.02235174447,1730245512.182706,1730245509.8124063,4000
-304.8777943703884,-187500.02235174447,33.72878238305836,-187500.02235174447,-187500.02235174447,-187500.02235174447,-187500.02235174447,-187500.02235174447,1730245512.1865726,1730245509.8124063,4000
-328.1906638372736,-187500.02235174447,-28.76669511398019,-187500.02235174447,-187500.02235174447,-187500.02235174447,-187500.02235174447,-187500.02235174447,1730245512.1907527,1730245509.8124063,4000
-308.20820429422906,-187500.02235174447,-11.555851883393752,-187500.02235174447,-187500.02235174447,-187500.02235174447,-187500.02235174447,-187500.02235174447,1730245512.1948056,1730245509.8124063,4000
-302.39675073584925,-187500.02235174447,9.90182279370103,-187500.02235174447,-187500.02235174447,-187500.02235174447,-187500.02235174447,-187500.02235174447,1730245512.2000787,1730245509.8124063,4000
