Fp1,Fp2,C3,C4,P7,P8,O1,O2,time_board,time_marker,marker
3115.6767148586173,-187500.02235174447,24533.23001065612,-187500.02235174447,-187500.02235174447,-187500.02235174447,-187500.02235174447,-187500.02235174447,1730410040.1207411,1730410040.117522,4000
3106.914831032137,-187500.02235174447,24512.04055691249,-187500.02235174447,-187500.02235174447,-187500.02235174447,-187500.02235174447,-187500.02235174447,1730410040.124886,1730410040.117522,4000
3035.992745875448,-187500.02235174447,24456.18354751868,-187500.02235174447,-187500.02235174447,-187500.02235174447,-187500.02235174447,-187500.02235174447,1730410040.1288033,1730410040.117522,4000
3043.8382081792606,-187500.02235174447,24471.963879104125,-187500.02235174447,-187500.02235174447,-187500.02235174447,-187500.02235174447,-187500.02235174447,1730410040.132887,1730410040.117522,4000
3128.104284775768,-187500.02235174447,24543.17653693873,-187500.02235174447,-187500.02235174447,-187500.02235174447,-187500.02235174447,-187500.02235174447,1730410040.1377125,1730410040.117522,4000
3140.5989099262847,-187500.02235174447,24517.874362215327,-187500.02235174447,-187500.02235174447,-187500.02235174447,-187500.02235174447,-187500.02235174447,1730410040.1406865,1730410040.117522,4000
3026.6050132042187,-187500.02235174447,24425.271084936987,-187500.02235174447,-187500.02235174447,-187500.02235174447,-187500.02235174447,-187500.02235174447,1730410040.1447124,1730410040.117522,4000
2995.7149023669845,-187500.02235174447,24437.63159962077,-187500.02235174447,-187500.02235174447,-187500.02235174447,-187500.02235174447,-187500.02235174447,1730410040.148733,1730410040.117522,4000
3093.257915169944,-187500.02235174447,24526.70330127517,-187500.02235174447,-187500.02235174447,-187500.02235174447,-187500.02235174447,-187500.02235174447,1730410040.1527288,1730410040.117522,4000
3106.1995752095672,-187500.02235174447,24523.86462972935,-187500.02235174447,-187500.02235174447,-187500.02235174447,-187500.02235174447,-187500.02235174447,1730410040.1568463,1730410040.117522,4000
3041.558330244819,-187500.02235174447,24453.009599806024,-187500.02235174447,-187500.02235174447,-187500.02235174447,-187500.02235174447,-187500.02235174447,1730410040.1607056,1730410040.117522,4000
3023.900452125127,-187500.02235174447,24456.474120196595,-187500.02235174447,-187500.02235174447,-187500.02235174447,-187500.02235174447,-187500.02235174447,1730410040.1639278,1730410040.117522,4000
3092.185031436089,-187500.02235174447,24515.460373814152,-187500.02235174447,-187500.02235174447,-187500.02235174447,-187500.02235174447,-187500.02235174447,1730410040.1679611,1730410040.117522,4000
3109.4852816444973,-187500.02235174447,24528.67025478724,-187500.02235174447,-187500.02235174447,-187500.02235174447,-187500.02235174447,-187500.02235174447,1730410040.171888,1730410040.117522,4000
3028.2590422939115,-187500.02235174447,24441.923134556197,-187500.02235174447,-187500.02235174447,-187500.02235174447,-187500.02235174447,-187500.02235174447,1730410040.1767972,1730410040.117522,4000
2993.2562104769004,-187500.02235174447,24415.72689005457,-187500.02235174447,-187500.02235174447,-187500.02235174447,-187500.02235174447,-187500.02235174447,1730410040.1809115,1730410040.117522,4000
3071.8896474706708,-187500.02235174447,24495.880245671306,-187500.02235174447,-187500.02235174447,-187500.02235174447,-187500.02235174447,-187500.02235174447,1730410040.1848843,1730410040.117522,4000
3137.8943488471928,-187500.02235174447,24551.513737620564,-187500.02235174447,-187500.02235174447,-187500.02235174447,-187500.02235174447,-187500.02235174447,1730410040.1888788,1730410040.117522,4000
3075.08594692778,-187500.02235174447,24480.0775623414,-187500.02235174447,-187500.02235174447,-187500.02235174447,-187500.02235174447,-187500.02235174447,1730410040.1919208,1730410040.117522,4000
3000.2970099803224,-187500.02235174447,24416.799773788425,-187500.02235174447,-187500.02235174447,-187500.02235174447,-187500.02235174447,-187500.02235174447,1730410040.1959417,1730410040.117522,4000
3046.967452403004,-187500.02235174447,24463.067884810916,-187500.02235174447,-187500.02235174447,-187500.02235174447,-187500.02235174447,-187500.02235174447,1730410040.1999393,1730410040.117522,4000
3130.384162710209,-187500.02235174447,24535.420481612746,-187500.02235174447,-187500.02235174447,-187500.02235174447,-187500.02235174447,-187500.02235174447,1730410040.2049563,1730410040.117522,4000
3099.4493483840643,-187500.02235174447,24503.99392890858,-187500.02235174447,-187500.02235174447,-187500.02235174447,-187500.02235174447,-187500.02235174447,1730410040.2089608,1730410040.117522,4000
3024.50394922542,-187500.02235174447,24433.87650655228,-187500.02235174447,-187500.02235174447,-187500.02235174447,-187500.02235174447,-187500.02235174447,1730410040.212969,1730410040.117522,4000
3048.4426675370537,-187500.02235174447,24473.05911458244,-187500.02235174447,-187500.02235174447,-187500.02235174447,-187500.02235174447,-187500.02235174447,1730410040.216972,1730410040.117522,4000
3106.8701275432263,-187500.02235174447,24512.12996389031,-187500.02235174447,-187500.02235174447,-187500.02235174447,-187500.02235174447,-187500.02235174447,1730410040.2198553,1730410040.117522,4000
3088.653455812151,-187500.02235174447,24482.55860597594,-187500.02235174447,-187500.02235174447,-187500.02235174447,-187500.02235174447,-187500.02235174447,1730410040.2240195,1730410040.117522,4000
3009.818853118283,-187500.02235174447,24422.25359943552,-187500.02235174447,-187500.02235174447,-187500.02235174447,-187500.02235174447,-187500.02235174447,1730410040.2278087,1730410040.117522,4000
3035.344545286244,-187500.02235174447,24455.89297484076,-187500.02235174447,-187500.02235174447,-187500.02235174447,-187500.02235174447,-187500.02235174447,1730410040.2320025,1730410040.117522,4000
3119.007124782458,-187500.02235174447,24552.027827743037,-187500.02235174447,-187500.02235174447,-187500.02235174447,-187500.02235174447,-187500.02235174447,1730410040.2370143,1730410040.117522,4000
3113.732113091006,-187500.02235174447,24528.312626875955,-187500.02235174447,-187500.02235174447,-187500.02235174447,-187500.02235174447,-187500.02235174447,1730410040.2410069,1730410040.117522,4000
3039.881949410671,-187500.02235174447,24452.428454450182,-187500.02235174447,-187500.02235174447,-187500.02235174447,-187500.02235174447,-187500.02235174447,1730410040.2448783,1730410040.117522,4000
3037.60207147623,-187500.02235174447,24461.190338276665,-187500.02235174447,-187500.02235174447,-187500.02235174447,-187500.02235174447,-187500.02235174447,1730410040.24803,1730410040.117522,4000
3108.3453426772767,-187500.02235174447,24531.933609477717,-187500.02235174447,-187500.02235174447,-187500.02235174447,-187500.02235174447,-187500.02235174447,1730410040.2520435,1730410040.117522,4000
3117.084874759302,-187500.02235174447,24519.215466882644,-187500.02235174447,-187500.02235174447,-187500.02235174447,-187500.02235174447,-187500.02235174447,1730410040.2559552,1730410040.117522,4000
3035.590414475252,-187500.02235174447,24441.252582222533,-187500.02235174447,-187500.02235174447,-187500.02235174447,-187500.02235174447,-187500.02235174447,1730410040.2600691,1730410040.117522,4000
3000.900507080616,-187500.02235174447,24418.610265089308,-187500.02235174447,-187500.02235174447,-187500.02235174447,-187500.02235174447,-187500.02235174447,1730410040.2649565,1730410040.117522,4000
3066.301711356844,-187500.02235174447,24498.920082917222,-187500.02235174447,-187500.02235174447,-187500.02235174447,-187500.02235174447,-187500.02235174447,1730410040.2690277,1730410040.117522,4000
3117.33074394831,-187500.02235174447,24532.78297576701,-187500.02235174447,-187500.02235174447,-187500.02235174447,-187500.02235174447,-187500.02235174447,1730410040.2721083,1730410040.117522,4000
3057.2939583413554,-187500.02235174447,24460.653896409734,-187500.02235174447,-187500.02235174447,-187500.02235174447,-187500.02235174447,-187500.02235174447,1730410040.2759929,1730410040.117522,4000
3022.1570160576125,-187500.02235174447,24445.49941366904,-187500.02235174447,-187500.02235174447,-187500.02235174447,-187500.02235174447,-187500.02235174447,1730410040.2799616,1730410040.117522,4000
3080.2268481525,-187500.02235174447,24508.46427779964,-187500.02235174447,-187500.02235174447,-187500.02235174447,-187500.02235174447,-187500.02235174447,1730410040.2840128,1730410040.117522,4000
3125.6455928856844,-187500.02235174447,24533.878211245326,-187500.02235174447,-187500.02235174447,-187500.02235174447,-187500.02235174447,-187500.02235174447,1730410040.2881112,1730410040.117522,4000
3063.08306015528,-187500.02235174447,24464.721913900605,-187500.02235174447,-187500.02235174447,-187500.02235174447,-187500.02235174447,-187500.02235174447,1730410040.2931297,1730410040.117522,4000
3012.322248497277,-187500.02235174447,24414.989282487542,-187500.02235174447,-187500.02235174447,-187500.02235174447,-187500.02235174447,-187500.02235174447,1730410040.2971463,1730410040.117522,4000
3049.5826065042743,-187500.02235174447,24468.722876158103,-187500.02235174447,-187500.02235174447,-187500.02235174447,-187500.02235174447,-187500.02235174447,1730410040.300142,1730410040.117522,4000
3126.6737731306284,-187500.02235174447,24538.370911880844,-187500.02235174447,-187500.02235174447,-187500.02235174447,-187500.02235174447,-187500.02235174447,1730410040.3040867,1730410040.117522,4000
3092.430900625098,-187500.02235174447,24503.8821701863,-187500.02235174447,-187500.02235174447,-187500.02235174447,-187500.02235174447,-187500.02235174447,1730410040.3081756,1730410040.117522,4000
3022.246423035434,-187500.02235174447,24446.572297402898,-187500.02235174447,-187500.02235174447,-187500.02235174447,-187500.02235174447,-187500.02235174447,1730410040.3119695,1730410040.117522,4000
3047.950929159037,-187500.02235174447,24479.16114081873,-187500.02235174447,-187500.02235174447,-187500.02235174447,-187500.02235174447,-187500.02235174447,1730410040.3161862,1730410040.117522,4000
3110.960496778548,-187500.02235174447,24529.43021409872,-187500.02235174447,-187500.02235174447,-187500.02235174447,-187500.02235174447,-187500.02235174447,1730410040.3210883,1730410040.117522,4000
3091.045092468869,-187500.02235174447,24490.918158402223,-187500.02235174447,-187500.02235174447,-187500.02235174447,-187500.02235174447,-187500.02235174447,1730410040.3252103,1730410040.117522,4000
3012.478710708465,-187500.02235174447,24413.3129016534,-187500.02235174447,-187500.02235174447,-187500.02235174447,-187500.02235174447,-187500.02235174447,1730410040.327989,1730410040.117522,4000
3016.5690799437857,-187500.02235174447,24438.190393232155,-187500.02235174447,-187500.02235174447,-187500.02235174447,-187500.02235174447,-187500.02235174447,1730410040.332107,1730410040.117522,4000
3111.407531667653,-187500.02235174447,24538.974408981136,-187500.02235174447,-187500.02235174447,-187500.02235174447,-187500.02235174447,-187500.02235174447,1730410040.336116,1730410040.117522,4000
3114.0003340244693,-187500.02235174447,24515.639187769797,-187500.02235174447,-187500.02235174447,-187500.02235174447,-187500.02235174447,-187500.02235174447,1730410040.3402112,1730410040.117522,4000
3043.5476355013416,-187500.02235174447,24437.45278566513,-187500.02235174447,-187500.02235174447,-187500.02235174447,-187500.02235174447,-187500.02235174447,1730410040.344012,1730410040.117522,4000
3005.1920420160345,-187500.02235174447,24431.820146062397,-187500.02235174447,-187500.02235174447,-187500.02235174447,-187500.02235174447,-187500.02235174447,1730410040.3480773,1730410040.117522,4000
3065.1170689007126,-187500.02235174447,24499.031841639506,-187500.02235174447,-187500.02235174447,-187500.02235174447,-187500.02235174447,-187500.02235174447,1730410040.353022,1730410040.117522,4000
3113.776816579916,-187500.02235174447,24524.13285066281,-187500.02235174447,-187500.02235174447,-187500.02235174447,-187500.02235174447,-187500.02235174447,1730410040.3560605,1730410040.117522,4000
3076.4717550840087,-187500.02235174447,24495.07558287091,-187500.02235174447,-187500.02235174447,-187500.02235174447,-187500.02235174447,-187500.02235174447,1730410040.3600168,1730410040.117522,4000
3032.88585339616,-187500.02235174447,24463.738437144573,-187500.02235174447,-187500.02235174447,-187500.02235174447,-187500.02235174447,-187500.02235174447,1730410040.3641608,1730410040.117522,4000
3081.3220836308105,-187500.02235174447,24508.777202222016,-187500.02235174447,-187500.02235174447,-187500.02235174447,-187500.02235174447,-187500.02235174447,1730410040.3681304,1730410040.117522,4000
3110.4240549116203,-187500.02235174447,24518.58961803789,-187500.02235174447,-187500.02235174447,-187500.02235174447,-187500.02235174447,-187500.02235174447,1730410040.3721828,1730410040.117522,4000
3055.5505222738416,-187500.02235174447,24464.83367262288,-187500.02235174447,-187500.02235174447,-187500.02235174447,-187500.02235174447,-187500.02235174447,1730410040.377122,1730410040.117522,4000
3014.579774687264,-187500.02235174447,24441.565506644907,-187500.02235174447,-187500.02235174447,-187500.02235174447,-187500.02235174447,-187500.02235174447,1730410040.380183,1730410040.117522,4000
3075.46592658352,-187500.02235174447,24495.567321248927,-187500.02235174447,-187500.02235174447,-187500.02235174447,-187500.02235174447,-187500.02235174447,1730410040.3831697,1730410040.117522,4000
3125.9808690525138,-187500.02235174447,24542.23776367161,-187500.02235174447,-187500.02235174447,-187500.02235174447,-187500.02235174447,-187500.02235174447,1730410040.3882596,1730410040.117522,4000
3054.6788042400844,-187500.02235174447,24479.585823963385,-187500.02235174447,-187500.02235174447,-187500.02235174447,-187500.02235174447,-187500.02235174447,1730410040.392132,1730410040.117522,4000
2983.175573727557,-187500.02235174447,24420.800736045927,-187500.02235174447,-187500.02235174447,-187500.02235174447,-187500.02235174447,-187500.02235174447,1730410040.396516,1730410040.117522,4000
3045.156961102124,-187500.02235174447,24487.498341500563,-187500.02235174447,-187500.02235174447,-187500.02235174447,-187500.02235174447,-187500.02235174447,1730410040.4003932,1730410040.117522,4000
3114.492072402486,-187500.02235174447,24550.798481797992,-187500.02235174447,-187500.02235174447,-187500.02235174447,-187500.02235174447,-187500.02235174447,1730410040.4054546,1730410040.117522,4000
3078.192839407068,-187500.02235174447,24502.60812075235,-187500.02235174447,-187500.02235174447,-187500.02235174447,-187500.02235174447,-187500.02235174447,1730410040.4082012,1730410040.117522,4000
3012.478710708465,-187500.02235174447,24453.277820739488,-187500.02235174447,-187500.02235174447,-187500.02235174447,-187500.02235174447,-187500.02235174447,1730410040.411164,1730410040.117522,4000
3038.4067342766207,-187500.02235174447,24482.715068187128,-187500.02235174447,-187500.02235174447,-187500.02235174447,-187500.02235174447,-187500.02235174447,1730410040.4163134,1730410040.117522,4000
3106.4677961430307,-187500.02235174447,24545.255249173075,-187500.02235174447,-187500.02235174447,-187500.02235174447,-187500.02235174447,-187500.02235174447,1730410040.420154,1730410040.117522,4000
3106.914831032137,-187500.02235174447,24533.006493211567,-187500.02235174447,-187500.02235174447,-187500.02235174447,-187500.02235174447,-187500.02235174447,1730410040.4242392,1730410040.117522,4000
3026.381495759665,-187500.02235174447,24455.96003007413,-187500.02235174447,-187500.02235174447,-187500.02235174447,-187500.02235174447,-187500.02235174447,1730410040.428196,1730410040.117522,4000
3024.7498184144283,-187500.02235174447,24471.65095468175,-187500.02235174447,-187500.02235174447,-187500.02235174447,-187500.02235174447,-187500.02235174447,1730410040.4322789,1730410040.117522,4000
3101.058673984847,-187500.02235174447,24540.87430725984,-187500.02235174447,-187500.02235174447,-187500.02235174447,-187500.02235174447,-187500.02235174447,1730410040.4361715,1730410040.117522,4000
3113.732113091006,-187500.02235174447,24537.56624908045,-187500.02235174447,-187500.02235174447,-187500.02235174447,-187500.02235174447,-187500.02235174447,1730410040.4391909,1730410040.117522,4000
3049.694365226551,-187500.02235174447,24466.353591245843,-187500.02235174447,-187500.02235174447,-187500.02235174447,-187500.02235174447,-187500.02235174447,1730410040.4441943,1730410040.117522,4000
3033.221129562989,-187500.02235174447,24452.02612304999,-187500.02235174447,-187500.02235174447,-187500.02235174447,-187500.02235174447,-187500.02235174447,1730410040.4482732,1730410040.117522,4000
3086.530040088897,-187500.02235174447,24506.43026905421,-187500.02235174447,-187500.02235174447,-187500.02235174447,-187500.02235174447,-187500.02235174447,1730410040.4522169,1730410040.117522,4000
3089.3240081458102,-187500.02235174447,24515.81800172544,-187500.02235174447,-187500.02235174447,-187500.02235174447,-187500.02235174447,-187500.02235174447,1730410040.4562008,1730410040.117522,4000
3056.5787025187856,-187500.02235174447,24480.681059441693,-187500.02235174447,-187500.02235174447,-187500.02235174447,-187500.02235174447,-187500.02235174447,1730410040.4601865,1730410040.117522,4000
3032.7070394405177,-187500.02235174447,24461.7267801436,-187500.02235174447,-187500.02235174447,-187500.02235174447,-187500.02235174447,-187500.02235174447,1730410040.4642837,1730410040.117522,4000
3083.557258076341,-187500.02235174447,24519.103708160368,-187500.02235174447,-187500.02235174447,-187500.02235174447,-187500.02235174447,-187500.02235174447,1730410040.4672818,1730410040.117522,4000
3099.605810595252,-187500.02235174447,24526.68094953072,-187500.02235174447,-187500.02235174447,-187500.02235174447,-187500.02235174447,-187500.02235174447,1730410040.4723284,1730410040.117522,4000
3032.88585339616,-187500.02235174447,24449.299210226443,-187500.02235174447,-187500.02235174447,-187500.02235174447,-187500.02235174447,-187500.02235174447,1730410040.4763584,1730410040.117522,4000
2998.464166934987,-187500.02235174447,24426.00869250401,-187500.02235174447,-187500.02235174447,-187500.02235174447,-187500.02235174447,-187500.02235174447,1730410040.4804108,1730410040.117522,4000
3076.024720194903,-187500.02235174447,24521.62945528381,-187500.02235174447,-187500.02235174447,-187500.02235174447,-187500.02235174447,-187500.02235174447,1730410040.4844143,1730410040.117522,4000
3127.47843593102,-187500.02235174447,24561.1473394808,-187500.02235174447,-187500.02235174447,-187500.02235174447,-187500.02235174447,-187500.02235174447,1730410040.489408,1730410040.117522,4000
3078.304598129344,-187500.02235174447,24500.819981195928,-187500.02235174447,-187500.02235174447,-187500.02235174447,-187500.02235174447,-187500.02235174447,1730410040.49307,1730410040.117522,4000
3006.399036216621,-187500.02235174447,24440.492622911053,-187500.02235174447,-187500.02235174447,-187500.02235174447,-187500.02235174447,-187500.02235174447,1730410040.496684,1730410040.117522,4000
3042.273586067389,-187500.02235174447,24481.99981236456,-187500.02235174447,-187500.02235174447,-187500.02235174447,-187500.02235174447,-187500.02235174447,1730410040.4994166,1730410040.117522,4000
3108.9935432664806,-187500.02235174447,24548.652714330285,-187500.02235174447,-187500.02235174447,-187500.02235174447,-187500.02235174447,-187500.02235174447,1730410040.5091512,1730410040.117522,4000
3082.7749470204053,-187500.02235174447,24511.66057725675,-187500.02235174447,-187500.02235174447,-187500.02235174447,-187500.02235174447,-187500.02235174447,1730410040.509177,1730410040.117522,4000
3022.4252369910764,-187500.02235174447,24457.79287311946,-187500.02235174447,-187500.02235174447,-187500.02235174447,-187500.02235174447,-187500.02235174447,1730410040.5161457,1730410040.117522,4000
3031.5447487288416,-187500.02235174447,24480.815169908423,-187500.02235174447,-187500.02235174447,-187500.02235174447,-187500.02235174447,-187500.02235174447,1730410040.5161612,1730410040.117522,4000
3093.213211681034,-187500.02235174447,24537.253324658075,-187500.02235174447,-187500.02235174447,-187500.02235174447,-187500.02235174447,-187500.02235174447,1730410040.519384,1730410040.117522,4000
3094.219040181523,-187500.02235174447,24517.024995926025,-187500.02235174447,-187500.02235174447,-187500.02235174447,-187500.02235174447,-187500.02235174447,1730410040.525045,1730410040.117522,4000
3014.5127194538977,-187500.02235174447,24439.64325662175,-187500.02235174447,-187500.02235174447,-187500.02235174447,-187500.02235174447,-187500.02235174447,1730410040.5273385,1730410040.117522,4000
3020.838263134749,-187500.02235174447,24462.643201666266,-187500.02235174447,-187500.02235174447,-187500.02235174447,-187500.02235174447,-187500.02235174447,1730410040.532323,1730410040.117522,4000
3117.978944537514,-187500.02235174447,24553.25717368808,-187500.02235174447,-187500.02235174447,-187500.02235174447,-187500.02235174447,-187500.02235174447,1730410040.5362873,1730410040.117522,4000
3113.3521334352654,-187500.02235174447,24535.37577812383,-187500.02235174447,-187500.02235174447,-187500.02235174447,-187500.02235174447,-187500.02235174447,1730410040.5405748,1730410040.117522,4000
3038.8984726546378,-187500.02235174447,24469.684001169684,-187500.02235174447,-187500.02235174447,-187500.02235174447,-187500.02235174447,-187500.02235174447,1730410040.543406,1730410040.117522,4000
3024.6827631810625,-187500.02235174447,24469.21461453612,-187500.02235174447,-187500.02235174447,-187500.02235174447,-187500.02235174447,-187500.02235174447,1730410040.5473816,1730410040.117522,4000
3082.842002253771,-187500.02235174447,24524.89280997429,-187500.02235174447,-187500.02235174447,-187500.02235174447,-187500.02235174447,-187500.02235174447,1730410040.55589,1730410040.117522,4000
3101.6174675962293,-187500.02235174447,24527.172687908733,-187500.02235174447,-187500.02235174447,-187500.02235174447,-187500.02235174447,-187500.02235174447,1730410040.5559196,1730410040.117522,4000
3042.8770831676825,-187500.02235174447,24470.578070947897,-187500.02235174447,-187500.02235174447,-187500.02235174447,-187500.02235174447,-187500.02235174447,1730410040.5604205,1730410040.117522,4000
3016.725542154973,-187500.02235174447,24462.017352821516,-187500.02235174447,-187500.02235174447,-187500.02235174447,-187500.02235174447,-187500.02235174447,1730410040.5663016,1730410040.117522,4000
3070.146211403157,-187500.02235174447,24520.020129683035,-187500.02235174447,-187500.02235174447,-187500.02235174447,-187500.02235174447,-187500.02235174447,1730410040.5685804,1730410040.117522,4000
3118.7389038489946,-187500.02235174447,24550.37379865334,-187500.02235174447,-187500.02235174447,-187500.02235174447,-187500.02235174447,-187500.02235174447,1730410040.5751648,1730410040.117522,4000
3075.957664961537,-187500.02235174447,24494.717954959626,-187500.02235174447,-187500.02235174447,-187500.02235174447,-187500.02235174447,-187500.02235174447,1730410040.575352,1730410040.117522,4000
3023.587527702752,-187500.02235174447,24457.25643125253,-187500.02235174447,-187500.02235174447,-187500.02235174447,-187500.02235174447,-187500.02235174447,1730410040.5794885,1730410040.117522,4000
3051.75072571644,-187500.02235174447,24499.210655595143,-187500.02235174447,-187500.02235174447,-187500.02235174447,-187500.02235174447,-187500.02235174447,1730410040.5835428,1730410040.117522,4000
3109.150005477668,-187500.02235174447,24558.37572316834,-187500.02235174447,-187500.02235174447,-187500.02235174447,-187500.02235174447,-187500.02235174447,1730410040.587577,1730410040.117522,4000
3056.4222403075983,-187500.02235174447,24486.537216488985,-187500.02235174447,-187500.02235174447,-187500.02235174447,-187500.02235174447,-187500.02235174447,1730410040.5924845,1730410040.117522,4000
3002.3533704702104,-187500.02235174447,24431.328407684377,-187500.02235174447,-187500.02235174447,-187500.02235174447,-187500.02235174447,-187500.02235174447,1730410040.5976892,1730410040.117522,4000
3046.69923146954,-187500.02235174447,24490.26995781302,-187500.02235174447,-187500.02235174447,-187500.02235174447,-187500.02235174447,-187500.02235174447,1730410040.5994587,1730410040.117522,4000
3105.819595553827,-187500.02235174447,24550.172632953243,-187500.02235174447,-187500.02235174447,-187500.02235174447,-187500.02235174447,-187500.02235174447,1730410040.60342,1730410040.117522,4000
3084.4513278545533,-187500.02235174447,24508.017242910533,-187500.02235174447,-187500.02235174447,-187500.02235174447,-187500.02235174447,-187500.02235174447,1730410040.6074643,1730410040.117522,4000
3023.3863620026546,-187500.02235174447,24454.50716668453,-187500.02235174447,-187500.02235174447,-187500.02235174447,-187500.02235174447,-187500.02235174447,1730410040.6114216,1730410040.117522,4000
3030.3154027837995,-187500.02235174447,24483.2291583096,-187500.02235174447,-187500.02235174447,-187500.02235174447,-187500.02235174447,-187500.02235174447,1730410040.615447,1730410040.117522,4000
3110.75933107845,-187500.02235174447,24549.72559806414,-187500.02235174447,-187500.02235174447,-187500.02235174447,-187500.02235174447,-187500.02235174447,1730410040.6206458,1730410040.117522,4000
3121.465816672542,-187500.02235174447,24540.04729271499,-187500.02235174447,-187500.02235174447,-187500.02235174447,-187500.02235174447,-187500.02235174447,1730410040.6235542,1730410040.117522,4000
3052.443629794553,-187500.02235174447,24476.41187625073,-187500.02235174447,-187500.02235174447,-187500.02235174447,-187500.02235174447,-187500.02235174447,1730410040.6274824,1730410040.117522,4000
3021.665277679596,-187500.02235174447,24462.442035966164,-187500.02235174447,-187500.02235174447,-187500.02235174447,-187500.02235174447,-187500.02235174447,1730410040.6314871,1730410040.117522,4000
3057.226903107989,-187500.02235174447,24516.37679533682,-187500.02235174447,-187500.02235174447,-187500.02235174447,-187500.02235174447,-187500.02235174447,1730410040.635914,1730410040.117522,4000
3104.2326216975,-187500.02235174447,24545.18819393971,-187500.02235174447,-187500.02235174447,-187500.02235174447,-187500.02235174447,-187500.02235174447,1730410040.6394863,1730410040.117522,4000
3056.981033918981,-187500.02235174447,24495.969652649124,-187500.02235174447,-187500.02235174447,-187500.02235174447,-187500.02235174447,-187500.02235174447,1730410040.6437614,1730410040.117522,4000
3018.916013111593,-187500.02235174447,24468.968745347112,-187500.02235174447,-187500.02235174447,-187500.02235174447,-187500.02235174447,-187500.02235174447,1730410040.6502924,1730410040.117522,4000
3068.89451371366,-187500.02235174447,24509.917141189235,-187500.02235174447,-187500.02235174447,-187500.02235174447,-187500.02235174447,-187500.02235174447,1730410040.657067,1730410040.117522,4000
3104.724360075517,-187500.02235174447,24529.161993165257,-187500.02235174447,-187500.02235174447,-187500.02235174447,-187500.02235174447,-187500.02235174447,1730410040.657086,1730410040.117522,4000
3042.340641300755,-187500.02235174447,24459.491605698066,-187500.02235174447,-187500.02235174447,-187500.02235174447,-187500.02235174447,-187500.02235174447,1730410040.6596744,1730410040.117522,4000
3002.375722214666,-187500.02235174447,24433.317712940898,-187500.02235174447,-187500.02235174447,-187500.02235174447,-187500.02235174447,-187500.02235174447,1730410040.6635256,1730410040.117522,4000
3076.5835138062853,-187500.02235174447,24535.75575777957,-187500.02235174447,-187500.02235174447,-187500.02235174447,-187500.02235174447,-187500.02235174447,1730410040.6680367,1730410040.117522,4000
3146.589177440307,-187500.02235174447,24619.44068902024,-187500.02235174447,-187500.02235174447,-187500.02235174447,-187500.02235174447,-187500.02235174447,1730410040.6716228,1730410040.117522,4000
3078.684577785084,-187500.02235174447,24508.86660919984,-187500.02235174447,-187500.02235174447,-187500.02235174447,-187500.02235174447,-187500.02235174447,1730410040.676613,1730410040.117522,4000
3006.421387961077,-187500.02235174447,24433.45182340763,-187500.02235174447,-187500.02235174447,-187500.02235174447,-187500.02235174447,-187500.02235174447,1730410040.6798391,1730410040.117522,4000
3067.0169671794138,-187500.02235174447,24522.523525062028,-187500.02235174447,-187500.02235174447,-187500.02235174447,-187500.02235174447,-187500.02235174447,1730410040.6837013,1730410040.117522,4000
3137.3579069802654,-187500.02235174447,24559.18038596873,-187500.02235174447,-187500.02235174447,-187500.02235174447,-187500.02235174447,-187500.02235174447,1730410040.6877,1730410040.117522,4000
3073.208400393534,-187500.02235174447,24470.10868431433,-187500.02235174447,-187500.02235174447,-187500.02235174447,-187500.02235174447,-187500.02235174447,1730410040.6916344,1730410040.117522,4000
3061.4960862989533,-187500.02235174447,24456.876451596792,-187500.02235174447,-187500.02235174447,-187500.02235174447,-187500.02235174447,-187500.02235174447,1730410040.6957464,1730410040.117522,4000
3095.336627404288,-187500.02235174447,24482.066867597925,-187500.02235174447,-187500.02235174447,-187500.02235174447,-187500.02235174447,-187500.02235174447,1730410040.6997025,1730410040.117522,4000
3099.8293280398048,-187500.02235174447,24518.90254246027,-187500.02235174447,-187500.02235174447,-187500.02235174447,-187500.02235174447,-187500.02235174447,1730410040.7037709,1730410040.117522,4000
3057.9645106750145,-187500.02235174447,24562.46609240366,-187500.02235174447,-187500.02235174447,-187500.02235174447,-187500.02235174447,-187500.02235174447,1730410040.7080743,1730410040.117522,4000
3038.250272065434,-187500.02235174447,24551.13375796482,-187500.02235174447,-187500.02235174447,-187500.02235174447,-187500.02235174447,-187500.02235174447,1730410040.7107005,1730410040.117522,4000
3047.950929159037,-187500.02235174447,24543.19888868319,-187500.02235174447,-187500.02235174447,-187500.02235174447,-187500.02235174447,-187500.02235174447,1730410040.71492,1730410040.117522,4000
3106.959534521048,-187500.02235174447,24581.95681356869,-187500.02235174447,-187500.02235174447,-187500.02235174447,-187500.02235174447,-187500.02235174447,1730410040.7196827,1730410040.117522,4000
3105.7078368315506,-187500.02235174447,24551.066702731456,-187500.02235174447,-187500.02235174447,-187500.02235174447,-187500.02235174447,-187500.02235174447,1730410040.7239487,1730410040.117522,4000
3040.530149999875,-187500.02235174447,24467.64999242425,-187500.02235174447,-187500.02235174447,-187500.02235174447,-187500.02235174447,-187500.02235174447,1730410040.727769,1730410040.117522,4000
3037.624423220685,-187500.02235174447,24470.332201758887,-187500.02235174447,-187500.02235174447,-187500.02235174447,-187500.02235174447,-187500.02235174447,1730410040.731949,1730410040.117522,4000
3092.855583769749,-187500.02235174447,24546.68576081821,-187500.02235174447,-187500.02235174447,-187500.02235174447,-187500.02235174447,-187500.02235174447,1730410040.734961,1730410040.117522,4000
3122.1140172617456,-187500.02235174447,24549.9938189976,-187500.02235174447,-187500.02235174447,-187500.02235174447,-187500.02235174447,-187500.02235174447,1730410040.7389371,1730410040.117522,4000
3062.881894455182,-187500.02235174447,24482.044515853468,-187500.02235174447,-187500.02235174447,-187500.02235174447,-187500.02235174447,-187500.02235174447,1730410040.7427883,1730410040.117522,4000
3005.013228060392,-187500.02235174447,24435.239962964057,-187500.02235174447,-187500.02235174447,-187500.02235174447,-187500.02235174447,-187500.02235174447,1730410040.7478328,1730410040.117522,4000
3050.588435004763,-187500.02235174447,24469.482835469586,-187500.02235174447,-187500.02235174447,-187500.02235174447,-187500.02235174447,-187500.02235174447,1730410040.7518573,1730410040.117522,4000
3126.070276030335,-187500.02235174447,24561.795540070005,-187500.02235174447,-187500.02235174447,-187500.02235174447,-187500.02235174447,-187500.02235174447,1730410040.7558656,1730410040.117522,4000
3090.1510226906566,-187500.02235174447,24542.86361251636,-187500.02235174447,-187500.02235174447,-187500.02235174447,-187500.02235174447,-187500.02235174447,1730410040.7589674,1730410040.117522,4000
3038.0267546208806,-187500.02235174447,24490.672289213217,-187500.02235174447,-187500.02235174447,-187500.02235174447,-187500.02235174447,-187500.02235174447,1730410040.7628312,1730410040.117522,4000
3084.719548788017,-187500.02235174447,24534.52641183453,-187500.02235174447,-187500.02235174447,-187500.02235174447,-187500.02235174447,-187500.02235174447,1730410040.7669237,1730410040.117522,4000
3141.403572726676,-187500.02235174447,24565.707095349684,-187500.02235174447,-187500.02235174447,-187500.02235174447,-187500.02235174447,-187500.02235174447,1730410040.7708838,1730410040.117522,4000
3091.7827000358943,-187500.02235174447,24516.84618197038,-187500.02235174447,-187500.02235174447,-187500.02235174447,-187500.02235174447,-187500.02235174447,1730410040.7759323,1730410040.117522,4000
3013.6410014201406,-187500.02235174447,24431.30605593992,-187500.02235174447,-187500.02235174447,-187500.02235174447,-187500.02235174447,-187500.02235174447,1730410040.7799156,1730410040.117522,4000
3058.500952541942,-187500.02235174447,24478.356478018344,-187500.02235174447,-187500.02235174447,-187500.02235174447,-187500.02235174447,-187500.02235174447,1730410040.7839556,1730410040.117522,4000
3184.743605225516,-187500.02235174447,24574.603089642897,-187500.02235174447,-187500.02235174447,-187500.02235174447,-187500.02235174447,-187500.02235174447,1730410040.7868123,1730410040.117522,4000
3187.738738982527,-187500.02235174447,24526.613894297352,-187500.02235174447,-187500.02235174447,-187500.02235174447,-187500.02235174447,-187500.02235174447,1730410040.7909844,1730410040.117522,4000
3038.7196586989958,-187500.02235174447,24430.009654761518,-187500.02235174447,-187500.02235174447,-187500.02235174447,-187500.02235174447,-187500.02235174447,1730410040.7948089,1730410040.117522,4000
2986.0365970178364,-187500.02235174447,24474.243757038566,-187500.02235174447,-187500.02235174447,-187500.02235174447,-187500.02235174447,-187500.02235174447,1730410040.7989006,1730410040.117522,4000
3117.151929992668,-187500.02235174447,24561.81789181446,-187500.02235174447,-187500.02235174447,-187500.02235174447,-187500.02235174447,-187500.02235174447,1730410040.8038511,1730410040.117522,4000
3117.5766131373184,-187500.02235174447,24484.45850425464,-187500.02235174447,-187500.02235174447,-187500.02235174447,-187500.02235174447,-187500.02235174447,1730410040.8080125,1730410040.117522,4000
3044.2852430683665,-187500.02235174447,24407.16617192819,-187500.02235174447,-187500.02235174447,-187500.02235174447,-187500.02235174447,-187500.02235174447,1730410040.8118317,1730410040.117522,4000
3112.167490979134,-187500.02235174447,24447.73458811457,-187500.02235174447,-187500.02235174447,-187500.02235174447,-187500.02235174447,-187500.02235174447,1730410040.815003,1730410040.117522,4000
3173.6124364867733,-187500.02235174447,24533.69939728968,-187500.02235174447,-187500.02235174447,-187500.02235174447,-187500.02235174447,-187500.02235174447,1730410040.818918,1730410040.117522,4000
3045.2687198244003,-187500.02235174447,24555.76056906707,-187500.02235174447,-187500.02235174447,-187500.02235174447,-187500.02235174447,-187500.02235174447,1730410040.8230424,1730410040.117522,4000
3104.4561391420534,-187500.02235174447,24524.624589040828,-187500.02235174447,-187500.02235174447,-187500.02235174447,-187500.02235174447,-187500.02235174447,1730410040.8271067,1730410040.117522,4000
3056.6234060076963,-187500.02235174447,24504.217446353134,-187500.02235174447,-187500.02235174447,-187500.02235174447,-187500.02235174447,-187500.02235174447,1730410040.832064,1730410040.117522,4000
3130.451217943576,-187500.02235174447,24517.203809881667,-187500.02235174447,-187500.02235174447,-187500.02235174447,-187500.02235174447,-187500.02235174447,1730410040.8359556,1730410040.117522,4000
3218.4947393530297,-187500.02235174447,24525.85393498587,-187500.02235174447,-187500.02235174447,-187500.02235174447,-187500.02235174447,-187500.02235174447,1730410040.8399708,1730410040.117522,4000
3118.850662571271,-187500.02235174447,24462.03970456597,-187500.02235174447,-187500.02235174447,-187500.02235174447,-187500.02235174447,-187500.02235174447,1730410040.8430593,1730410040.117522,4000
2943.411820341566,-187500.02235174447,24473.014411093525,-187500.02235174447,-187500.02235174447,-187500.02235174447,-187500.02235174447,-187500.02235174447,1730410040.8469217,1730410040.117522,4000
2978.7722800698616,-187500.02235174447,24435.955218786625,-187500.02235174447,-187500.02235174447,-187500.02235174447,-187500.02235174447,-187500.02235174447,1730410040.8510664,1730410040.117522,4000
3100.9022117736595,-187500.02235174447,24604.688537679736,-187500.02235174447,-187500.02235174447,-187500.02235174447,-187500.02235174447,-187500.02235174447,1730410040.8550909,1730410040.117522,4000
3111.161662478645,-187500.02235174447,24698.54351264757,-187500.02235174447,-187500.02235174447,-187500.02235174447,-187500.02235174447,-187500.02235174447,1730410040.8600893,1730410040.117522,4000
3096.431862882598,-187500.02235174447,24619.46304076469,-187500.02235174447,-187500.02235174447,-187500.02235174447,-187500.02235174447,-187500.02235174447,1730410040.8640883,1730410040.117522,4000
3119.7894358383937,-187500.02235174447,24665.127654686887,-187500.02235174447,-187500.02235174447,-187500.02235174447,-187500.02235174447,-187500.02235174447,1730410040.867034,1730410040.117522,4000
3157.273311289944,-187500.02235174447,24689.625166609905,-187500.02235174447,-187500.02235174447,-187500.02235174447,-187500.02235174447,-187500.02235174447,1730410040.871167,1730410040.117522,4000
3105.819595553827,-187500.02235174447,24580.39219145682,-187500.02235174447,-187500.02235174447,-187500.02235174447,-187500.02235174447,-187500.02235174447,1730410040.8750348,1730410040.117522,4000
3081.724415031006,-187500.02235174447,24454.306000984438,-187500.02235174447,-187500.02235174447,-187500.02235174447,-187500.02235174447,-187500.02235174447,1730410040.879032,1730410040.117522,4000
3071.6214265372078,-187500.02235174447,24493.06392586993,-187500.02235174447,-187500.02235174447,-187500.02235174447,-187500.02235174447,-187500.02235174447,1730410040.8830984,1730410040.117522,4000
3152.9594246100696,-187500.02235174447,24566.645868616804,-187500.02235174447,-187500.02235174447,-187500.02235174447,-187500.02235174447,-187500.02235174447,1730410040.887077,1730410040.117522,4000
3164.0682416043574,-187500.02235174447,24535.15226067928,-187500.02235174447,-187500.02235174447,-187500.02235174447,-187500.02235174447,-187500.02235174447,1730410040.8921156,1730410040.117522,4000
3032.88585339616,-187500.02235174447,24457.614059163818,-187500.02235174447,-187500.02235174447,-187500.02235174447,-187500.02235174447,-187500.02235174447,1730410040.8949096,1730410040.117522,4000
3027.566138215797,-187500.02235174447,24473.99788784956,-187500.02235174447,-187500.02235174447,-187500.02235174447,-187500.02235174447,-187500.02235174447,1730410040.899104,1730410040.117522,4000
3164.649386960195,-187500.02235174447,24594.92082535277,-187500.02235174447,-187500.02235174447,-187500.02235174447,-187500.02235174447,-187500.02235174447,1730410040.9029412,1730410040.117522,4000
3175.355872554287,-187500.02235174447,24621.854677421416,-187500.02235174447,-187500.02235174447,-187500.02235174447,-187500.02235174447,-187500.02235174447,1730410040.9070492,1730410040.117522,4000
3077.388176606677,-187500.02235174447,24514.879228458318,-187500.02235174447,-187500.02235174447,-187500.02235174447,-187500.02235174447,-187500.02235174447,1730410040.9109428,1730410040.117522,4000
3058.9256356865926,-187500.02235174447,24480.636355952785,-187500.02235174447,-187500.02235174447,-187500.02235174447,-187500.02235174447,-187500.02235174447,1730410040.915052,1730410040.117522,4000
3126.80788359736,-187500.02235174447,24549.90441201978,-187500.02235174447,-187500.02235174447,-187500.02235174447,-187500.02235174447,-187500.02235174447,1730410040.919947,1730410040.117522,4000
3138.0061075694693,-187500.02235174447,24559.783883069027,-187500.02235174447,-187500.02235174447,-187500.02235174447,-187500.02235174447,-187500.02235174447,1730410040.9231217,1730410040.117522,4000
3063.887722955671,-187500.02235174447,24490.00173687956,-187500.02235174447,-187500.02235174447,-187500.02235174447,-187500.02235174447,-187500.02235174447,1730410040.927209,1730410040.117522,4000
3104.299676930866,-187500.02235174447,24464.051361566944,-187500.02235174447,-187500.02235174447,-187500.02235174447,-187500.02235174447,-187500.02235174447,1730410040.9312427,1730410040.117522,4000
3190.175079128156,-187500.02235174447,24629.65543623632,-187500.02235174447,-187500.02235174447,-187500.02235174447,-187500.02235174447,-187500.02235174447,1730410040.9350402,1730410040.117522,4000
3147.617357685251,-187500.02235174447,24681.24326243917,-187500.02235174447,-187500.02235174447,-187500.02235174447,-187500.02235174447,-187500.02235174447,1730410040.9391732,1730410040.117522,4000
3012.16578628609,-187500.02235174447,24499.925911417715,-187500.02235174447,-187500.02235174447,-187500.02235174447,-187500.02235174447,-187500.02235174447,1730410040.9431343,1730410040.117522,4000
3020.592393945741,-187500.02235174447,24447.287553225466,-187500.02235174447,-187500.02235174447,-187500.02235174447,-187500.02235174447,-187500.02235174447,1730410040.948176,1730410040.117522,4000
3115.721418347528,-187500.02235174447,24620.357110542907,-187500.02235174447,-187500.02235174447,-187500.02235174447,-187500.02235174447,-187500.02235174447,1730410040.9511297,1730410040.117522,4000
3173.970064398058,-187500.02235174447,24651.537794058066,-187500.02235174447,-187500.02235174447,-187500.02235174447,-187500.02235174447,-187500.02235174447,1730410040.9551027,1730410040.117522,4000
3085.2783423994,-187500.02235174447,24542.95301949418,-187500.02235174447,-187500.02235174447,-187500.02235174447,-187500.02235174447,-187500.02235174447,1730410040.9590847,1730410040.117522,4000
3004.700303638018,-187500.02235174447,24457.1223207858,-187500.02235174447,-187500.02235174447,-187500.02235174447,-187500.02235174447,-187500.02235174447,1730410040.963124,1730410040.117522,4000
3139.4813227035197,-187500.02235174447,24502.630472496807,-187500.02235174447,-187500.02235174447,-187500.02235174447,-187500.02235174447,-187500.02235174447,1730410040.9671257,1730410040.117522,4000
3115.1849764806007,-187500.02235174447,24651.470738824697,-187500.02235174447,-187500.02235174447,-187500.02235174447,-187500.02235174447,-187500.02235174447,1730410040.971075,1730410040.117522,4000
3084.764252276928,-187500.02235174447,24640.20545961922,-187500.02235174447,-187500.02235174447,-187500.02235174447,-187500.02235174447,-187500.02235174447,1730410040.9751103,1730410040.117522,4000
3036.082152853269,-187500.02235174447,24522.635283784304,-187500.02235174447,-187500.02235174447,-187500.02235174447,-187500.02235174447,-187500.02235174447,1730410040.9780931,1730410040.117522,4000
3056.2210746075007,-187500.02235174447,24493.1309811033,-187500.02235174447,-187500.02235174447,-187500.02235174447,-187500.02235174447,-187500.02235174447,1730410040.9821353,1730410040.117522,4000
3149.584311197318,-187500.02235174447,24570.177444240744,-187500.02235174447,-187500.02235174447,-187500.02235174447,-187500.02235174447,-187500.02235174447,1730410040.9871476,1730410040.117522,4000
3196.210050131089,-187500.02235174447,24616.378500029863,-187500.02235174447,-187500.02235174447,-187500.02235174447,-187500.02235174447,-187500.02235174447,1730410040.9912536,1730410040.117522,4000
3061.2055136210342,-187500.02235174447,24550.440853886703,-187500.02235174447,-187500.02235174447,-187500.02235174447,-187500.02235174447,-187500.02235174447,1730410040.9951963,1730410040.117522,4000
3083.154926676146,-187500.02235174447,24546.1940224402,-187500.02235174447,-187500.02235174447,-187500.02235174447,-187500.02235174447,-187500.02235174447,1730410040.9992733,1730410040.117522,4000
3177.00990164398,-187500.02235174447,24601.53694171154,-187500.02235174447,-187500.02235174447,-187500.02235174447,-187500.02235174447,-187500.02235174447,1730410041.00311,1730410040.117522,4000
3103.450310641565,-187500.02235174447,24605.135572568845,-187500.02235174447,-187500.02235174447,-187500.02235174447,-187500.02235174447,-187500.02235174447,1730410041.0061295,1730410040.117522,4000
3077.65639754014,-187500.02235174447,24629.56602925849,-187500.02235174447,-187500.02235174447,-187500.02235174447,-187500.02235174447,-187500.02235174447,1730410041.0103705,1730410040.117522,4000
3025.196853303534,-187500.02235174447,24563.51662439306,-187500.02235174447,-187500.02235174447,-187500.02235174447,-187500.02235174447,-187500.02235174447,1730410041.0151477,1730410040.117522,4000
3088.5416970898746,-187500.02235174447,24569.506891907084,-187500.02235174447,-187500.02235174447,-187500.02235174447,-187500.02235174447,-187500.02235174447,1730410041.0191703,1730410040.117522,4000
3167.868038161759,-187500.02235174447,24650.44255857975,-187500.02235174447,-187500.02235174447,-187500.02235174447,-187500.02235174447,-187500.02235174447,1730410041.0232432,1730410040.117522,4000
3098.8682030282266,-187500.02235174447,24556.14054872281,-187500.02235174447,-187500.02235174447,-187500.02235174447,-187500.02235174447,-187500.02235174447,1730410041.0272589,1730410040.117522,4000
3053.3153478283107,-187500.02235174447,24479.16114081873,-187500.02235174447,-187500.02235174447,-187500.02235174447,-187500.02235174447,-187500.02235174447,1730410041.0301845,1730410040.117522,4000
3114.6708863581284,-187500.02235174447,24535.80046126848,-187500.02235174447,-187500.02235174447,-187500.02235174447,-187500.02235174447,-187500.02235174447,1730410041.0343485,1730410040.117522,4000
3220.0146579759908,-187500.02235174447,24612.19872381672,-187500.02235174447,-187500.02235174447,-187500.02235174447,-187500.02235174447,-187500.02235174447,1730410041.0384572,1730410040.117522,4000
3098.3541129057544,-187500.02235174447,24542.70715030517,-187500.02235174447,-187500.02235174447,-187500.02235174447,-187500.02235174447,-187500.02235174447,1730410041.0433972,1730410040.117522,4000
3019.6759724230737,-187500.02235174447,24525.608065796863,-187500.02235174447,-187500.02235174447,-187500.02235174447,-187500.02235174447,-187500.02235174447,1730410041.0472307,1730410040.117522,4000
3137.939052336103,-187500.02235174447,24549.971467253148,-187500.02235174447,-187500.02235174447,-187500.02235174447,-187500.02235174447,-187500.02235174447,1730410041.051293,1730410040.117522,4000
3144.331651250321,-187500.02235174447,24564.611859871373,-187500.02235174447,-187500.02235174447,-187500.02235174447,-187500.02235174447,-187500.02235174447,1730410041.055262,1730410040.117522,4000
3046.69923146954,-187500.02235174447,24529.251400143075,-187500.02235174447,-187500.02235174447,-187500.02235174447,-187500.02235174447,-187500.02235174447,1730410041.0583146,1730410040.117522,4000
3033.8246266632827,-187500.02235174447,24544.80821428397,-187500.02235174447,-187500.02235174447,-187500.02235174447,-187500.02235174447,-187500.02235174447,1730410041.0623004,1730410040.117522,4000
3043.07824886778,-187500.02235174447,24512.018205168035,-187500.02235174447,-187500.02235174447,-187500.02235174447,-187500.02235174447,-187500.02235174447,1730410041.0662603,1730410040.117522,4000
3049.1355716151684,-187500.02235174447,24515.080394158413,-187500.02235174447,-187500.02235174447,-187500.02235174447,-187500.02235174447,-187500.02235174447,1730410041.0703013,1730410040.117522,4000
3121.622278883729,-187500.02235174447,24523.574057051428,-187500.02235174447,-187500.02235174447,-187500.02235174447,-187500.02235174447,-187500.02235174447,1730410041.0753837,1730410040.117522,4000
3092.050920969358,-187500.02235174447,24501.84816144087,-187500.02235174447,-187500.02235174447,-187500.02235174447,-187500.02235174447,-187500.02235174447,1730410041.0794137,1730410040.117522,4000
3020.2571177789114,-187500.02235174447,24541.18723168221,-187500.02235174447,-187500.02235174447,-187500.02235174447,-187500.02235174447,-187500.02235174447,1730410041.0824132,1730410040.117522,4000
3125.198557996578,-187500.02235174447,24646.59805853344,-187500.02235174447,-187500.02235174447,-187500.02235174447,-187500.02235174447,-187500.02235174447,1730410041.0862432,1730410040.117522,4000
3128.2607469869554,-187500.02235174447,24606.543732469527,-187500.02235174447,-187500.02235174447,-187500.02235174447,-187500.02235174447,-187500.02235174447,1730410041.0903237,1730410040.117522,4000
3147.4832472185194,-187500.02235174447,24556.00643825608,-187500.02235174447,-187500.02235174447,-187500.02235174447,-187500.02235174447,-187500.02235174447,1730410041.0942752,1730410040.117522,4000
3116.973116037025,-187500.02235174447,24527.038577442003,-187500.02235174447,-187500.02235174447,-187500.02235174447,-187500.02235174447,-187500.02235174447,1730410041.0983396,1730410040.117522,4000
3107.5183281324303,-187500.02235174447,24636.29390433954,-187500.02235174447,-187500.02235174447,-187500.02235174447,-187500.02235174447,-187500.02235174447,1730410041.1032543,1730410040.117522,4000
3094.8001855373604,-187500.02235174447,24639.02081716309,-187500.02235174447,-187500.02235174447,-187500.02235174447,-187500.02235174447,-187500.02235174447,1730410041.1073897,1730410040.117522,4000
3047.660356481118,-187500.02235174447,24529.18434490971,-187500.02235174447,-187500.02235174447,-187500.02235174447,-187500.02235174447,-187500.02235174447,1730410041.1103847,1730410040.117522,4000
3024.7051149255176,-187500.02235174447,24517.203809881667,-187500.02235174447,-187500.02235174447,-187500.02235174447,-187500.02235174447,-187500.02235174447,1730410041.1144276,1730410040.117522,4000
3120.1917672385894,-187500.02235174447,24580.839226345925,-187500.02235174447,-187500.02235174447,-187500.02235174447,-187500.02235174447,-187500.02235174447,1730410041.1183927,1730410040.117522,4000
3162.749488681494,-187500.02235174447,24588.57292992746,-187500.02235174447,-187500.02235174447,-187500.02235174447,-187500.02235174447,-187500.02235174447,1730410041.1224017,1730410040.117522,4000
3031.365934773199,-187500.02235174447,24541.678970060228,-187500.02235174447,-187500.02235174447,-187500.02235174447,-187500.02235174447,-187500.02235174447,1730410041.126335,1730410040.117522,4000
3013.5739461867747,-187500.02235174447,24515.4380220697,-187500.02235174447,-187500.02235174447,-187500.02235174447,-187500.02235174447,-187500.02235174447,1730410041.1314611,1730410040.117522,4000
3065.631159023185,-187500.02235174447,24563.96365928217,-187500.02235174447,-187500.02235174447,-187500.02235174447,-187500.02235174447,-187500.02235174447,1730410041.1353352,1730410040.117522,4000
3141.403572726676,-187500.02235174447,24582.023868802054,-187500.02235174447,-187500.02235174447,-187500.02235174447,-187500.02235174447,-187500.02235174447,1730410041.138425,1730410040.117522,4000
3117.017819525936,-187500.02235174447,24565.39417092731,-187500.02235174447,-187500.02235174447,-187500.02235174447,-187500.02235174447,-187500.02235174447,1730410041.142504,1730410040.117522,4000
3010.4223502185764,-187500.02235174447,24452.40610270573,-187500.02235174447,-187500.02235174447,-187500.02235174447,-187500.02235174447,-187500.02235174447,1730410041.1464648,1730410040.117522,4000
3114.5814793803074,-187500.02235174447,24527.4409088422,-187500.02235174447,-187500.02235174447,-187500.02235174447,-187500.02235174447,-187500.02235174447,1730410041.1507373,1730410040.117522,4000
3102.2433164409777,-187500.02235174447,24581.845054846413,-187500.02235174447,-187500.02235174447,-187500.02235174447,-187500.02235174447,-187500.02235174447,1730410041.1545255,1730410040.117522,4000
3045.8275134357827,-187500.02235174447,24549.72559806414,-187500.02235174447,-187500.02235174447,-187500.02235174447,-187500.02235174447,-187500.02235174447,1730410041.1585596,1730410040.117522,4000
2990.752815097906,-187500.02235174447,24484.950242632654,-187500.02235174447,-187500.02235174447,-187500.02235174447,-187500.02235174447,-187500.02235174447,1730410041.1635945,1730410040.117522,4000
3054.0306036508805,-187500.02235174447,24523.685815773704,-187500.02235174447,-187500.02235174447,-187500.02235174447,-187500.02235174447,-187500.02235174447,1730410041.166593,1730410040.117522,4000
3161.72130843655,-187500.02235174447,24599.10060156591,-187500.02235174447,-187500.02235174447,-187500.02235174447,-187500.02235174447,-187500.02235174447,1730410041.170503,1730410040.117522,4000
3127.433732442109,-187500.02235174447,24575.586566398928,-187500.02235174447,-187500.02235174447,-187500.02235174447,-187500.02235174447,-187500.02235174447,1730410041.1745868,1730410040.117522,4000
3011.294068252333,-187500.02235174447,24510.05125165597,-187500.02235174447,-187500.02235174447,-187500.02235174447,-187500.02235174447,-187500.02235174447,1730410041.1784687,1730410040.117522,4000
3026.001516103925,-187500.02235174447,24519.28252211601,-187500.02235174447,-187500.02235174447,-187500.02235174447,-187500.02235174447,-187500.02235174447,1730410041.1825871,1730410040.117522,4000
3112.167490979134,-187500.02235174447,24575.43010418774,-187500.02235174447,-187500.02235174447,-187500.02235174447,-187500.02235174447,-187500.02235174447,1730410041.1865337,1730410040.117522,4000
3114.9391072915923,-187500.02235174447,24556.252307445087,-187500.02235174447,-187500.02235174447,-187500.02235174447,-187500.02235174447,-187500.02235174447,1730410041.1916473,1730410040.117522,4000
3015.07151306528,-187500.02235174447,24485.956071133147,-187500.02235174447,-187500.02235174447,-187500.02235174447,-187500.02235174447,-187500.02235174447,1730410041.1944969,1730410040.117522,4000
3025.509777725909,-187500.02235174447,24509.93949293369,-187500.02235174447,-187500.02235174447,-187500.02235174447,-187500.02235174447,-187500.02235174447,1730410041.1986425,1730410040.117522,4000
3105.66313334264,-187500.02235174447,24575.899490821303,-187500.02235174447,-187500.02235174447,-187500.02235174447,-187500.02235174447,-187500.02235174447,1730410041.2026343,1730410040.117522,4000
3107.652438599162,-187500.02235174447,24594.49614220812,-187500.02235174447,-187500.02235174447,-187500.02235174447,-187500.02235174447,-187500.02235174447,1730410041.206694,1730410040.117522,4000
3056.109315885224,-187500.02235174447,24524.021091940536,-187500.02235174447,-187500.02235174447,-187500.02235174447,-187500.02235174447,-187500.02235174447,1730410041.2105844,1730410040.117522,4000
3027.4543794935203,-187500.02235174447,24515.147449391778,-187500.02235174447,-187500.02235174447,-187500.02235174447,-187500.02235174447,-187500.02235174447,1730410041.2155166,1730410040.117522,4000
3111.6981043455726,-187500.02235174447,24587.43299096024,-187500.02235174447,-187500.02235174447,-187500.02235174447,-187500.02235174447,-187500.02235174447,1730410041.2186744,1730410040.117522,4000
3154.792267655405,-187500.02235174447,24584.639022903328,-187500.02235174447,-187500.02235174447,-187500.02235174447,-187500.02235174447,-187500.02235174447,1730410041.2216763,1730410040.117522,4000
3077.812859751328,-187500.02235174447,24554.821795799948,-187500.02235174447,-187500.02235174447,-187500.02235174447,-187500.02235174447,-187500.02235174447,1730410041.226683,1730410040.117522,4000
3007.091940294736,-187500.02235174447,24504.619777753327,-187500.02235174447,-187500.02235174447,-187500.02235174447,-187500.02235174447,-187500.02235174447,1730410041.2306876,1730410040.117522,4000
3024.280431780867,-187500.02235174447,24523.35053960688,-187500.02235174447,-187500.02235174447,-187500.02235174447,-187500.02235174447,-187500.02235174447,1730410041.2347193,1730410040.117522,4000
3099.47170012852,-187500.02235174447,24609.069479592978,-187500.02235174447,-187500.02235174447,-187500.02235174447,-187500.02235174447,-187500.02235174447,1730410041.2387257,1730410040.117522,4000
3097.728264061006,-187500.02235174447,24575.20658674319,-187500.02235174447,-187500.02235174447,-187500.02235174447,-187500.02235174447,-187500.02235174447,1730410041.2436917,1730410040.117522,4000
3023.207548047012,-187500.02235174447,24497.578978249905,-187500.02235174447,-187500.02235174447,-187500.02235174447,-187500.02235174447,-187500.02235174447,1730410041.24668,1730410040.117522,4000
3034.629289463674,-187500.02235174447,24547.356313151875,-187500.02235174447,-187500.02235174447,-187500.02235174447,-187500.02235174447,-187500.02235174447,1730410041.249611,1730410040.117522,4000
3099.6281623397067,-187500.02235174447,24583.096752535912,-187500.02235174447,-187500.02235174447,-187500.02235174447,-187500.02235174447,-187500.02235174447,1730410041.254676,1730410040.117522,4000
3081.590304564274,-187500.02235174447,24527.75383326457,-187500.02235174447,-187500.02235174447,-187500.02235174447,-187500.02235174447,-187500.02235174447,1730410041.2586908,1730410040.117522,4000
3032.2823562958665,-187500.02235174447,24474.623736694302,-187500.02235174447,-187500.02235174447,-187500.02235174447,-187500.02235174447,-187500.02235174447,1730410041.2626708,1730410040.117522,4000
3017.5525566998194,-187500.02235174447,24554.464167888666,-187500.02235174447,-187500.02235174447,-187500.02235174447,-187500.02235174447,-187500.02235174447,1730410041.2666917,1730410040.117522,4000
3076.628217295196,-187500.02235174447,24595.479618964157,-187500.02235174447,-187500.02235174447,-187500.02235174447,-187500.02235174447,-187500.02235174447,1730410041.270697,1730410040.117522,4000
3080.89740048616,-187500.02235174447,24567.22701397264,-187500.02235174447,-187500.02235174447,-187500.02235174447,-187500.02235174447,-187500.02235174447,1730410041.274699,1730410040.117522,4000
3011.5175856968863,-187500.02235174447,24505.17857136471,-187500.02235174447,-187500.02235174447,-187500.02235174447,-187500.02235174447,-187500.02235174447,1730410041.2775843,1730410040.117522,4000
2993.9044110661043,-187500.02235174447,24534.50406009008,-187500.02235174447,-187500.02235174447,-187500.02235174447,-187500.02235174447,-187500.02235174447,1730410041.2817864,1730410040.117522,4000
3101.729226318506,-187500.02235174447,24617.518438997085,-187500.02235174447,-187500.02235174447,-187500.02235174447,-187500.02235174447,-187500.02235174447,1730410041.286667,1730410040.117522,4000
3097.616505338729,-187500.02235174447,24569.328077951443,-187500.02235174447,-187500.02235174447,-187500.02235174447,-187500.02235174447,-187500.02235174447,1730410041.290876,1730410040.117522,4000
3018.7371991559507,-187500.02235174447,24502.29519632997,-187500.02235174447,-187500.02235174447,-187500.02235174447,-187500.02235174447,-187500.02235174447,1730410041.2946827,1730410040.117522,4000
3007.248402505923,-187500.02235174447,24518.27669361552,-187500.02235174447,-187500.02235174447,-187500.02235174447,-187500.02235174447,-187500.02235174447,1730410041.2988763,1730410040.117522,4000
3087.2676476559222,-187500.02235174447,24609.315348781987,-187500.02235174447,-187500.02235174447,-187500.02235174447,-187500.02235174447,-187500.02235174447,1730410041.302781,1730410040.117522,4000
3126.9643458085475,-187500.02235174447,24595.658432919798,-187500.02235174447,-187500.02235174447,-187500.02235174447,-187500.02235174447,-187500.02235174447,1730410041.3060353,1730410040.117522,4000
3034.6739929525847,-187500.02235174447,24535.308722890462,-187500.02235174447,-187500.02235174447,-187500.02235174447,-187500.02235174447,-187500.02235174447,1730410041.3098729,1730410040.117522,4000
2944.462352330965,-187500.02235174447,24474.444922738665,-187500.02235174447,-187500.02235174447,-187500.02235174447,-187500.02235174447,-187500.02235174447,1730410041.314873,1730410040.117522,4000
3061.98782467697,-187500.02235174447,24552.18428995422,-187500.02235174447,-187500.02235174447,-187500.02235174447,-187500.02235174447,-187500.02235174447,1730410041.3187048,1730410040.117522,4000
3090.1957261795674,-187500.02235174447,24591.411601473286,-187500.02235174447,-187500.02235174447,-187500.02235174447,-187500.02235174447,-187500.02235174447,1730410041.3228896,1730410040.117522,4000
3032.952908629526,-187500.02235174447,24577.62057514436,-187500.02235174447,-187500.02235174447,-187500.02235174447,-187500.02235174447,-187500.02235174447,1730410041.3260272,1730410040.117522,4000
3002.085149536747,-187500.02235174447,24557.90633653478,-187500.02235174447,-187500.02235174447,-187500.02235174447,-187500.02235174447,-187500.02235174447,1730410041.329928,1730410040.117522,4000
3076.851734739749,-187500.02235174447,24612.936331383746,-187500.02235174447,-187500.02235174447,-187500.02235174447,-187500.02235174447,-187500.02235174447,1730410041.3338437,1730410040.117522,4000
3137.4473139580864,-187500.02235174447,24670.112093700423,-187500.02235174447,-187500.02235174447,-187500.02235174447,-187500.02235174447,-187500.02235174447,1730410041.3378131,1730410040.117522,4000
3096.94595300507,-187500.02235174447,24609.136534826343,-187500.02235174447,-187500.02235174447,-187500.02235174447,-187500.02235174447,-187500.02235174447,1730410041.342875,1730410040.117522,4000
3026.649716693129,-187500.02235174447,24516.019167425537,-187500.02235174447,-187500.02235174447,-187500.02235174447,-187500.02235174447,-187500.02235174447,1730410041.346806,1730410040.117522,4000
3047.9062256701263,-187500.02235174447,24562.24257495911,-187500.02235174447,-187500.02235174447,-187500.02235174447,-187500.02235174447,-187500.02235174447,1730410041.3509274,1730410040.117522,4000
3093.5484878478637,-187500.02235174447,24642.75355848713,-187500.02235174447,-187500.02235174447,-187500.02235174447,-187500.02235174447,-187500.02235174447,1730410041.353753,1730410040.117522,4000
3089.4804703569976,-187500.02235174447,24604.554427213006,-187500.02235174447,-187500.02235174447,-187500.02235174447,-187500.02235174447,-187500.02235174447,1730410041.3578725,1730410040.117522,4000
3000.0287890468585,-187500.02235174447,24542.32717064943,-187500.02235174447,-187500.02235174447,-187500.02235174447,-187500.02235174447,-187500.02235174447,1730410041.361796,1730410040.117522,4000
3011.472882207976,-187500.02235174447,24567.986973284125,-187500.02235174447,-187500.02235174447,-187500.02235174447,-187500.02235174447,-187500.02235174447,1730410041.3658276,1730410040.117522,4000
3078.192839407068,-187500.02235174447,24618.948950642225,-187500.02235174447,-187500.02235174447,-187500.02235174447,-187500.02235174447,-187500.02235174447,1730410041.370901,1730410040.117522,4000
3099.3152379173325,-187500.02235174447,24644.184070132265,-187500.02235174447,-187500.02235174447,-187500.02235174447,-187500.02235174447,-187500.02235174447,1730410041.3747663,1730410040.117522,4000
3045.0004988909363,-187500.02235174447,24560.96852552516,-187500.02235174447,-187500.02235174447,-187500.02235174447,-187500.02235174447,-187500.02235174447,1730410041.3787675,1730410040.117522,4000
3013.015152575392,-187500.02235174447,24569.126912251344,-187500.02235174447,-187500.02235174447,-187500.02235174447,-187500.02235174447,-187500.02235174447,1730410041.3817835,1730410040.117522,4000
3025.3756672591767,-187500.02235174447,24630.61656124789,-187500.02235174447,-187500.02235174447,-187500.02235174447,-187500.02235174447,-187500.02235174447,1730410041.385877,1730410040.117522,4000
3070.816763736816,-187500.02235174447,24617.96547388619,-187500.02235174447,-187500.02235174447,-187500.02235174447,-187500.02235174447,-187500.02235174447,1730410041.3899567,1730410040.117522,4000
3003.314495481789,-187500.02235174447,24541.72367354914,-187500.02235174447,-187500.02235174447,-187500.02235174447,-187500.02235174447,-187500.02235174447,1730410041.3938336,1730410040.117522,4000
3002.822757103772,-187500.02235174447,24547.37866489633,-187500.02235174447,-187500.02235174447,-187500.02235174447,-187500.02235174447,-187500.02235174447,1730410041.399,1730410040.117522,4000
3084.3842726211874,-187500.02235174447,24641.144232886345,-187500.02235174447,-187500.02235174447,-187500.02235174447,-187500.02235174447,-187500.02235174447,1730410041.4028068,1730410040.117522,4000
3097.9741332500143,-187500.02235174447,24647.000389933637,-187500.02235174447,-187500.02235174447,-187500.02235174447,-187500.02235174447,-187500.02235174447,1730410041.4069068,1730410040.117522,4000
3017.2843357663555,-187500.02235174447,24573.418447186763,-187500.02235174447,-187500.02235174447,-187500.02235174447,-187500.02235174447,-187500.02235174447,1730410041.410026,1730410040.117522,4000
2984.0919952502245,-187500.02235174447,24550.083225975424,-187500.02235174447,-187500.02235174447,-187500.02235174447,-187500.02235174447,-187500.02235174447,1730410041.4139893,1730410040.117522,4000
3057.115144385713,-187500.02235174447,24627.800241446526,-187500.02235174447,-187500.02235174447,-187500.02235174447,-187500.02235174447,-187500.02235174447,1730410041.4179933,1730410040.117522,4000
3111.429883412109,-187500.02235174447,24675.521215858607,-187500.02235174447,-187500.02235174447,-187500.02235174447,-187500.02235174447,-187500.02235174447,1730410041.4219933,1730410040.117522,4000
3069.9673974475145,-187500.02235174447,24606.05199409151,-187500.02235174447,-187500.02235174447,-187500.02235174447,-187500.02235174447,-187500.02235174447,1730410041.4260702,1730410040.117522,4000
2984.270809205867,-187500.02235174447,24568.52341515105,-187500.02235174447,-187500.02235174447,-187500.02235174447,-187500.02235174447,-187500.02235174447,1730410041.4310503,1730410040.117522,4000
3025.509777725909,-187500.02235174447,24600.3075957665,-187500.02235174447,-187500.02235174447,-187500.02235174447,-187500.02235174447,-187500.02235174447,1730410041.4340415,1730410040.117522,4000
3104.053807741858,-187500.02235174447,24668.413361121817,-187500.02235174447,-187500.02235174447,-187500.02235174447,-187500.02235174447,-187500.02235174447,1730410041.4380305,1730410040.117522,4000
3068.5145340579197,-187500.02235174447,24644.519346299094,-187500.02235174447,-187500.02235174447,-187500.02235174447,-187500.02235174447,-187500.02235174447,1730410041.4420247,1730410040.117522,4000
2994.887887822138,-187500.02235174447,24569.082208762436,-187500.02235174447,-187500.02235174447,-187500.02235174447,-187500.02235174447,-187500.02235174447,1730410041.445974,1730410040.117522,4000
3030.5389202283527,-187500.02235174447,24598.63121493235,-187500.02235174447,-187500.02235174447,-187500.02235174447,-187500.02235174447,-187500.02235174447,1730410041.4501011,1730410040.117522,4000
3119.4541596715644,-187500.02235174447,24674.49303561366,-187500.02235174447,-187500.02235174447,-187500.02235174447,-187500.02235174447,-187500.02235174447,1730410041.4540532,1730410040.117522,4000
3060.065574653813,-187500.02235174447,24656.678695282782,-187500.02235174447,-187500.02235174447,-187500.02235174447,-187500.02235174447,-187500.02235174447,1730410041.4590807,1730410040.117522,4000
2980.471012648465,-187500.02235174447,24578.849921089404,-187500.02235174447,-187500.02235174447,-187500.02235174447,-187500.02235174447,-187500.02235174447,1730410041.4619849,1730410040.117522,4000
3007.0695885502805,-187500.02235174447,24541.63426657132,-187500.02235174447,-187500.02235174447,-187500.02235174447,-187500.02235174447,-187500.02235174447,1730410041.4660215,1730410040.117522,4000
3090.5086506019416,-187500.02235174447,24645.72634049968,-187500.02235174447,-187500.02235174447,-187500.02235174447,-187500.02235174447,-187500.02235174447,1730410041.4699948,1730410040.117522,4000
3075.957664961537,-187500.02235174447,24631.890610681847,-187500.02235174447,-187500.02235174447,-187500.02235174447,-187500.02235174447,-187500.02235174447,1730410041.4741623,1730410040.117522,4000
2987.824736574261,-187500.02235174447,24562.846072059405,-187500.02235174447,-187500.02235174447,-187500.02235174447,-187500.02235174447,-187500.02235174447,1730410041.4779584,1730410040.117522,4000
3002.2192600034787,-187500.02235174447,24567.67404886175,-187500.02235174447,-187500.02235174447,-187500.02235174447,-187500.02235174447,-187500.02235174447,1730410041.4821143,1730410040.117522,4000
3067.732223001984,-187500.02235174447,24644.1170148989,-187500.02235174447,-187500.02235174447,-187500.02235174447,-187500.02235174447,-187500.02235174447,1730410041.4871433,1730410040.117522,4000
3052.9577199170258,-187500.02235174447,24650.8672417244,-187500.02235174447,-187500.02235174447,-187500.02235174447,-187500.02235174447,-187500.02235174447,1730410041.4901922,1730410040.117522,4000
3002.822757103772,-187500.02235174447,24573.82077858696,-187500.02235174447,-187500.02235174447,-187500.02235174447,-187500.02235174447,-187500.02235174447,1730410041.4931805,1730410040.117522,4000
3002.375722214666,-187500.02235174447,24567.405827928287,-187500.02235174447,-187500.02235174447,-187500.02235174447,-187500.02235174447,-187500.02235174447,1730410041.4981768,1730410040.117522,4000
3068.469830569009,-187500.02235174447,24631.35416881492,-187500.02235174447,-187500.02235174447,-187500.02235174447,-187500.02235174447,-187500.02235174447,1730410041.502082,1730410040.117522,4000
3088.2287726675004,-187500.02235174447,24636.942104928745,-187500.02235174447,-187500.02235174447,-187500.02235174447,-187500.02235174447,-187500.02235174447,1730410041.5061195,1730410040.117522,4000
3024.9286323700708,-187500.02235174447,24597.334813753943,-187500.02235174447,-187500.02235174447,-187500.02235174447,-187500.02235174447,-187500.02235174447,1730410041.510164,1730410040.117522,4000
2968.82575378725,-187500.02235174447,24589.332889238944,-187500.02235174447,-187500.02235174447,-187500.02235174447,-187500.02235174447,-187500.02235174447,1730410041.5142045,1730410040.117522,4000
3028.9966498609365,-187500.02235174447,24658.98092496168,-187500.02235174447,-187500.02235174447,-187500.02235174447,-187500.02235174447,-187500.02235174447,1730410041.518181,1730410040.117522,4000
3102.712703074539,-187500.02235174447,24670.380314633887,-187500.02235174447,-187500.02235174447,-187500.02235174447,-187500.02235174447,-187500.02235174447,1730410041.5211651,1730410040.117522,4000
3069.0956794137574,-187500.02235174447,24610.29882553802,-187500.02235174447,-187500.02235174447,-187500.02235174447,-187500.02235174447,-187500.02235174447,1730410041.5261204,1730410040.117522,4000
2978.9063905365933,-187500.02235174447,24560.454435402684,-187500.02235174447,-187500.02235174447,-187500.02235174447,-187500.02235174447,-187500.02235174447,1730410041.530198,1730410040.117522,4000
3024.9286323700708,-187500.02235174447,24623.218133833187,-187500.02235174447,-187500.02235174447,-187500.02235174447,-187500.02235174447,-187500.02235174447,1730410041.534233,1730410040.117522,4000
3098.376464650209,-187500.02235174447,24668.011029721623,-187500.02235174447,-187500.02235174447,-187500.02235174447,-187500.02235174447,-187500.02235174447,1730410041.5382123,1730410040.117522,4000
3035.6798214530736,-187500.02235174447,24625.609770489904,-187500.02235174447,-187500.02235174447,-187500.02235174447,-187500.02235174447,-187500.02235174447,1730410041.543259,1730410040.117522,4000
2975.933608524037,-187500.02235174447,24566.37764768334,-187500.02235174447,-187500.02235174447,-187500.02235174447,-187500.02235174447,-187500.02235174447,1730410041.5460732,1730410040.117522,4000
3000.9228588250708,-187500.02235174447,24592.372726484864,-187500.02235174447,-187500.02235174447,-187500.02235174447,-187500.02235174447,-187500.02235174447,1730410041.5492525,1730410040.117522,4000
3089.033435467891,-187500.02235174447,24677.197596692757,-187500.02235174447,-187500.02235174447,-187500.02235174447,-187500.02235174447,-187500.02235174447,1730410041.5543177,1730410040.117522,4000
3095.3589791487434,-187500.02235174447,24664.524157586595,-187500.02235174447,-187500.02235174447,-187500.02235174447,-187500.02235174447,-187500.02235174447,1730410041.5583074,1730410040.117522,4000
3018.267812522389,-187500.02235174447,24594.71965965267,-187500.02235174447,-187500.02235174447,-187500.02235174447,-187500.02235174447,-187500.02235174447,1730410041.5622952,1730410040.117522,4000
2993.3232657102667,-187500.02235174447,24591.23278751764,-187500.02235174447,-187500.02235174447,-187500.02235174447,-187500.02235174447,-187500.02235174447,1730410041.5663073,1730410040.117522,4000
3058.076269397291,-187500.02235174447,24650.39785509084,-187500.02235174447,-187500.02235174447,-187500.02235174447,-187500.02235174447,-187500.02235174447,1730410041.5691617,1730410040.117522,4000
3099.0023134949583,-187500.02235174447,24656.343419115958,-187500.02235174447,-187500.02235174447,-187500.02235174447,-187500.02235174447,-187500.02235174447,1730410041.5733004,1730410040.117522,4000
2972.178515455546,-187500.02235174447,24586.829493859947,-187500.02235174447,-187500.02235174447,-187500.02235174447,-187500.02235174447,-187500.02235174447,1730410041.577134,1730410040.117522,4000
2974.212524200979,-187500.02235174447,24586.829493859947,-187500.02235174447,-187500.02235174447,-187500.02235174447,-187500.02235174447,-187500.02235174447,1730410041.5812948,1730410040.117522,4000
3055.7069844850284,-187500.02235174447,24636.49507003964,-187500.02235174447,-187500.02235174447,-187500.02235174447,-187500.02235174447,-187500.02235174447,1730410041.5860908,1730410040.117522,4000
3073.387214349176,-187500.02235174447,24662.847776752445,-187500.02235174447,-187500.02235174447,-187500.02235174447,-187500.02235174447,-187500.02235174447,1730410041.5903373,1730410040.117522,4000
3024.1910248030454,-187500.02235174447,24618.05488086401,-187500.02235174447,-187500.02235174447,-187500.02235174447,-187500.02235174447,-187500.02235174447,1730410041.5941644,1730410040.117522,4000
3002.1298530256577,-187500.02235174447,24612.82457266147,-187500.02235174447,-187500.02235174447,-187500.02235174447,-187500.02235174447,-187500.02235174447,1730410041.5983028,1730410040.117522,4000
3060.1549816316347,-187500.02235174447,24676.50469261464,-187500.02235174447,-187500.02235174447,-187500.02235174447,-187500.02235174447,-187500.02235174447,1730410041.6012871,1730410040.117522,4000
3098.063540227836,-187500.02235174447,24694.162570734334,-187500.02235174447,-187500.02235174447,-187500.02235174447,-187500.02235174447,-187500.02235174447,1730410041.6053236,1730410040.117522,4000
3035.1657313306014,-187500.02235174447,24644.45229106573,-187500.02235174447,-187500.02235174447,-187500.02235174447,-187500.02235174447,-187500.02235174447,1730410041.6103065,1730410040.117522,4000
2978.7499283254065,-187500.02235174447,24603.59330220143,-187500.02235174447,-187500.02235174447,-187500.02235174447,-187500.02235174447,-187500.02235174447,1730410041.614364,1730410040.117522,4000
3024.6157079476966,-187500.02235174447,24663.22775640819,-187500.02235174447,-187500.02235174447,-187500.02235174447,-187500.02235174447,-187500.02235174447,1730410041.6182563,1730410040.117522,4000
3073.141345160168,-187500.02235174447,24686.942957275267,-187500.02235174447,-187500.02235174447,-187500.02235174447,-187500.02235174447,-187500.02235174447,1730410041.6221812,1730410040.117522,4000
3042.139475600657,-187500.02235174447,24624.69334896724,-187500.02235174447,-187500.02235174447,-187500.02235174447,-187500.02235174447,-187500.02235174447,1730410041.6252077,1730410040.117522,4000
2987.869440063172,-187500.02235174447,24593.043278818524,-187500.02235174447,-187500.02235174447,-187500.02235174447,-187500.02235174447,-187500.02235174447,1730410041.62937,1730410040.117522,4000
3016.747893899428,-187500.02235174447,24652.87889872538,-187500.02235174447,-187500.02235174447,-187500.02235174447,-187500.02235174447,-187500.02235174447,1730410041.6333582,1730410040.117522,4000
3057.8974554416486,-187500.02235174447,24701.538646404584,-187500.02235174447,-187500.02235174447,-187500.02235174447,-187500.02235174447,-187500.02235174447,1730410041.6373866,1730410040.117522,4000
3024.4815974809644,-187500.02235174447,24629.3648635584,-187500.02235174447,-187500.02235174447,-187500.02235174447,-187500.02235174447,-187500.02235174447,1730410041.6423757,1730410040.117522,4000
2991.624533131663,-187500.02235174447,24579.609880400883,-187500.02235174447,-187500.02235174447,-187500.02235174447,-187500.02235174447,-187500.02235174447,1730410041.6463835,1730410040.117522,4000
3024.950984114526,-187500.02235174447,24643.11118639841,-187500.02235174447,-187500.02235174447,-187500.02235174447,-187500.02235174447,-187500.02235174447,1730410041.6504872,1730410040.117522,4000
3074.057766682836,-187500.02235174447,24709.764088364136,-187500.02235174447,-187500.02235174447,-187500.02235174447,-187500.02235174447,-187500.02235174447,1730410041.653292,1730410040.117522,4000
3062.0995833992465,-187500.02235174447,24671.94493674576,-187500.02235174447,-187500.02235174447,-187500.02235174447,-187500.02235174447,-187500.02235174447,1730410041.6573997,1730410040.117522,4000
2999.2688297353784,-187500.02235174447,24625.565067001,-187500.02235174447,-187500.02235174447,-187500.02235174447,-187500.02235174447,-187500.02235174447,1730410041.6612842,1730410040.117522,4000
2995.73725411144,-187500.02235174447,24617.250218063626,-187500.02235174447,-187500.02235174447,-187500.02235174447,-187500.02235174447,-187500.02235174447,1730410041.6654377,1730410040.117522,4000
3078.505763829441,-187500.02235174447,24686.004184008147,-187500.02235174447,-187500.02235174447,-187500.02235174447,-187500.02235174447,-187500.02235174447,1730410041.6734269,1730410040.117522,4000
3078.908095229637,-187500.02235174447,24676.1247129589,-187500.02235174447,-187500.02235174447,-187500.02235174447,-187500.02235174447,-187500.02235174447,1730410041.6753724,1730410040.117522,4000
2998.732387868451,-187500.02235174447,24612.15402032781,-187500.02235174447,-187500.02235174447,-187500.02235174447,-187500.02235174447,-187500.02235174447,1730410041.678344,1730410040.117522,4000
2988.4505854190097,-187500.02235174447,24624.49218326714,-187500.02235174447,-187500.02235174447,-187500.02235174447,-187500.02235174447,-187500.02235174447,1730410041.6813724,1730410040.117522,4000
3051.035469893869,-187500.02235174447,24689.155779976343,-187500.02235174447,-187500.02235174447,-187500.02235174447,-187500.02235174447,-187500.02235174447,1730410041.685312,1730410040.117522,4000
3098.152947205657,-187500.02235174447,24701.27042547112,-187500.02235174447,-187500.02235174447,-187500.02235174447,-187500.02235174447,-187500.02235174447,1730410041.689854,1730410040.117522,4000
3030.69538243954,-187500.02235174447,24637.009160162117,-187500.02235174447,-187500.02235174447,-187500.02235174447,-187500.02235174447,-187500.02235174447,1730410041.697396,1730410040.117522,4000
2980.6721783485627,-187500.02235174447,24609.136534826343,-187500.02235174447,-187500.02235174447,-187500.02235174447,-187500.02235174447,-187500.02235174447,1730410041.6983123,1730410040.117522,4000
3043.167655845601,-187500.02235174447,24673.55426234654,-187500.02235174447,-187500.02235174447,-187500.02235174447,-187500.02235174447,-187500.02235174447,1730410041.703436,1730410040.117522,4000
3079.690406285573,-187500.02235174447,24704.22085573922,-187500.02235174447,-187500.02235174447,-187500.02235174447,-187500.02235174447,-187500.02235174447,1730410041.705295,1730410040.117522,4000
3025.3309637702664,-187500.02235174447,24639.065520652,-187500.02235174447,-187500.02235174447,-187500.02235174447,-187500.02235174447,-187500.02235174447,1730410041.7093184,1730410040.117522,4000
2978.0346725028367,-187500.02235174447,24582.783828113537,-187500.02235174447,-187500.02235174447,-187500.02235174447,-187500.02235174447,-187500.02235174447,1730410041.713293,1730410040.117522,4000
3006.2202222609785,-187500.02235174447,24637.612657262405,-187500.02235174447,-187500.02235174447,-187500.02235174447,-187500.02235174447,-187500.02235174447,1730410041.71729,1730410040.117522,4000
3072.135516659679,-187500.02235174447,24699.705803359248,-187500.02235174447,-187500.02235174447,-187500.02235174447,-187500.02235174447,-187500.02235174447,1730410041.721336,1730410040.117522,4000
3076.069423683813,-187500.02235174447,24660.59025056246,-187500.02235174447,-187500.02235174447,-187500.02235174447,-187500.02235174447,-187500.02235174447,1730410041.725324,1730410040.117522,4000
2987.6459226186184,-187500.02235174447,24603.660357434797,-187500.02235174447,-187500.02235174447,-187500.02235174447,-187500.02235174447,-187500.02235174447,1730410041.730307,1730410040.117522,4000
3005.102635038213,-187500.02235174447,24631.197706603733,-187500.02235174447,-187500.02235174447,-187500.02235174447,-187500.02235174447,-187500.02235174447,1730410041.7333093,1730410040.117522,4000
3069.8332869807828,-187500.02235174447,24694.296681201064,-187500.02235174447,-187500.02235174447,-187500.02235174447,-187500.02235174447,-187500.02235174447,1730410041.741514,1730410040.117522,4000
3046.073382624791,-187500.02235174447,24679.969213005214,-187500.02235174447,-187500.02235174447,-187500.02235174447,-187500.02235174447,-187500.02235174447,1730410041.7415392,1730410040.117522,4000
2958.432192615532,-187500.02235174447,24608.35422377041,-187500.02235174447,-187500.02235174447,-187500.02235174447,-187500.02235174447,-187500.02235174447,1730410041.7454212,1730410040.117522,4000
2992.205678487501,-187500.02235174447,24626.50384026812,-187500.02235174447,-187500.02235174447,-187500.02235174447,-187500.02235174447,-187500.02235174447,1730410041.7516768,1730410040.117522,4000
3075.622388794707,-187500.02235174447,24689.044021254067,-187500.02235174447,-187500.02235174447,-187500.02235174447,-187500.02235174447,-187500.02235174447,1730410041.7576747,1730410040.117522,4000
3064.1559438891345,-187500.02235174447,24657.84098599446,-187500.02235174447,-187500.02235174447,-187500.02235174447,-187500.02235174447,-187500.02235174447,1730410041.7583938,1730410040.117522,4000
2993.278562221356,-187500.02235174447,24617.429032019263,-187500.02235174447,-187500.02235174447,-187500.02235174447,-187500.02235174447,-187500.02235174447,1730410041.7615438,1730410040.117522,4000
2998.084187279247,-187500.02235174447,24628.20257284672,-187500.02235174447,-187500.02235174447,-187500.02235174447,-187500.02235174447,-187500.02235174447,1730410041.765344,1730410040.117522,4000
3062.0995833992465,-187500.02235174447,24685.42303865231,-187500.02235174447,-187500.02235174447,-187500.02235174447,-187500.02235174447,-187500.02235174447,1730410041.7693973,1730410040.117522,4000
3054.9917286624586,-187500.02235174447,24667.29577389905,-187500.02235174447,-187500.02235174447,-187500.02235174447,-187500.02235174447,-187500.02235174447,1730410041.7735355,1730410040.117522,4000
2996.5195651673757,-187500.02235174447,24602.051031834013,-187500.02235174447,-187500.02235174447,-187500.02235174447,-187500.02235174447,-187500.02235174447,1730410041.777376,1730410040.117522,4000
2996.765434356384,-187500.02235174447,24635.958628172717,-187500.02235174447,-187500.02235174447,-187500.02235174447,-187500.02235174447,-187500.02235174447,1730410041.7815742,1730410040.117522,4000
3058.2997868418443,-187500.02235174447,24696.48715215768,-187500.02235174447,-187500.02235174447,-187500.02235174447,-187500.02235174447,-187500.02235174447,1730410041.7854836,1730410040.117522,4000
3084.496031343464,-187500.02235174447,24724.136260048897,-187500.02235174447,-187500.02235174447,-187500.02235174447,-187500.02235174447,-187500.02235174447,1730410041.7887783,1730410040.117522,4000
3036.931519142571,-187500.02235174447,24643.82644222098,-187500.02235174447,-187500.02235174447,-187500.02235174447,-187500.02235174447,-187500.02235174447,1730410041.79757,1730410040.117522,4000
2993.055044776803,-187500.02235174447,24621.854677421416,-187500.02235174447,-187500.02235174447,-187500.02235174447,-187500.02235174447,-187500.02235174447,1730410041.7975929,1730410040.117522,4000
3023.0734375802804,-187500.02235174447,24690.18396022129,-187500.02235174447,-187500.02235174447,-187500.02235174447,-187500.02235174447,-187500.02235174447,1730410041.802382,1730410040.117522,4000
3097.7059123165504,-187500.02235174447,24706.210160995743,-187500.02235174447,-187500.02235174447,-187500.02235174447,-187500.02235174447,-187500.02235174447,1730410041.8073213,1730410040.117522,4000
3048.0626878813136,-187500.02235174447,24654.77879700408,-187500.02235174447,-187500.02235174447,-187500.02235174447,-187500.02235174447,-187500.02235174447,1730410041.8095448,1730410040.117522,4000
2987.757681340895,-187500.02235174447,24631.868258937397,-187500.02235174447,-187500.02235174447,-187500.02235174447,-187500.02235174447,-187500.02235174447,1730410041.8169124,1730410040.117522,4000
3021.4864637239534,-187500.02235174447,24660.36673311791,-187500.02235174447,-187500.02235174447,-187500.02235174447,-187500.02235174447,-187500.02235174447,1730410041.816932,1730410040.117522,4000
3064.6700340116067,-187500.02235174447,24710.0323092976,-187500.02235174447,-187500.02235174447,-187500.02235174447,-187500.02235174447,-187500.02235174447,1730410041.8215415,1730410040.117522,4000
3024.9956876034366,-187500.02235174447,24653.325933614487,-187500.02235174447,-187500.02235174447,-187500.02235174447,-187500.02235174447,-187500.02235174447,1730410041.8254857,1730410040.117522,4000
2991.9374575540373,-187500.02235174447,24619.84302042044,-187500.02235174447,-187500.02235174447,-187500.02235174447,-187500.02235174447,-187500.02235174447,1730410041.829559,1730410040.117522,4000
3018.2231090334785,-187500.02235174447,24675.632974580883,-187500.02235174447,-187500.02235174447,-187500.02235174447,-187500.02235174447,-187500.02235174447,1730410041.8334806,1730410040.117522,4000
3054.723507728995,-187500.02235174447,24742.844670157992,-187500.02235174447,-187500.02235174447,-187500.02235174447,-187500.02235174447,-187500.02235174447,1730410041.8376005,1730410040.117522,4000
3052.55538851683,-187500.02235174447,24699.817562081524,-187500.02235174447,-187500.02235174447,-187500.02235174447,-187500.02235174447,-187500.02235174447,1730410041.8416157,1730410040.117522,4000
2983.5779051277527,-187500.02235174447,24602.989805101133,-187500.02235174447,-187500.02235174447,-187500.02235174447,-187500.02235174447,-187500.02235174447,1730410041.844538,1730410040.117522,4000
2997.1677657565792,-187500.02235174447,24654.10824467042,-187500.02235174447,-187500.02235174447,-187500.02235174447,-187500.02235174447,-187500.02235174447,1730410041.8486192,1730410040.117522,4000
3075.242409138967,-187500.02235174447,24719.26357975764,-187500.02235174447,-187500.02235174447,-187500.02235174447,-187500.02235174447,-187500.02235174447,1730410041.8542788,1730410040.117522,4000
3057.852751952738,-187500.02235174447,24703.617358638927,-187500.02235174447,-187500.02235174447,-187500.02235174447,-187500.02235174447,-187500.02235174447,1730410041.8577905,1730410040.117522,4000
2973.5866753562304,-187500.02235174447,24630.05776763651,-187500.02235174447,-187500.02235174447,-187500.02235174447,-187500.02235174447,-187500.02235174447,1730410041.8616283,1730410040.117522,4000
2949.491494833409,-187500.02235174447,24608.845962148425,-187500.02235174447,-187500.02235174447,-187500.02235174447,-187500.02235174447,-187500.02235174447,1730410041.865876,1730410040.117522,4000
3051.6389669941627,-187500.02235174447,24712.1333732764,-187500.02235174447,-187500.02235174447,-187500.02235174447,-187500.02235174447,-187500.02235174447,1730410041.8687203,1730410040.117522,4000
3067.6875195130733,-187500.02235174447,24739.916591634345,-187500.02235174447,-187500.02235174447,-187500.02235174447,-187500.02235174447,-187500.02235174447,1730410041.872946,1730410040.117522,4000
3018.1560538001127,-187500.02235174447,24642.418282320297,-187500.02235174447,-187500.02235174447,-187500.02235174447,-187500.02235174447,-187500.02235174447,1730410041.8767524,1730410040.117522,4000
2975.978312012948,-187500.02235174447,24617.83136341946,-187500.02235174447,-187500.02235174447,-187500.02235174447,-187500.02235174447,-187500.02235174447,1730410041.882158,1730410040.117522,4000
3043.011193634414,-187500.02235174447,24697.805905080542,-187500.02235174447,-187500.02235174447,-187500.02235174447,-187500.02235174447,-187500.02235174447,1730410041.8856733,1730410040.117522,4000
3093.3473221477657,-187500.02235174447,24724.94092284929,-187500.02235174447,-187500.02235174447,-187500.02235174447,-187500.02235174447,-187500.02235174447,1730410041.889841,1730410040.117522,4000
3041.3795162891765,-187500.02235174447,24687.70291658675,-187500.02235174447,-187500.02235174447,-187500.02235174447,-187500.02235174447,-187500.02235174447,1730410041.893684,1730410040.117522,4000
2980.82864055975,-187500.02235174447,24652.096587669443,-187500.02235174447,-187500.02235174447,-187500.02235174447,-187500.02235174447,-187500.02235174447,1730410041.8967204,1730410040.117522,4000
3029.466036494498,-187500.02235174447,24712.222780254226,-187500.02235174447,-187500.02235174447,-187500.02235174447,-187500.02235174447,-187500.02235174447,1730410041.9008715,1730410040.117522,4000
3092.274438413911,-187500.02235174447,24754.534632508115,-187500.02235174447,-187500.02235174447,-187500.02235174447,-187500.02235174447,-187500.02235174447,1730410041.9052367,1730410040.117522,4000
3025.152149814624,-187500.02235174447,24686.65238459735,-187500.02235174447,-187500.02235174447,-187500.02235174447,-187500.02235174447,-187500.02235174447,1730410041.9089952,1730410040.117522,4000
2972.156163711091,-187500.02235174447,24646.486299811164,-187500.02235174447,-187500.02235174447,-187500.02235174447,-187500.02235174447,-187500.02235174447,1730410041.9139977,1730410040.117522,4000
3007.896603095127,-187500.02235174447,24698.78938183658,-187500.02235174447,-187500.02235174447,-187500.02235174447,-187500.02235174447,-187500.02235174447,1730410041.9180632,1730410040.117522,4000
3076.270589383911,-187500.02235174447,24740.22951605672,-187500.02235174447,-187500.02235174447,-187500.02235174447,-187500.02235174447,-187500.02235174447,1730410041.9210467,1730410040.117522,4000
3035.299841797333,-187500.02235174447,24705.42784993981,-187500.02235174447,-187500.02235174447,-187500.02235174447,-187500.02235174447,-187500.02235174447,1730410041.9250336,1730410040.117522,4000
2972.245570688912,-187500.02235174447,24612.86927615038,-187500.02235174447,-187500.02235174447,-187500.02235174447,-187500.02235174447,-187500.02235174447,1730410041.9287877,1730410040.117522,4000
2998.7770913573613,-187500.02235174447,24664.278288397585,-187500.02235174447,-187500.02235174447,-187500.02235174447,-187500.02235174447,-187500.02235174447,1730410041.9333313,1730410040.117522,4000
3070.7720602479053,-187500.02235174447,24761.530728522623,-187500.02235174447,-187500.02235174447,-187500.02235174447,-187500.02235174447,-187500.02235174447,1730410041.9367225,1730410040.117522,4000
3052.4212780500984,-187500.02235174447,24725.23149552721,-187500.02235174447,-187500.02235174447,-187500.02235174447,-187500.02235174447,-187500.02235174447,1730410041.9423895,1730410040.117522,4000
2977.073547491258,-187500.02235174447,24640.674846252783,-187500.02235174447,-187500.02235174447,-187500.02235174447,-187500.02235174447,-187500.02235174447,1730410041.946163,1730410040.117522,4000
2983.6449603611186,-187500.02235174447,24666.826387265493,-187500.02235174447,-187500.02235174447,-187500.02235174447,-187500.02235174447,-187500.02235174447,1730410041.949194,1730410040.117522,4000
3055.505818784931,-187500.02235174447,24728.874829873424,-187500.02235174447,-187500.02235174447,-187500.02235174447,-187500.02235174447,-187500.02235174447,1730410041.952757,1730410040.117522,4000
3085.4795080994977,-187500.02235174447,24718.101289045968,-187500.02235174447,-187500.02235174447,-187500.02235174447,-187500.02235174447,-187500.02235174447,1730410041.9568937,1730410040.117522,4000
2992.630361632152,-187500.02235174447,24651.046055680046,-187500.02235174447,-187500.02235174447,-187500.02235174447,-187500.02235174447,-187500.02235174447,1730410041.9608498,1730410040.117522,4000
2967.73051830894,-187500.02235174447,24640.048997408037,-187500.02235174447,-187500.02235174447,-187500.02235174447,-187500.02235174447,-187500.02235174447,1730410041.9653847,1730410040.117522,4000
3066.3911183346654,-187500.02235174447,24721.78932688109,-187500.02235174447,-187500.02235174447,-187500.02235174447,-187500.02235174447,-187500.02235174447,1730410041.9698744,1730410040.117522,4000
3088.2511244119555,-187500.02235174447,24749.86311791696,-187500.02235174447,-187500.02235174447,-187500.02235174447,-187500.02235174447,-187500.02235174447,1730410041.974285,1730410040.117522,4000
2998.888850079638,-187500.02235174447,24660.50084358464,-187500.02235174447,-187500.02235174447,-187500.02235174447,-187500.02235174447,-187500.02235174447,1730410041.976863,1730410040.117522,4000
2948.1056866771805,-187500.02235174447,24638.842003207446,-187500.02235174447,-187500.02235174447,-187500.02235174447,-187500.02235174447,-187500.02235174447,1730410041.981065,1730410040.117522,4000
3029.734257427962,-187500.02235174447,24706.59014065148,-187500.02235174447,-187500.02235174447,-187500.02235174447,-187500.02235174447,-187500.02235174447,1730410041.9851587,1730410040.117522,4000
3085.1889354215787,-187500.02235174447,24747.337370793502,-187500.02235174447,-187500.02235174447,-187500.02235174447,-187500.02235174447,-187500.02235174447,1730410041.9889536,1730410040.117522,4000
3018.133702055657,-187500.02235174447,24692.64265211137,-187500.02235174447,-187500.02235174447,-187500.02235174447,-187500.02235174447,-187500.02235174447,1730410041.9930222,1730410040.117522,4000
2960.175628683046,-187500.02235174447,24630.035415892056,-187500.02235174447,-187500.02235174447,-187500.02235174447,-187500.02235174447,-187500.02235174447,1730410041.9979396,1730410040.117522,4000
3005.7731873718726,-187500.02235174447,24683.50078862915,-187500.02235174447,-187500.02235174447,-187500.02235174447,-187500.02235174447,-187500.02235174447,1730410042.0018637,1730410040.117522,4000
3067.866333468716,-187500.02235174447,24745.124548092437,-187500.02235174447,-187500.02235174447,-187500.02235174447,-187500.02235174447,-187500.02235174447,1730410042.0049536,1730410040.117522,4000
3036.909167398115,-187500.02235174447,24711.440469198285,-187500.02235174447,-187500.02235174447,-187500.02235174447,-187500.02235174447,-187500.02235174447,1730410042.0090475,1730410040.117522,4000
2983.756719083395,-187500.02235174447,24652.945953958744,-187500.02235174447,-187500.02235174447,-187500.02235174447,-187500.02235174447,-187500.02235174447,1730410042.0130315,1730410040.117522,4000
3011.9646205859926,-187500.02235174447,24678.73986706017,-187500.02235174447,-187500.02235174447,-187500.02235174447,-187500.02235174447,-187500.02235174447,1730410042.01687,1730410040.117522,4000
3087.781737778394,-187500.02235174447,24732.205239797266,-187500.02235174447,-187500.02235174447,-187500.02235174447,-187500.02235174447,-187500.02235174447,1730410042.0210238,1730410040.117522,4000
3068.112202657724,-187500.02235174447,24715.307320989054,-187500.02235174447,-187500.02235174447,-187500.02235174447,-187500.02235174447,-187500.02235174447,1730410042.0259995,1730410040.117522,4000
2992.2950854653222,-187500.02235174447,24659.87499473989,-187500.02235174447,-187500.02235174447,-187500.02235174447,-187500.02235174447,-187500.02235174447,1730410042.0288851,1730410040.117522,4000
2994.217335488479,-187500.02235174447,24674.917718758312,-187500.02235174447,-187500.02235174447,-187500.02235174447,-187500.02235174447,-187500.02235174447,1730410042.0330234,1730410040.117522,4000
3054.3882315621654,-187500.02235174447,24730.0371205851,-187500.02235174447,-187500.02235174447,-187500.02235174447,-187500.02235174447,-187500.02235174447,1730410042.0368135,1730410040.117522,4000
3052.6671472391067,-187500.02235174447,24722.638693170396,-187500.02235174447,-187500.02235174447,-187500.02235174447,-187500.02235174447,-187500.02235174447,1730410042.041206,1730410040.117522,4000
2984.270809205867,-187500.02235174447,24653.79532024805,-187500.02235174447,-187500.02235174447,-187500.02235174447,-187500.02235174447,-187500.02235174447,1730410042.045072,1730410040.117522,4000
2987.668274363074,-187500.02235174447,24645.391064332853,-187500.02235174447,-187500.02235174447,-187500.02235174447,-187500.02235174447,-187500.02235174447,1730410042.049122,1730410040.117522,4000
3067.620464279707,-187500.02235174447,24709.22764649721,-187500.02235174447,-187500.02235174447,-187500.02235174447,-187500.02235174447,-187500.02235174447,1730410042.05401,1730410040.117522,4000
3066.189952634568,-187500.02235174447,24717.430736712307,-187500.02235174447,-187500.02235174447,-187500.02235174447,-187500.02235174447,-187500.02235174447,1730410042.0569768,1730410040.117522,4000
2979.934570781538,-187500.02235174447,24654.510576070617,-187500.02235174447,-187500.02235174447,-187500.02235174447,-187500.02235174447,-187500.02235174447,1730410042.060027,1730410040.117522,4000
2959.169800182557,-187500.02235174447,24647.11214865591,-187500.02235174447,-187500.02235174447,-187500.02235174447,-187500.02235174447,-187500.02235174447,1730410042.0651076,1730410040.117522,4000
3043.435876779065,-187500.02235174447,24729.65714092936,-187500.02235174447,-187500.02235174447,-187500.02235174447,-187500.02235174447,-187500.02235174447,1730410042.069064,1730410040.117522,4000
3049.64966173764,-187500.02235174447,24744.74456843669,-187500.02235174447,-187500.02235174447,-187500.02235174447,-187500.02235174447,-187500.02235174447,1730410042.07345,1730410040.117522,4000
2973.5196201228646,-187500.02235174447,24661.59607906295,-187500.02235174447,-187500.02235174447,-187500.02235174447,-187500.02235174447,-187500.02235174447,1730410042.0768757,1730410040.117522,4000
2964.243646173912,-187500.02235174447,24636.83034620647,-187500.02235174447,-187500.02235174447,-187500.02235174447,-187500.02235174447,-187500.02235174447,1730410042.0822573,1730410040.117522,4000
3034.7633999304057,-187500.02235174447,24715.79905936707,-187500.02235174447,-187500.02235174447,-187500.02235174447,-187500.02235174447,-187500.02235174447,1730410042.0851717,1730410040.117522,4000
3083.7137202875283,-187500.02235174447,24742.107062590967,-187500.02235174447,-187500.02235174447,-187500.02235174447,-187500.02235174447,-187500.02235174447,1730410042.0885894,1730410040.117522,4000
3024.1686730585902,-187500.02235174447,24675.40945713633,-187500.02235174447,-187500.02235174447,-187500.02235174447,-187500.02235174447,-187500.02235174447,1730410042.0934305,1730410040.117522,4000
2967.171724697557,-187500.02235174447,24643.75938698761,-187500.02235174447,-187500.02235174447,-187500.02235174447,-187500.02235174447,-187500.02235174447,1730410042.0968983,1730410040.117522,4000
3007.606030417208,-187500.02235174447,24700.53281790409,-187500.02235174447,-187500.02235174447,-187500.02235174447,-187500.02235174447,-187500.02235174447,1730410042.1010811,1730410040.117522,4000
3074.2142288940227,-187500.02235174447,24740.94477187929,-187500.02235174447,-187500.02235174447,-187500.02235174447,-187500.02235174447,-187500.02235174447,1730410042.105085,1730410040.117522,4000
3040.17252208859,-187500.02235174447,24699.03525102559,-187500.02235174447,-187500.02235174447,-187500.02235174447,-187500.02235174447,-187500.02235174447,1730410042.1099672,1730410040.117522,4000
2957.4263641150437,-187500.02235174447,24630.25893333661,-187500.02235174447,-187500.02235174447,-187500.02235174447,-187500.02235174447,-187500.02235174447,1730410042.113116,1730410040.117522,4000
2994.284390721845,-187500.02235174447,24678.27048042661,-187500.02235174447,-187500.02235174447,-187500.02235174447,-187500.02235174447,-187500.02235174447,1730410042.1160555,1730410040.117522,4000
3072.336682359777,-187500.02235174447,24724.717405404732,-187500.02235174447,-187500.02235174447,-187500.02235174447,-187500.02235174447,-187500.02235174447,1730410042.1211257,1730410040.117522,4000
3041.3348128002663,-187500.02235174447,24707.37245170742,-187500.02235174447,-187500.02235174447,-187500.02235174447,-187500.02235174447,-187500.02235174447,1730410042.1250665,1730410040.117522,4000
2977.989969013926,-187500.02235174447,24659.405608106328,-187500.02235174447,-187500.02235174447,-187500.02235174447,-187500.02235174447,-187500.02235174447,1730410042.1289797,1730410040.117522,4000
2973.877248034149,-187500.02235174447,24663.09364594145,-187500.02235174447,-187500.02235174447,-187500.02235174447,-187500.02235174447,-187500.02235174447,1730410042.133136,1730410040.117522,4000
3044.2181878350007,-187500.02235174447,24726.170268794333,-187500.02235174447,-187500.02235174447,-187500.02235174447,-187500.02235174447,-187500.02235174447,1730410042.1359649,1730410040.117522,4000
3072.3590341042323,-187500.02235174447,24748.61142022746,-187500.02235174447,-187500.02235174447,-187500.02235174447,-187500.02235174447,-187500.02235174447,1730410042.1401284,1730410040.117522,4000
2997.234820989945,-187500.02235174447,24652.588326047466,-187500.02235174447,-187500.02235174447,-187500.02235174447,-187500.02235174447,-187500.02235174447,1730410042.1439908,1730410040.117522,4000
2992.920934310071,-187500.02235174447,24647.20155563373,-187500.02235174447,-187500.02235174447,-187500.02235174447,-187500.02235174447,-187500.02235174447,1730410042.1481917,1730410040.117522,4000
3044.151132601635,-187500.02235174447,24714.212085510742,-187500.02235174447,-187500.02235174447,-187500.02235174447,-187500.02235174447,-187500.02235174447,1730410042.1529944,1730410040.117522,4000
3071.8002404928498,-187500.02235174447,24724.918571104838,-187500.02235174447,-187500.02235174447,-187500.02235174447,-187500.02235174447,-187500.02235174447,1730410042.157189,1730410040.117522,4000
3005.7731873718726,-187500.02235174447,24646.083968410967,-187500.02235174447,-187500.02235174447,-187500.02235174447,-187500.02235174447,-187500.02235174447,1730410042.1610885,1730410040.117522,4000
2932.8841487031164,-187500.02235174447,24610.67880519376,-187500.02235174447,-187500.02235174447,-187500.02235174447,-187500.02235174447,-187500.02235174447,1730410042.1642776,1730410040.117522,4000
3043.9946703904475,-187500.02235174447,24711.66398664284,-187500.02235174447,-187500.02235174447,-187500.02235174447,-187500.02235174447,-187500.02235174447,1730410042.1683493,1730410040.117522,4000
3075.1306504166905,-187500.02235174447,24755.361647052963,-187500.02235174447,-187500.02235174447,-187500.02235174447,-187500.02235174447,-187500.02235174447,1730410042.1722643,1730410040.117522,4000
3010.176481029568,-187500.02235174447,24684.573672363007,-187500.02235174447,-187500.02235174447,-187500.02235174447,-187500.02235174447,-187500.02235174447,1730410042.1770303,1730410040.117522,4000
2952.084297190225,-187500.02235174447,24622.435822777254,-187500.02235174447,-187500.02235174447,-187500.02235174447,-187500.02235174447,-187500.02235174447,1730410042.1812787,1730410040.117522,4000
2999.917030324582,-187500.02235174447,24669.866224511414,-187500.02235174447,-187500.02235174447,-187500.02235174447,-187500.02235174447,-187500.02235174447,1730410042.1851656,1730410040.117522,4000
3071.6661300261176,-187500.02235174447,24727.444318228285,-187500.02235174447,-187500.02235174447,-187500.02235174447,-187500.02235174447,-187500.02235174447,1730410042.1892817,1730410040.117522,4000
3036.7750569313835,-187500.02235174447,24696.822428324514,-187500.02235174447,-187500.02235174447,-187500.02235174447,-187500.02235174447,-187500.02235174447,1730410042.1922712,1730410040.117522,4000
2969.116326465169,-187500.02235174447,24648.1179771564,-187500.02235174447,-187500.02235174447,-187500.02235174447,-187500.02235174447,-187500.02235174447,1730410042.1961436,1730410040.117522,4000
2992.7421203544286,-187500.02235174447,24682.003221750645,-187500.02235174447,-187500.02235174447,-187500.02235174447,-187500.02235174447,-187500.02235174447,1730410042.2002373,1730410040.117522,4000
3068.2910166133665,-187500.02235174447,24745.41512077035,-187500.02235174447,-187500.02235174447,-187500.02235174447,-187500.02235174447,-187500.02235174447,1730410042.2042184,1730410040.117522,4000
3037.4456092650425,-187500.02235174447,24689.535759632083,-187500.02235174447,-187500.02235174447,-187500.02235174447,-187500.02235174447,-187500.02235174447,1730410042.2092545,1730410040.117522,4000
2952.084297190225,-187500.02235174447,24631.55533451502,-187500.02235174447,-187500.02235174447,-187500.02235174447,-187500.02235174447,-187500.02235174447,1730410042.2133007,1730410040.117522,4000
2987.1988877295125,-187500.02235174447,24660.657305795827,-187500.02235174447,-187500.02235174447,-187500.02235174447,-187500.02235174447,-187500.02235174447,1730410042.217687,1730410040.117522,4000
3063.4630398110203,-187500.02235174447,24718.92830359081,-187500.02235174447,-187500.02235174447,-187500.02235174447,-187500.02235174447,-187500.02235174447,1730410042.2203877,1730410040.117522,4000
3043.07824886778,-187500.02235174447,24696.956538791244,-187500.02235174447,-187500.02235174447,-187500.02235174447,-187500.02235174447,-187500.02235174447,1730410042.224635,1730410040.117522,4000
2963.9083700070823,-187500.02235174447,24629.901305425323,-187500.02235174447,-187500.02235174447,-187500.02235174447,-187500.02235174447,-187500.02235174447,1730410042.2281306,1730410040.117522,4000
2986.9977220294145,-187500.02235174447,24631.68944498175,-187500.02235174447,-187500.02235174447,-187500.02235174447,-187500.02235174447,-187500.02235174447,1730410042.2325037,1730410040.117522,4000
3078.4163568516205,-187500.02235174447,24713.29566398808,-187500.02235174447,-187500.02235174447,-187500.02235174447,-187500.02235174447,-187500.02235174447,1730410042.237329,1730410040.117522,4000
3041.021888377892,-187500.02235174447,24702.27625397161,-187500.02235174447,-187500.02235174447,-187500.02235174447,-187500.02235174447,-187500.02235174447,1730410042.2413032,1730410040.117522,4000
2983.242628960923,-187500.02235174447,24658.757407517125,-187500.02235174447,-187500.02235174447,-187500.02235174447,-187500.02235174447,-187500.02235174447,1730410042.2451763,1730410040.117522,4000
2986.841259818228,-187500.02235174447,24654.53292781507,-187500.02235174447,-187500.02235174447,-187500.02235174447,-187500.02235174447,-187500.02235174447,1730410042.2481928,1730410040.117522,4000
3021.1288358126685,-187500.02235174447,24702.812695838536,-187500.02235174447,-187500.02235174447,-187500.02235174447,-187500.02235174447,-187500.02235174447,1730410042.2521913,1730410040.117522,4000
3074.303635871844,-187500.02235174447,24723.331597248507,-187500.02235174447,-187500.02235174447,-187500.02235174447,-187500.02235174447,-187500.02235174447,1730410042.2564044,1730410040.117522,4000
3026.7391236709504,-187500.02235174447,24660.232622651176,-187500.02235174447,-187500.02235174447,-187500.02235174447,-187500.02235174447,-187500.02235174447,1730410042.2601285,1730410040.117522,4000
2980.895695793116,-187500.02235174447,24619.306578553507,-187500.02235174447,-187500.02235174447,-187500.02235174447,-187500.02235174447,-187500.02235174447,1730410042.2643845,1730410040.117522,4000
3012.143434541635,-187500.02235174447,24680.59506184996,-187500.02235174447,-187500.02235174447,-187500.02235174447,-187500.02235174447,-187500.02235174447,1730410042.2692063,1730410040.117522,4000
3044.8663884242046,-187500.02235174447,24699.41523068133,-187500.02235174447,-187500.02235174447,-187500.02235174447,-187500.02235174447,-187500.02235174447,1730410042.27248,1730410040.117522,4000
3014.177443287068,-187500.02235174447,24667.139311687864,-187500.02235174447,-187500.02235174447,-187500.02235174447,-187500.02235174447,-187500.02235174447,1730410042.2763674,1730410040.117522,4000
2951.6819657900296,-187500.02235174447,24634.03637814956,-187500.02235174447,-187500.02235174447,-187500.02235174447,-187500.02235174447,-187500.02235174447,1730410042.2808373,1730410040.117522,4000
3001.5710594142747,-187500.02235174447,24691.36860267742,-187500.02235174447,-187500.02235174447,-187500.02235174447,-187500.02235174447,-187500.02235174447,1730410042.2849317,1730410040.117522,4000
3072.5378480598747,-187500.02235174447,24730.37239675193,-187500.02235174447,-187500.02235174447,-187500.02235174447,-187500.02235174447,-187500.02235174447,1730410042.288622,1730410040.117522,4000
3026.783827159861,-187500.02235174447,24662.98188721918,-187500.02235174447,-187500.02235174447,-187500.02235174447,-187500.02235174447,-187500.02235174447,1730410042.292807,1730410040.117522,4000
2957.448715859499,-187500.02235174447,24618.68072970876,-187500.02235174447,-187500.02235174447,-187500.02235174447,-187500.02235174447,-187500.02235174447,1730410042.2975187,1730410040.117522,4000
2986.841259818228,-187500.02235174447,24674.962422247223,-187500.02235174447,-187500.02235174447,-187500.02235174447,-187500.02235174447,-187500.02235174447,1730410042.3006277,1730410040.117522,4000
3057.2939583413554,-187500.02235174447,24717.31897799003,-187500.02235174447,-187500.02235174447,-187500.02235174447,-187500.02235174447,-187500.02235174447,1730410042.3045938,1730410040.117522,4000
3040.239577321956,-187500.02235174447,24698.476457414206,-187500.02235174447,-187500.02235174447,-187500.02235174447,-187500.02235174447,-187500.02235174447,1730410042.3083775,1730410040.117522,4000
2977.54293412482,-187500.02235174447,24645.65928526632,-187500.02235174447,-187500.02235174447,-187500.02235174447,-187500.02235174447,-187500.02235174447,1730410042.3123116,1730410040.117522,4000
2989.948152297515,-187500.02235174447,24670.58148033398,-187500.02235174447,-187500.02235174447,-187500.02235174447,-187500.02235174447,-187500.02235174447,1730410042.3163805,1730410040.117522,4000
3051.2589873384222,-187500.02235174447,24715.352024477965,-187500.02235174447,-187500.02235174447,-187500.02235174447,-187500.02235174447,-187500.02235174447,1730410042.320356,1730410040.117522,4000
3039.412562777109,-187500.02235174447,24707.79713485207,-187500.02235174447,-187500.02235174447,-187500.02235174447,-187500.02235174447,-187500.02235174447,1730410042.3253512,1730410040.117522,4000
2968.915160765071,-187500.02235174447,24636.360959572907,-187500.02235174447,-187500.02235174447,-187500.02235174447,-187500.02235174447,-187500.02235174447,1730410042.3283803,1730410040.117522,4000
2977.654692847096,-187500.02235174447,24652.99065744765,-187500.02235174447,-187500.02235174447,-187500.02235174447,-187500.02235174447,-187500.02235174447,1730410042.3313909,1730410040.117522,4000
3069.766231747417,-187500.02235174447,24693.40261142285,-187500.02235174447,-187500.02235174447,-187500.02235174447,-187500.02235174447,-187500.02235174447,1730410042.336274,1730410040.117522,4000
3065.787621234372,-187500.02235174447,24680.68446882778,-187500.02235174447,-187500.02235174447,-187500.02235174447,-187500.02235174447,-187500.02235174447,1730410042.3403904,1730410040.117522,4000
2975.285407934833,-187500.02235174447,24648.743826001148,-187500.02235174447,-187500.02235174447,-187500.02235174447,-187500.02235174447,-187500.02235174447,1730410042.3442051,1730410040.117522,4000
2941.243701129401,-187500.02235174447,24644.02760792108,-187500.02235174447,-187500.02235174447,-187500.02235174447,-187500.02235174447,-187500.02235174447,1730410042.3484187,1730410040.117522,4000
3035.3221935417887,-187500.02235174447,24728.18192579531,-187500.02235174447,-187500.02235174447,-187500.02235174447,-187500.02235174447,-187500.02235174447,1730410042.353514,1730410040.117522,4000
3058.5903595197638,-187500.02235174447,24741.28004804612,-187500.02235174447,-187500.02235174447,-187500.02235174447,-187500.02235174447,-187500.02235174447,1730410042.3563676,1730410040.117522,4000
2988.338826696733,-187500.02235174447,24636.584477017463,-187500.02235174447,-187500.02235174447,-187500.02235174447,-187500.02235174447,-187500.02235174447,1730410042.36033,1730410040.117522,4000
2971.5750183552527,-187500.02235174447,24638.4173200628,-187500.02235174447,-187500.02235174447,-187500.02235174447,-187500.02235174447,-187500.02235174447,1730410042.364919,1730410040.117522,4000
3041.826551178283,-187500.02235174447,24739.02252185613,-187500.02235174447,-187500.02235174447,-187500.02235174447,-187500.02235174447,-187500.02235174447,1730410042.36851,1730410040.117522,4000
3071.487316070475,-187500.02235174447,24755.987495897716,-187500.02235174447,-187500.02235174447,-187500.02235174447,-187500.02235174447,-187500.02235174447,1730410042.3728373,1730410040.117522,4000
3012.7022281530176,-187500.02235174447,24664.747675031147,-187500.02235174447,-187500.02235174447,-187500.02235174447,-187500.02235174447,-187500.02235174447,1730410042.376446,1730410040.117522,4000
2956.532294336831,-187500.02235174447,24629.1636978583,-187500.02235174447,-187500.02235174447,-187500.02235174447,-187500.02235174447,-187500.02235174447,1730410042.3808272,1730410040.117522,4000
2981.029806259848,-187500.02235174447,24668.323954144,-187500.02235174447,-187500.02235174447,-187500.02235174447,-187500.02235174447,-187500.02235174447,1730410042.3838687,1730410040.117522,4000
3050.5213797713973,-187500.02235174447,24723.13043154841,-187500.02235174447,-187500.02235174447,-187500.02235174447,-187500.02235174447,-187500.02235174447,1730410042.3878407,1730410040.117522,4000
3037.4456092650425,-187500.02235174447,24695.995413779667,-187500.02235174447,-187500.02235174447,-187500.02235174447,-187500.02235174447,-187500.02235174447,1730410042.3927658,1730410040.117522,4000
2969.183381698535,-187500.02235174447,24648.609715534418,-187500.02235174447,-187500.02235174447,-187500.02235174447,-187500.02235174447,-187500.02235174447,1730410042.396562,1730410040.117522,4000
2996.49721342292,-187500.02235174447,24678.002259493147,-187500.02235174447,-187500.02235174447,-187500.02235174447,-187500.02235174447,-187500.02235174447,1730410042.4006612,1730410040.117522,4000
3066.592284034763,-187500.02235174447,24730.551210707574,-187500.02235174447,-187500.02235174447,-187500.02235174447,-187500.02235174447,-187500.02235174447,1730410042.4050205,1730410040.117522,4000
3053.0024234059365,-187500.02235174447,24708.35592846345,-187500.02235174447,-187500.02235174447,-187500.02235174447,-187500.02235174447,-187500.02235174447,1730410042.4090474,1730410040.117522,4000
2996.6536756341075,-187500.02235174447,24640.004293919123,-187500.02235174447,-187500.02235174447,-187500.02235174447,-187500.02235174447,-187500.02235174447,1730410042.4114952,1730410040.117522,4000
2966.881152019638,-187500.02235174447,24644.29582885454,-187500.02235174447,-187500.02235174447,-187500.02235174447,-187500.02235174447,-187500.02235174447,1730410042.4156482,1730410040.117522,4000
3019.78773114535,-187500.02235174447,24717.29662624557,-187500.02235174447,-187500.02235174447,-187500.02235174447,-187500.02235174447,-187500.02235174447,1730410042.4206092,1730410040.117522,4000
3035.12102784169,-187500.02235174447,24705.159629006343,-187500.02235174447,-187500.02235174447,-187500.02235174447,-187500.02235174447,-187500.02235174447,1730410042.424585,1730410040.117522,4000
2971.8432392887166,-187500.02235174447,24634.550468272028,-187500.02235174447,-187500.02235174447,-187500.02235174447,-187500.02235174447,-187500.02235174447,1730410042.430086,1730410040.117522,4000
2956.599349570197,-187500.02235174447,24612.26577905009,-187500.02235174447,-187500.02235174447,-187500.02235174447,-187500.02235174447,-187500.02235174447,1730410042.4339411,1730410040.117522,4000
3042.5865104897634,-187500.02235174447,24717.85541985696,-187500.02235174447,-187500.02235174447,-187500.02235174447,-187500.02235174447,-187500.02235174447,1730410042.4364514,1730410040.117522,4000
3051.616615249707,-187500.02235174447,24731.64644618588,-187500.02235174447,-187500.02235174447,-187500.02235174447,-187500.02235174447,-187500.02235174447,1730410042.4411132,1730410040.117522,4000
2992.8985825656155,-187500.02235174447,24647.134500400367,-187500.02235174447,-187500.02235174447,-187500.02235174447,-187500.02235174447,-187500.02235174447,1730410042.443472,1730410040.117522,4000
2953.850085002194,-187500.02235174447,24639.84783170793,-187500.02235174447,-187500.02235174447,-187500.02235174447,-187500.02235174447,-187500.02235174447,1730410042.449096,1730410040.117522,4000
3001.034617547348,-187500.02235174447,24683.478436884696,-187500.02235174447,-187500.02235174447,-187500.02235174447,-187500.02235174447,-187500.02235174447,1730410042.4526093,1730410040.117522,4000
3047.950929159037,-187500.02235174447,24719.040062313088,-187500.02235174447,-187500.02235174447,-187500.02235174447,-187500.02235174447,-187500.02235174447,1730410042.4566405,1730410040.117522,4000
2986.505983651398,-187500.02235174447,24664.725323286693,-187500.02235174447,-187500.02235174447,-187500.02235174447,-187500.02235174447,-187500.02235174447,1730410042.4605708,1730410040.117522,4000
2958.8792275046385,-187500.02235174447,24645.212250377208,-187500.02235174447,-187500.02235174447,-187500.02235174447,-187500.02235174447,-187500.02235174447,1730410042.4649365,1730410040.117522,4000
3023.989859102948,-187500.02235174447,24707.663024385336,-187500.02235174447,-187500.02235174447,-187500.02235174447,-187500.02235174447,-187500.02235174447,1730410042.4683228,1730410040.117522,4000
3073.5660283048187,-187500.02235174447,24746.510356248666,-187500.02235174447,-187500.02235174447,-187500.02235174447,-187500.02235174447,-187500.02235174447,1730410042.4715452,1730410040.117522,4000
3046.051030880336,-187500.02235174447,24689.424000909807,-187500.02235174447,-187500.02235174447,-187500.02235174447,-187500.02235174447,-187500.02235174447,1730410042.476567,1730410040.117522,4000
2965.562399096775,-187500.02235174447,24640.473680552685,-187500.02235174447,-187500.02235174447,-187500.02235174447,-187500.02235174447,-187500.02235174447,1730410042.4806373,1730410040.117522,4000
2985.6566173620963,-187500.02235174447,24688.70874508724,-187500.02235174447,-187500.02235174447,-187500.02235174447,-187500.02235174447,-187500.02235174447,1730410042.48476,1730410040.117522,4000
3048.599129748241,-187500.02235174447,24738.77665266713,-187500.02235174447,-187500.02235174447,-187500.02235174447,-187500.02235174447,-187500.02235174447,1730410042.4890332,1730410040.117522,4000
3021.2629462794,-187500.02235174447,24702.164495249333,-187500.02235174447,-187500.02235174447,-187500.02235174447,-187500.02235174447,-187500.02235174447,1730410042.493071,1730410040.117522,4000
2960.399146127599,-187500.02235174447,24630.30363682552,-187500.02235174447,-187500.02235174447,-187500.02235174447,-187500.02235174447,-187500.02235174447,1730410042.4958105,1730410040.117522,4000
2993.993818043926,-187500.02235174447,24662.44544535225,-187500.02235174447,-187500.02235174447,-187500.02235174447,-187500.02235174447,-187500.02235174447,1730410042.4999976,1730410040.117522,4000
3028.9519463720258,-187500.02235174447,24720.69409140278,-187500.02235174447,-187500.02235174447,-187500.02235174447,-187500.02235174447,-187500.02235174447,1730410042.5037112,1730410040.117522,4000
3036.4621325090093,-187500.02235174447,24703.32678596101,-187500.02235174447,-187500.02235174447,-187500.02235174447,-187500.02235174447,-187500.02235174447,1730410042.508772,1730410040.117522,4000
2981.096861493213,-187500.02235174447,24657.30454412753,-187500.02235174447,-187500.02235174447,-187500.02235174447,-187500.02235174447,-187500.02235174447,1730410042.5128715,1730410040.117522,4000
2983.7120155944845,-187500.02235174447,24681.64559383936,-187500.02235174447,-187500.02235174447,-187500.02235174447,-187500.02235174447,-187500.02235174447,1730410042.515797,1730410040.117522,4000
3036.909167398115,-187500.02235174447,24723.84568737098,-187500.02235174447,-187500.02235174447,-187500.02235174447,-187500.02235174447,-187500.02235174447,1730410042.5196304,1730410040.117522,4000
3037.98205113197,-187500.02235174447,24717.87777160141,-187500.02235174447,-187500.02235174447,-187500.02235174447,-187500.02235174447,-187500.02235174447,1730410042.5239136,1730410040.117522,4000
2954.565340824764,-187500.02235174447,24653.92943071478,-187500.02235174447,-187500.02235174447,-187500.02235174447,-187500.02235174447,-187500.02235174447,1730410042.5276177,1730410040.117522,4000
