Fp1,Fp2,C3,C4,P7,P8,O1,O2,time_board,time_marker,marker
3447.644823508838,-187500.02235174447,229.8429882339225,-187500.02235174447,-187500.02235174447,-187500.02235174447,-187500.02235174447,-187500.02235174447,1730243670.157049,1730243670.1542692,4000
3428.6905442107377,-187500.02235174447,182.41258649976092,-187500.02235174447,-187500.02235174447,-187500.02235174447,-187500.02235174447,-187500.02235174447,1730243670.161142,1730243670.1542692,4000
3442.392163561841,-187500.02235174447,194.0131418720653,-187500.02235174447,-187500.02235174447,-187500.02235174447,-187500.02235174447,-187500.02235174447,1730243670.165171,1730243670.1542692,4000
3458.328957358475,-187500.02235174447,238.85074124941127,-187500.02235174447,-187500.02235174447,-187500.02235174447,-187500.02235174447,-187500.02235174447,1730243670.170055,1730243670.1542692,4000
3447.8236374644803,-187500.02235174447,236.1014766814085,-187500.02235174447,-187500.02235174447,-187500.02235174447,-187500.02235174447,-187500.02235174447,1730243670.1733596,1730243670.1542692,4000
3427.5506052435167,-187500.02235174447,190.2356970591184,-187500.02235174447,-187500.02235174447,-187500.02235174447,-187500.02235174447,-187500.02235174447,1730243670.176198,1730243670.1542692,4000
3438.771180960081,-187500.02235174447,182.054958588476,-187500.02235174447,-187500.02235174447,-187500.02235174447,-187500.02235174447,-187500.02235174447,1730243670.1801012,1730243670.1542692,4000
3455.423230579285,-187500.02235174447,228.1889591442298,-187500.02235174447,-187500.02235174447,-187500.02235174447,-187500.02235174447,-187500.02235174447,1730243670.1853683,1730243670.1542692,4000
3450.5281985435727,-187500.02235174447,237.375526115361,-187500.02235174447,-187500.02235174447,-187500.02235174447,-187500.02235174447,-187500.02235174447,1730243670.189139,1730243670.1542692,4000
3435.44077103624,-187500.02235174447,197.65647621828035,-187500.02235174447,-187500.02235174447,-187500.02235174447,-187500.02235174447,-187500.02235174447,1730243670.193074,1730243670.1542692,4000
3437.117151870388,-187500.02235174447,182.9043248777777,-187500.02235174447,-187500.02235174447,-187500.02235174447,-187500.02235174447,-187500.02235174447,1730243670.196168,1730243670.1542692,4000
3448.248320609131,-187500.02235174447,218.0189154170651,-187500.02235174447,-187500.02235174447,-187500.02235174447,-187500.02235174447,-187500.02235174447,1730243670.2000892,1730243670.1542692,4000
3457.323128857986,-187500.02235174447,244.39397387432743,-187500.02235174447,-187500.02235174447,-187500.02235174447,-187500.02235174447,-187500.02235174447,1730243670.204147,1730243670.1542692,4000
3430.4786837671622,-187500.02235174447,204.31729606596187,-187500.02235174447,-187500.02235174447,-187500.02235174447,-187500.02235174447,-187500.02235174447,1730243670.208146,1730243670.1542692,4000
3430.232814578153,-187500.02235174447,171.2590660165627,-187500.02235174447,-187500.02235174447,-187500.02235174447,-187500.02235174447,-187500.02235174447,1730243670.2131145,1730243670.1542692,4000
3449.924701443279,-187500.02235174447,214.68850549322437,-187500.02235174447,-187500.02235174447,-187500.02235174447,-187500.02235174447,-187500.02235174447,1730243670.2171035,1730243670.1542692,4000
3459.1783236477763,-187500.02235174447,251.8594565224,-187500.02235174447,-187500.02235174447,-187500.02235174447,-187500.02235174447,-187500.02235174447,1730243670.2211635,1730243670.1542692,4000
3442.4592187952067,-187500.02235174447,217.9071566947885,-187500.02235174447,-187500.02235174447,-187500.02235174447,-187500.02235174447,-187500.02235174447,1730243670.2241817,1730243670.1542692,4000
3437.608890248405,-187500.02235174447,183.01608360005423,-187500.02235174447,-187500.02235174447,-187500.02235174447,-187500.02235174447,-187500.02235174447,1730243670.2282453,1730243670.1542692,4000
3450.863474710402,-187500.02235174447,208.2064996011853,-187500.02235174447,-187500.02235174447,-187500.02235174447,-187500.02235174447,-187500.02235174447,1730243670.2322736,1730243670.1542692,4000
3463.4028033498294,-187500.02235174447,247.99260473163187,-187500.02235174447,-187500.02235174447,-187500.02235174447,-187500.02235174447,-187500.02235174447,1730243670.2364955,1730243670.1542692,4000
3444.2697100960863,-187500.02235174447,226.78079924354543,-187500.02235174447,-187500.02235174447,-187500.02235174447,-187500.02235174447,-187500.02235174447,1730243670.241196,1730243670.1542692,4000
3428.6234889773714,-187500.02235174447,178.54573470899282,-187500.02235174447,-187500.02235174447,-187500.02235174447,-187500.02235174447,-187500.02235174447,1730243670.2451615,1730243670.1542692,4000
3446.750753730625,-187500.02235174447,195.04132211700943,-187500.02235174447,-187500.02235174447,-187500.02235174447,-187500.02235174447,-187500.02235174447,1730243670.2491832,1730243670.1542692,4000
3458.507771314117,-187500.02235174447,241.44354360622688,-187500.02235174447,-187500.02235174447,-187500.02235174447,-187500.02235174447,-187500.02235174447,1730243670.2522862,1730243670.1542692,4000
3449.0529834095223,-187500.02235174447,227.40664808829405,-187500.02235174447,-187500.02235174447,-187500.02235174447,-187500.02235174447,-187500.02235174447,1730243670.2562315,1730243670.1542692,4000
3435.6195849918827,-187500.02235174447,187.0617493464648,-187500.02235174447,-187500.02235174447,-187500.02235174447,-187500.02235174447,-187500.02235174447,1730243670.26029,1730243670.1542692,4000
3441.63220425036,-187500.02235174447,188.9392958807106,-187500.02235174447,-187500.02235174447,-187500.02235174447,-187500.02235174447,-187500.02235174447,1730243670.2642896,1730243670.1542692,4000
3460.519428315095,-187500.02235174447,235.1627034142856,-187500.02235174447,-187500.02235174447,-187500.02235174447,-187500.02235174447,-187500.02235174447,1730243670.2702212,1730243670.1542692,4000
3455.691451512748,-187500.02235174447,242.49407559562636,-187500.02235174447,-187500.02235174447,-187500.02235174447,-187500.02235174447,-187500.02235174447,1730243670.273168,1730243670.1542692,4000
3429.517558755584,-187500.02235174447,190.99565637059885,-187500.02235174447,-187500.02235174447,-187500.02235174447,-187500.02235174447,-187500.02235174447,1730243670.2772305,1730243670.1542692,4000
3433.7643902020923,-187500.02235174447,178.61278994235877,-187500.02235174447,-187500.02235174447,-187500.02235174447,-187500.02235174447,-187500.02235174447,1730243670.280193,1730243670.1542692,4000
3454.2162363786983,-187500.02235174447,222.55631954149243,-187500.02235174447,-187500.02235174447,-187500.02235174447,-187500.02235174447,-187500.02235174447,1730243670.2842295,1730243670.1542692,4000
3452.226931122176,-187500.02235174447,232.72636326865717,-187500.02235174447,-187500.02235174447,-187500.02235174447,-187500.02235174447,-187500.02235174447,1730243670.2882085,1730243670.1542692,4000
3434.993736147134,-187500.02235174447,197.72353145164627,-187500.02235174447,-187500.02235174447,-187500.02235174447,-187500.02235174447,-187500.02235174447,1730243670.2922344,1730243670.1542692,4000
3437.25126233712,-187500.02235174447,185.27360979004024,-187500.02235174447,-187500.02235174447,-187500.02235174447,-187500.02235174447,-187500.02235174447,1730243670.2963624,1730243670.1542692,4000
3452.830428222469,-187500.02235174447,222.26574686357344,-187500.02235174447,-187500.02235174447,-187500.02235174447,-187500.02235174447,-187500.02235174447,1730243670.301442,1730243670.1542692,4000
3454.864436967902,-187500.02235174447,242.0470407065202,-187500.02235174447,-187500.02235174447,-187500.02235174447,-187500.02235174447,-187500.02235174447,1730243670.3042583,1730243670.1542692,4000
3444.895558940835,-187500.02235174447,209.03351414603165,-187500.02235174447,-187500.02235174447,-187500.02235174447,-187500.02235174447,-187500.02235174447,1730243670.308372,1730243670.1542692,4000
3442.705087984215,-187500.02235174447,183.3066562779732,-187500.02235174447,-187500.02235174447,-187500.02235174447,-187500.02235174447,-187500.02235174447,1730243670.3122673,1730243670.1542692,4000
3452.383393333363,-187500.02235174447,211.15692986928585,-187500.02235174447,-187500.02235174447,-187500.02235174447,-187500.02235174447,-187500.02235174447,1730243670.3164265,1730243670.1542692,4000
3464.386280105863,-187500.02235174447,249.2666541655844,-187500.02235174447,-187500.02235174447,-187500.02235174447,-187500.02235174447,-187500.02235174447,1730243670.3202846,1730243670.1542692,4000
3446.214311863698,-187500.02235174447,218.8906334508221,-187500.02235174447,-187500.02235174447,-187500.02235174447,-187500.02235174447,-187500.02235174447,1730243670.324444,1730243670.1542692,4000
3421.6720964517717,-187500.02235174447,172.4213567282387,-187500.02235174447,-187500.02235174447,-187500.02235174447,-187500.02235174447,-187500.02235174447,1730243670.3293943,1730243670.1542692,4000
3448.3377275869525,-187500.02235174447,198.21526982966304,-187500.02235174447,-187500.02235174447,-187500.02235174447,-187500.02235174447,-187500.02235174447,1730243670.3324711,1730243670.1542692,4000
3466.6885097847594,-187500.02235174447,241.39884011731627,-187500.02235174447,-187500.02235174447,-187500.02235174447,-187500.02235174447,-187500.02235174447,1730243670.3363874,1730243670.1542692,4000
3446.7284019861704,-187500.02235174447,226.04319167652037,-187500.02235174447,-187500.02235174447,-187500.02235174447,-187500.02235174447,-187500.02235174447,1730243670.340514,1730243670.1542692,4000
3432.9820791461566,-187500.02235174447,179.35039750938387,-187500.02235174447,-187500.02235174447,-187500.02235174447,-187500.02235174447,-187500.02235174447,1730243670.3445015,1730243670.1542692,4000
3443.3979920623296,-187500.02235174447,190.99565637059885,-187500.02235174447,-187500.02235174447,-187500.02235174447,-187500.02235174447,-187500.02235174447,1730243670.3484216,1730243670.1542692,4000
3460.966463204201,-187500.02235174447,237.66609879328,-187500.02235174447,-187500.02235174447,-187500.02235174447,-187500.02235174447,-187500.02235174447,1730243670.352448,1730243670.1542692,4000
3447.1083816419105,-187500.02235174447,229.8429882339225,-187500.02235174447,-187500.02235174447,-187500.02235174447,-187500.02235174447,-187500.02235174447,1730243670.3575125,1730243670.1542692,4000
3427.260032565598,-187500.02235174447,183.9548568671771,-187500.02235174447,-187500.02235174447,-187500.02235174447,-187500.02235174447,-187500.02235174447,1730243670.360496,1730243670.1542692,4000
3442.5709775174832,-187500.02235174447,186.14532782379723,-187500.02235174447,-187500.02235174447,-187500.02235174447,-187500.02235174447,-187500.02235174447,1730243670.364358,1730243670.1542692,4000
3463.201637649732,-187500.02235174447,228.8371597334337,-187500.02235174447,-187500.02235174447,-187500.02235174447,-187500.02235174447,-187500.02235174447,1730243670.3683825,1730243670.1542692,4000
3453.5009805561285,-187500.02235174447,230.96057545668788,-187500.02235174447,-187500.02235174447,-187500.02235174447,-187500.02235174447,-187500.02235174447,1730243670.372548,1730243670.1542692,4000
3424.421361019774,-187500.02235174447,190.59332497040333,-187500.02235174447,-187500.02235174447,-187500.02235174447,-187500.02235174447,-187500.02235174447,1730243670.3764052,1730243670.1542692,4000
3430.322221555975,-187500.02235174447,173.7401096511018,-187500.02235174447,-187500.02235174447,-187500.02235174447,-187500.02235174447,-187500.02235174447,1730243670.380426,1730243670.1542692,4000
3454.663271267804,-187500.02235174447,221.41638057427176,-187500.02235174447,-187500.02235174447,-187500.02235174447,-187500.02235174447,-187500.02235174447,1730243670.3845198,1730243670.1542692,4000
3455.1103061569106,-187500.02235174447,240.28125289455093,-187500.02235174447,-187500.02235174447,-187500.02235174447,-187500.02235174447,-187500.02235174447,1730243670.3873892,1730243670.1542692,4000
3434.0773146244665,-187500.02235174447,195.153080839286,-187500.02235174447,-187500.02235174447,-187500.02235174447,-187500.02235174447,-187500.02235174447,1730243670.3915637,1730243670.1542692,4000
3436.357192558908,-187500.02235174447,171.68374916121354,-187500.02235174447,-187500.02235174447,-187500.02235174447,-187500.02235174447,-187500.02235174447,1730243670.3964868,1730243670.1542692,4000
3455.423230579285,-187500.02235174447,211.4251508027495,-187500.02235174447,-187500.02235174447,-187500.02235174447,-187500.02235174447,-187500.02235174447,1730243670.40056,1730243670.1542692,4000
3466.576751062483,-187500.02235174447,242.13644768434145,-187500.02235174447,-187500.02235174447,-187500.02235174447,-187500.02235174447,-187500.02235174447,1730243670.4044983,1730243670.1542692,4000
3441.900425183824,-187500.02235174447,206.82069144495625,-187500.02235174447,-187500.02235174447,-187500.02235174447,-187500.02235174447,-187500.02235174447,1730243670.4084456,1730243670.1542692,4000
3435.239605336142,-187500.02235174447,174.05303407347608,-187500.02235174447,-187500.02235174447,-187500.02235174447,-187500.02235174447,-187500.02235174447,1730243670.4124205,1730243670.1542692,4000
3445.834332207958,-187500.02235174447,202.01506638706525,-187500.02235174447,-187500.02235174447,-187500.02235174447,-187500.02235174447,-187500.02235174447,1730243670.4156232,1730243670.1542692,4000
3457.680756769271,-187500.02235174447,239.11896218287492,-187500.02235174447,-187500.02235174447,-187500.02235174447,-187500.02235174447,-187500.02235174447,1730243670.4195893,1730243670.1542692,4000
3447.600120019927,-187500.02235174447,214.5320432820372,-187500.02235174447,-187500.02235174447,-187500.02235174447,-187500.02235174447,-187500.02235174447,1730243670.4245772,1730243670.1542692,4000
3442.5039222841174,-187500.02235174447,176.06469107445372,-187500.02235174447,-187500.02235174447,-187500.02235174447,-187500.02235174447,-187500.02235174447,1730243670.428486,1730243670.1542692,4000
3454.30564335652,-187500.02235174447,199.6010779858921,-187500.02235174447,-187500.02235174447,-187500.02235174447,-187500.02235174447,-187500.02235174447,1730243670.4325757,1730243670.1542692,4000
3464.9674254617007,-187500.02235174447,238.78368601604532,-187500.02235174447,-187500.02235174447,-187500.02235174447,-187500.02235174447,-187500.02235174447,1730243670.4364707,1730243670.1542692,4000
3448.963576431701,-187500.02235174447,225.216177131674,-187500.02235174447,-187500.02235174447,-187500.02235174447,-187500.02235174447,-187500.02235174447,1730243670.4396083,1730243670.1542692,4000
3433.272651824076,-187500.02235174447,177.74107190860175,-187500.02235174447,-187500.02235174447,-187500.02235174447,-187500.02235174447,-187500.02235174447,1730243670.443505,1730243670.1542692,4000
3443.085067639955,-187500.02235174447,187.95581912467708,-187500.02235174447,-187500.02235174447,-187500.02235174447,-187500.02235174447,-187500.02235174447,1730243670.4476926,1730243670.1542692,4000
3462.7769545050805,-187500.02235174447,231.9217004682661,-187500.02235174447,-187500.02235174447,-187500.02235174447,-187500.02235174447,-187500.02235174447,1730243670.452639,1730243670.1542692,4000
3455.8926172128463,-187500.02235174447,229.95474695619907,-187500.02235174447,-187500.02235174447,-187500.02235174447,-187500.02235174447,-187500.02235174447,1730243670.4565265,1730243670.1542692,4000
3438.100628626422,-187500.02235174447,182.77021441104583,-187500.02235174447,-187500.02235174447,-187500.02235174447,-187500.02235174447,-187500.02235174447,1730243670.4605925,1730243670.1542692,4000
3451.0646404105,-187500.02235174447,185.20655455667432,-187500.02235174447,-187500.02235174447,-187500.02235174447,-187500.02235174447,-187500.02235174447,1730243670.464707,1730243670.1542692,4000
3470.1977336642426,-187500.02235174447,226.2667091210734,-187500.02235174447,-187500.02235174447,-187500.02235174447,-187500.02235174447,-187500.02235174447,1730243670.4676185,1730243670.1542692,4000
3454.5291608010725,-187500.02235174447,232.8157702464784,-187500.02235174447,-187500.02235174447,-187500.02235174447,-187500.02235174447,-187500.02235174447,1730243670.4716945,1730243670.1542692,4000
3433.1385413573435,-187500.02235174447,185.07244408994248,-187500.02235174447,-187500.02235174447,-187500.02235174447,-187500.02235174447,-187500.02235174447,1730243670.475586,1730243670.1542692,4000
3438.413553048796,-187500.02235174447,168.21922877064097,-187500.02235174447,-187500.02235174447,-187500.02235174447,-187500.02235174447,-187500.02235174447,1730243670.480667,1730243670.1542692,4000
3466.1073644289213,-187500.02235174447,213.81678745946732,-187500.02235174447,-187500.02235174447,-187500.02235174447,-187500.02235174447,-187500.02235174447,1730243670.4846458,1730243670.1542692,4000
3463.2910446275528,-187500.02235174447,239.6777557942576,-187500.02235174447,-187500.02235174447,-187500.02235174447,-187500.02235174447,-187500.02235174447,1730243670.4887393,1730243670.1542692,4000
3443.0403641510447,-187500.02235174447,199.31050530797307,-187500.02235174447,-187500.02235174447,-187500.02235174447,-187500.02235174447,-187500.02235174447,1730243670.492702,1730243670.1542692,4000
3436.781875703559,-187500.02235174447,171.12495554983087,-187500.02235174447,-187500.02235174447,-187500.02235174447,-187500.02235174447,-187500.02235174447,1730243670.4956064,1730243670.1542692,4000
3456.384355590863,-187500.02235174447,208.2512030900959,-187500.02235174447,-187500.02235174447,-187500.02235174447,-187500.02235174447,-187500.02235174447,1730243670.499648,1730243670.1542692,4000
3461.569960304494,-187500.02235174447,234.69331678072416,-187500.02235174447,-187500.02235174447,-187500.02235174447,-187500.02235174447,-187500.02235174447,1730243670.5035844,1730243670.1542692,4000
3438.190035604243,-187500.02235174447,198.7070082076798,-187500.02235174447,-187500.02235174447,-187500.02235174447,-187500.02235174447,-187500.02235174447,1730243670.5077696,1730243670.1542692,4000
3435.2619570805978,-187500.02235174447,167.61573167034766,-187500.02235174447,-187500.02235174447,-187500.02235174447,-187500.02235174447,-187500.02235174447,1730243670.5126014,1730243670.1542692,4000
3460.2065038927203,-187500.02235174447,201.72449370914623,-187500.02235174447,-187500.02235174447,-187500.02235174447,-187500.02235174447,-187500.02235174447,1730243670.51676,1730243670.1542692,4000
3475.159820933321,-187500.02235174447,241.39884011731627,-187500.02235174447,-187500.02235174447,-187500.02235174447,-187500.02235174447,-187500.02235174447,1730243670.519708,1730243670.1542692,4000
3451.802247977525,-187500.02235174447,217.4377700612271,-187500.02235174447,-187500.02235174447,-187500.02235174447,-187500.02235174447,-187500.02235174447,1730243670.523824,1730243670.1542692,4000
3436.2454338366315,-187500.02235174447,173.7848131400124,-187500.02235174447,-187500.02235174447,-187500.02235174447,-187500.02235174447,-187500.02235174447,1730243670.5276992,1730243670.1542692,4000
3452.6516142668265,-187500.02235174447,188.2463918025961,-187500.02235174447,-187500.02235174447,-187500.02235174447,-187500.02235174447,-187500.02235174447,1730243670.53182,1730243670.1542692,4000
3467.8955039853463,-187500.02235174447,234.08981968043088,-187500.02235174447,-187500.02235174447,-187500.02235174447,-187500.02235174447,-187500.02235174447,1730243670.5356953,1730243670.1542692,4000
3454.037422423056,-187500.02235174447,220.8799387073444,-187500.02235174447,-187500.02235174447,-187500.02235174447,-187500.02235174447,-187500.02235174447,1730243670.5408278,1730243670.1542692,4000
3438.3241460709746,-187500.02235174447,168.2862840040069,-187500.02235174447,-187500.02235174447,-187500.02235174447,-187500.02235174447,-187500.02235174447,1730243670.5446644,1730243670.1542692,4000
3460.0723934259886,-187500.02235174447,182.5914004554034,-187500.02235174447,-187500.02235174447,-187500.02235174447,-187500.02235174447,-187500.02235174447,1730243670.5477629,1730243670.1542692,4000
3472.298797643042,-187500.02235174447,230.84881673441132,-187500.02235174447,-187500.02235174447,-187500.02235174447,-187500.02235174447,-187500.02235174447,1730243670.5518348,1730243670.1542692,4000
3464.0063004501226,-187500.02235174447,235.2744621365621,-187500.02235174447,-187500.02235174447,-187500.02235174447,-187500.02235174447,-187500.02235174447,1730243670.5557604,1730243670.1542692,4000
3448.3377275869525,-187500.02235174447,191.152118581786,-187500.02235174447,-187500.02235174447,-187500.02235174447,-187500.02235174447,-187500.02235174447,1730243670.5597434,1730243670.1542692,4000
3449.3435560874414,-187500.02235174447,179.1268800648308,-187500.02235174447,-187500.02235174447,-187500.02235174447,-187500.02235174447,-187500.02235174447,1730243670.5638697,1730243670.1542692,4000
3468.4319458522737,-187500.02235174447,220.14233114031927,-187500.02235174447,-187500.02235174447,-187500.02235174447,-187500.02235174447,-187500.02235174447,1730243670.5688393,1730243670.1542692,4000
3464.475687083684,-187500.02235174447,232.9722324576655,-187500.02235174447,-187500.02235174447,-187500.02235174447,-187500.02235174447,-187500.02235174447,1730243670.5728676,1730243670.1542692,4000
3442.72743972867,-187500.02235174447,187.15115632428603,-187500.02235174447,-187500.02235174447,-187500.02235174447,-187500.02235174447,-187500.02235174447,1730243670.5758195,1730243670.1542692,4000
3440.447561794229,-187500.02235174447,166.34168223639517,-187500.02235174447,-187500.02235174447,-187500.02235174447,-187500.02235174447,-187500.02235174447,1730243670.5798552,1730243670.1542692,4000
3464.028652194578,-187500.02235174447,211.58161301393665,-187500.02235174447,-187500.02235174447,-187500.02235174447,-187500.02235174447,-187500.02235174447,1730243670.583868,1730243670.1542692,4000
3470.1306784308767,-187500.02235174447,236.6826220372465,-187500.02235174447,-187500.02235174447,-187500.02235174447,-187500.02235174447,-187500.02235174447,1730243670.587845,1730243670.1542692,4000
3452.2045793777206,-187500.02235174447,202.68561872072445,-187500.02235174447,-187500.02235174447,-187500.02235174447,-187500.02235174447,-187500.02235174447,1730243670.5918868,1730243670.1542692,4000
3442.816846706492,-187500.02235174447,170.2532375160739,-187500.02235174447,-187500.02235174447,-187500.02235174447,-187500.02235174447,-187500.02235174447,1730243670.596915,1730243670.1542692,4000
3462.866361482902,-187500.02235174447,200.1822233417301,-187500.02235174447,-187500.02235174447,-187500.02235174447,-187500.02235174447,-187500.02235174447,1730243670.6007612,1730243670.1542692,4000
3475.0480622110445,-187500.02235174447,237.53198832654812,-187500.02235174447,-187500.02235174447,-187500.02235174447,-187500.02235174447,-187500.02235174447,1730243670.604751,1730243670.1542692,4000
3444.023840907078,-187500.02235174447,201.6797902202356,-187500.02235174447,-187500.02235174447,-187500.02235174447,-187500.02235174447,-187500.02235174447,1730243670.608882,1730243670.1542692,4000
3439.6205472493825,-187500.02235174447,165.93935083619962,-187500.02235174447,-187500.02235174447,-187500.02235174447,-187500.02235174447,-187500.02235174447,1730243670.6118171,1730243670.1542692,4000
3464.0510039390333,-187500.02235174447,199.95870589717697,-187500.02235174447,-187500.02235174447,-187500.02235174447,-187500.02235174447,-187500.02235174447,1730243670.6179557,1730243670.1542692,4000
3472.2093906652203,-187500.02235174447,238.40370636030516,-187500.02235174447,-187500.02235174447,-187500.02235174447,-187500.02235174447,-187500.02235174447,1730243670.6209965,1730243670.1542692,4000
3458.619530036394,-187500.02235174447,213.41445605927183,-187500.02235174447,-187500.02235174447,-187500.02235174447,-187500.02235174447,-187500.02235174447,1730243670.6250072,1730243670.1542692,4000
3445.0520211520225,-187500.02235174447,172.71192940615768,-187500.02235174447,-187500.02235174447,-187500.02235174447,-187500.02235174447,-187500.02235174447,1730243670.6277971,1730243670.1542692,4000
3455.4008788348297,-187500.02235174447,186.25708654607377,-187500.02235174447,-187500.02235174447,-187500.02235174447,-187500.02235174447,-187500.02235174447,1730243670.6308787,1730243670.1542692,4000
3475.137469188865,-187500.02235174447,230.13356091184156,-187500.02235174447,-187500.02235174447,-187500.02235174447,-187500.02235174447,-187500.02235174447,1730243670.6358814,1730243670.1542692,4000
3463.536913816561,-187500.02235174447,226.51257831008175,-187500.02235174447,-187500.02235174447,-187500.02235174447,-187500.02235174447,-187500.02235174447,1730243670.6401207,1730243670.1542692,4000
3444.2697100960863,-187500.02235174447,179.01512134255427,-187500.02235174447,-187500.02235174447,-187500.02235174447,-187500.02235174447,-187500.02235174447,1730243670.643891,1730243670.1542692,4000
3453.344518344941,-187500.02235174447,178.90336262027773,-187500.02235174447,-187500.02235174447,-187500.02235174447,-187500.02235174447,-187500.02235174447,1730243670.648108,1730243670.1542692,4000
3467.0461376960443,-187500.02235174447,223.4950928086153,-187500.02235174447,-187500.02235174447,-187500.02235174447,-187500.02235174447,-187500.02235174447,1730243670.6530085,1730243670.1542692,4000
3457.2337218801645,-187500.02235174447,226.9372614547326,-187500.02235174447,-187500.02235174447,-187500.02235174447,-187500.02235174447,-187500.02235174447,1730243670.6560378,1730243670.1542692,4000
3443.956785673712,-187500.02235174447,181.7196824216464,-187500.02235174447,-187500.02235174447,-187500.02235174447,-187500.02235174447,-187500.02235174447,1730243670.6590483,1730243670.1542692,4000
3449.097686898433,-187500.02235174447,168.9791880821214,-187500.02235174447,-187500.02235174447,-187500.02235174447,-187500.02235174447,-187500.02235174447,1730243670.6639163,1730243670.1542692,4000
3464.6545010393265,-187500.02235174447,214.48733979312655,-187500.02235174447,-187500.02235174447,-187500.02235174447,-187500.02235174447,-187500.02235174447,1730243670.6680207,1730243670.1542692,4000
3461.525256815584,-187500.02235174447,231.6534795348024,-187500.02235174447,-187500.02235174447,-187500.02235174447,-187500.02235174447,-187500.02235174447,1730243670.6720235,1730243670.1542692,4000
3443.934433929257,-187500.02235174447,187.0393976020095,-187500.02235174447,-187500.02235174447,-187500.02235174447,-187500.02235174447,-187500.02235174447,1730243670.6760235,1730243670.1542692,4000
3443.934433929257,-187500.02235174447,166.185220025208,-187500.02235174447,-187500.02235174447,-187500.02235174447,-187500.02235174447,-187500.02235174447,1730243670.6820176,1730243670.1542692,4000
3460.0723934259886,-187500.02235174447,212.6321450033361,-187500.02235174447,-187500.02235174447,-187500.02235174447,-187500.02235174447,-187500.02235174447,1730243670.684966,1730243670.1542692,4000
3460.92175971529,-187500.02235174447,239.54364532752575,-187500.02235174447,-187500.02235174447,-187500.02235174447,-187500.02235174447,-187500.02235174447,1730243670.6890354,1730243670.1542692,4000
3445.5661112744942,-187500.02235174447,198.97522914114347,-187500.02235174447,-187500.02235174447,-187500.02235174447,-187500.02235174447,-187500.02235174447,1730243670.6929133,1730243670.1542692,4000
3445.320242085486,-187500.02235174447,168.3086357484622,-187500.02235174447,-187500.02235174447,-187500.02235174447,-187500.02235174447,-187500.02235174447,1730243670.695892,1730243670.1542692,4000
3471.583541820472,-187500.02235174447,207.46889203416012,-187500.02235174447,-187500.02235174447,-187500.02235174447,-187500.02235174447,-187500.02235174447,1730243670.700954,1730243670.1542692,4000
3476.92560874529,-187500.02235174447,245.44450586372685,-187500.02235174447,-187500.02235174447,-187500.02235174447,-187500.02235174447,-187500.02235174447,1730243670.705057,1730243670.1542692,4000
3455.222064879187,-187500.02235174447,211.5592612694813,-187500.02235174447,-187500.02235174447,-187500.02235174447,-187500.02235174447,-187500.02235174447,1730243670.7099452,1730243670.1542692,4000
3447.4213060642846,-187500.02235174447,169.38151948231692,-187500.02235174447,-187500.02235174447,-187500.02235174447,-187500.02235174447,-187500.02235174447,1730243670.7130325,1730243670.1542692,4000
3465.0344806950666,-187500.02235174447,196.36007503987256,-187500.02235174447,-187500.02235174447,-187500.02235174447,-187500.02235174447,-187500.02235174447,1730243670.7170613,1730243670.1542692,4000
3472.097631942944,-187500.02235174447,240.5271220835593,-187500.02235174447,-187500.02235174447,-187500.02235174447,-187500.02235174447,-187500.02235174447,1730243670.719911,1730243670.1542692,4000
3454.663271267804,-187500.02235174447,219.22590961765167,-187500.02235174447,-187500.02235174447,-187500.02235174447,-187500.02235174447,-187500.02235174447,1730243670.7239976,1730243670.1542692,4000
3438.7264774711703,-187500.02235174447,171.99667358358784,-187500.02235174447,-187500.02235174447,-187500.02235174447,-187500.02235174447,-187500.02235174447,1730243670.7279634,1730243670.1542692,4000
3450.930529943768,-187500.02235174447,182.636103944314,-187500.02235174447,-187500.02235174447,-187500.02235174447,-187500.02235174447,-187500.02235174447,1730243670.732074,1730243670.1542692,4000
3463.872189983391,-187500.02235174447,223.60685153089184,-187500.02235174447,-187500.02235174447,-187500.02235174447,-187500.02235174447,-187500.02235174447,1730243670.7351036,1730243670.1542692,4000
3461.771126004592,-187500.02235174447,222.73513349713488,-187500.02235174447,-187500.02235174447,-187500.02235174447,-187500.02235174447,-187500.02235174447,1730243670.739198,1730243670.1542692,4000
3442.928605428768,-187500.02235174447,175.17062129624145,-187500.02235174447,-187500.02235174447,-187500.02235174447,-187500.02235174447,-187500.02235174447,1730243670.7430713,1730243670.1542692,4000
3449.164742131799,-187500.02235174447,174.05303407347608,-187500.02235174447,-187500.02235174447,-187500.02235174447,-187500.02235174447,-187500.02235174447,1730243670.747275,1730243670.1542692,4000
3473.0364052100667,-187500.02235174447,225.0597149204868,-187500.02235174447,-187500.02235174447,-187500.02235174447,-187500.02235174447,-187500.02235174447,1730243670.752155,1730243670.1542692,4000
3470.6000650644382,-187500.02235174447,231.4299620902493,-187500.02235174447,-187500.02235174447,-187500.02235174447,-187500.02235174447,-187500.02235174447,1730243670.756179,1730243670.1542692,4000
3452.025765422078,-187500.02235174447,182.43493824421623,-187500.02235174447,-187500.02235174447,-187500.02235174447,-187500.02235174447,-187500.02235174447,1730243670.7602143,1730243670.1542692,4000
3451.6457857663377,-187500.02235174447,173.24837127308504,-187500.02235174447,-187500.02235174447,-187500.02235174447,-187500.02235174447,-187500.02235174447,1730243670.7643,1730243670.1542692,4000
3473.081108698977,-187500.02235174447,216.49899679410424,-187500.02235174447,-187500.02235174447,-187500.02235174447,-187500.02235174447,-187500.02235174447,1730243670.7681563,1730243670.1542692,4000
3470.1977336642426,-187500.02235174447,235.4532760922046,-187500.02235174447,-187500.02235174447,-187500.02235174447,-187500.02235174447,-187500.02235174447,1730243670.7732117,1730243670.1542692,4000
3447.3766025753744,-187500.02235174447,190.77213892604576,-187500.02235174447,-187500.02235174447,-187500.02235174447,-187500.02235174447,-187500.02235174447,1730243670.7770953,1730243670.1542692,4000
3449.455314809718,-187500.02235174447,169.76149913805713,-187500.02235174447,-187500.02235174447,-187500.02235174447,-187500.02235174447,-187500.02235174447,1730243670.781247,1730243670.1542692,4000
3471.538838331561,-187500.02235174447,209.45819729068248,-187500.02235174447,-187500.02235174447,-187500.02235174447,-187500.02235174447,-187500.02235174447,1730243670.7852557,1730243670.1542692,4000
3476.0538907115333,-187500.02235174447,237.50963658209284,-187500.02235174447,-187500.02235174447,-187500.02235174447,-187500.02235174447,-187500.02235174447,1730243670.7890823,1730243670.1542692,4000
3458.5301230585724,-187500.02235174447,203.69144722121325,-187500.02235174447,-187500.02235174447,-187500.02235174447,-187500.02235174447,-187500.02235174447,1730243670.8012135,1730243670.1542692,4000
3447.957747931212,-187500.02235174447,167.95100783717726,-187500.02235174447,-187500.02235174447,-187500.02235174447,-187500.02235174447,-187500.02235174447,1730243670.805144,1730243670.1542692,4000
3468.6331115523712,-187500.02235174447,200.2939820640066,-187500.02235174447,-187500.02235174447,-187500.02235174447,-187500.02235174447,-187500.02235174447,1730243670.8083117,1730243670.1542692,4000
3477.0150157231114,-187500.02235174447,239.2754243940621,-187500.02235174447,-187500.02235174447,-187500.02235174447,-187500.02235174447,-187500.02235174447,1730243670.812143,1730243670.1542692,4000
3459.357137603419,-187500.02235174447,211.3580955693836,-187500.02235174447,-187500.02235174447,-187500.02235174447,-187500.02235174447,-187500.02235174447,1730243670.8152435,1730243670.1542692,4000
3448.740058987148,-187500.02235174447,169.51562994904876,-187500.02235174447,-187500.02235174447,-187500.02235174447,-187500.02235174447,-187500.02235174447,1730243670.818238,1730243670.1542692,4000
3462.6875475272595,-187500.02235174447,191.64385695980275,-187500.02235174447,-187500.02235174447,-187500.02235174447,-187500.02235174447,-187500.02235174447,1730243670.822328,1730243670.1542692,4000
3465.772088262092,-187500.02235174447,228.56893879997003,-187500.02235174447,-187500.02235174447,-187500.02235174447,-187500.02235174447,-187500.02235174447,1730243670.8254218,1730243670.1542692,4000
3449.1423903873438,-187500.02235174447,216.700162494202,-187500.02235174447,-187500.02235174447,-187500.02235174447,-187500.02235174447,-187500.02235174447,1730243670.829285,1730243670.1542692,4000
3438.793532704536,-187500.02235174447,172.13078405031968,-187500.02235174447,-187500.02235174447,-187500.02235174447,-187500.02235174447,-187500.02235174447,1730243670.832394,1730243670.1542692,4000
3456.5855212909605,-187500.02235174447,178.7916038980012,-187500.02235174447,-187500.02235174447,-187500.02235174447,-187500.02235174447,-187500.02235174447,1730243670.8354225,1730243670.1542692,4000
3472.768184276603,-187500.02235174447,224.94795619821028,-187500.02235174447,-187500.02235174447,-187500.02235174447,-187500.02235174447,-187500.02235174447,1730243670.8382733,1730243670.1542692,4000
3470.6224168088934,-187500.02235174447,226.02083993206503,-187500.02235174447,-187500.02235174447,-187500.02235174447,-187500.02235174447,-187500.02235174447,1730243670.8424082,1730243670.1542692,4000
3451.82459972198,-187500.02235174447,178.36692075335037,-187500.02235174447,-187500.02235174447,-187500.02235174447,-187500.02235174447,-187500.02235174447,1730243670.845222,1730243670.1542692,4000
3453.523332300584,-187500.02235174447,175.19297304069676,-187500.02235174447,-187500.02235174447,-187500.02235174447,-187500.02235174447,-187500.02235174447,1730243670.8483903,1730243670.1542692,4000
3474.9810069776786,-187500.02235174447,220.634069518336,-187500.02235174447,-187500.02235174447,-187500.02235174447,-187500.02235174447,-187500.02235174447,1730243670.852298,1730243670.1542692,4000
3480.747757047148,-187500.02235174447,229.5077120670929,-187500.02235174447,-187500.02235174447,-187500.02235174447,-187500.02235174447,-187500.02235174447,1730243670.8563335,1730243670.1542692,4000
3479.11607970191,-187500.02235174447,187.6875981912134,-187500.02235174447,-187500.02235174447,-187500.02235174447,-187500.02235174447,-187500.02235174447,1730243670.8611825,1730243670.1542692,4000
3474.176344177288,-187500.02235174447,178.59043819790344,-187500.02235174447,-187500.02235174447,-187500.02235174447,-187500.02235174447,-187500.02235174447,1730243670.8642793,1730243670.1542692,4000
3488.704978073237,-187500.02235174447,221.5504910410036,-187500.02235174447,-187500.02235174447,-187500.02235174447,-187500.02235174447,-187500.02235174447,1730243670.8691652,1730243670.1542692,4000
3505.26762071462,-187500.02235174447,240.97415697266544,-187500.02235174447,-187500.02235174447,-187500.02235174447,-187500.02235174447,-187500.02235174447,1730243670.8722694,1730243670.1542692,4000
3443.353288573419,-187500.02235174447,198.84111867441163,-187500.02235174447,-187500.02235174447,-187500.02235174447,-187500.02235174447,-187500.02235174447,1730243670.8762715,1730243670.1542692,4000
3434.9713844026787,-187500.02235174447,169.91796134924428,-187500.02235174447,-187500.02235174447,-187500.02235174447,-187500.02235174447,-187500.02235174447,1730243670.8792925,1730243670.1542692,4000
3491.320132174508,-187500.02235174447,209.12292112385288,-187500.02235174447,-187500.02235174447,-187500.02235174447,-187500.02235174447,-187500.02235174447,1730243670.8832543,1730243670.1542692,4000
3517.963411565234,-187500.02235174447,239.52129358307047,-187500.02235174447,-187500.02235174447,-187500.02235174447,-187500.02235174447,-187500.02235174447,1730243670.8872774,1730243670.1542692,4000
3530.3239262490188,-187500.02235174447,210.4640257911713,-187500.02235174447,-187500.02235174447,-187500.02235174447,-187500.02235174447,-187500.02235174447,1730243670.8914845,1730243670.1542692,4000
3481.8429925254577,-187500.02235174447,178.12105156434197,-187500.02235174447,-187500.02235174447,-187500.02235174447,-187500.02235174447,-187500.02235174447,1730243670.8963757,1730243670.1542692,4000
3378.0861947639223,-187500.02235174447,205.50193852209316,-187500.02235174447,-187500.02235174447,-187500.02235174447,-187500.02235174447,-187500.02235174447,1730243670.8994544,1730243670.1542692,4000
3396.124052539355,-187500.02235174447,230.4241335897605,-187500.02235174447,-187500.02235174447,-187500.02235174447,-187500.02235174447,-187500.02235174447,1730243670.903252,1730243670.1542692,4000
3419.8839568953467,-187500.02235174447,210.1287496243417,-187500.02235174447,-187500.02235174447,-187500.02235174447,-187500.02235174447,-187500.02235174447,1730243670.9074404,1730243670.1542692,4000
3418.2075760611983,-187500.02235174447,169.0015398265767,-187500.02235174447,-187500.02235174447,-187500.02235174447,-187500.02235174447,-187500.02235174447,1730243670.9112475,1730243670.1542692,4000
3435.2619570805978,-187500.02235174447,182.2561242885738,-187500.02235174447,-187500.02235174447,-187500.02235174447,-187500.02235174447,-187500.02235174447,1730243670.9155786,1730243670.1542692,4000
3455.333823601464,-187500.02235174447,231.80994174598956,-187500.02235174447,-187500.02235174447,-187500.02235174447,-187500.02235174447,-187500.02235174447,1730243670.9193609,1730243670.1542692,4000
3446.5942915194382,-187500.02235174447,221.75165674110136,-187500.02235174447,-187500.02235174447,-187500.02235174447,-187500.02235174447,-187500.02235174447,1730243670.9243844,1730243670.1542692,4000
3447.287195597553,-187500.02235174447,168.6662636597471,-187500.02235174447,-187500.02235174447,-187500.02235174447,-187500.02235174447,-187500.02235174447,1730243670.9273465,1730243670.1542692,4000
3478.378472134885,-187500.02235174447,166.7887171255013,-187500.02235174447,-187500.02235174447,-187500.02235174447,-187500.02235174447,-187500.02235174447,1730243670.932462,1730243670.1542692,4000
3528.960469837245,-187500.02235174447,218.957688684188,-187500.02235174447,-187500.02235174447,-187500.02235174447,-187500.02235174447,-187500.02235174447,1730243670.9363008,1730243670.1542692,4000
3537.6105949414487,-187500.02235174447,206.55247051149257,-187500.02235174447,-187500.02235174447,-187500.02235174447,-187500.02235174447,-187500.02235174447,1730243670.9394915,1730243670.1542692,4000
3490.247248440653,-187500.02235174447,153.04239428548746,-187500.02235174447,-187500.02235174447,-187500.02235174447,-187500.02235174447,-187500.02235174447,1730243670.9434707,1730243670.1542692,4000
3488.7943850510583,-187500.02235174447,201.21040358667415,-187500.02235174447,-187500.02235174447,-187500.02235174447,-187500.02235174447,-187500.02235174447,1730243670.949499,1730243670.1542692,4000
3429.8528349224134,-187500.02235174447,244.0363459630425,-187500.02235174447,-187500.02235174447,-187500.02235174447,-187500.02235174447,-187500.02235174447,1730243670.9524117,1730243670.1542692,4000
3391.6984071372044,-187500.02235174447,232.9945842021208,-187500.02235174447,-187500.02235174447,-187500.02235174447,-187500.02235174447,-187500.02235174447,1730243670.9554076,1730243670.1542692,4000
3397.420453717763,-187500.02235174447,180.088005076409,-187500.02235174447,-187500.02235174447,-187500.02235174447,-187500.02235174447,-187500.02235174447,1730243670.961335,1730243670.1542692,4000
3410.0044858461006,-187500.02235174447,169.56033343795937,-187500.02235174447,-187500.02235174447,-187500.02235174447,-187500.02235174447,-187500.02235174447,1730243670.9644823,1730243670.1542692,4000
3429.003468633112,-187500.02235174447,218.2200811171629,-187500.02235174447,-187500.02235174447,-187500.02235174447,-187500.02235174447,-187500.02235174447,1730243670.9685285,1730243670.1542692,4000
3429.942241900235,-187500.02235174447,248.64080532083577,-187500.02235174447,-187500.02235174447,-187500.02235174447,-187500.02235174447,-187500.02235174447,1730243670.9715672,1730243670.1542692,4000
3422.5661662299835,-187500.02235174447,204.3843512993278,-187500.02235174447,-187500.02235174447,-187500.02235174447,-187500.02235174447,-187500.02235174447,1730243670.9754243,1730243670.1542692,4000
3425.5836517314497,-187500.02235174447,174.0977375623867,-187500.02235174447,-187500.02235174447,-187500.02235174447,-187500.02235174447,-187500.02235174447,1730243670.9784048,1730243670.1542692,4000
3467.0684894405,-187500.02235174447,194.6166389723586,-187500.02235174447,-187500.02235174447,-187500.02235174447,-187500.02235174447,-187500.02235174447,1730243670.9824965,1730243670.1542692,4000
3495.432853154284,-187500.02235174447,210.82165370245625,-187500.02235174447,-187500.02235174447,-187500.02235174447,-187500.02235174447,-187500.02235174447,1730243670.986388,1730243670.1542692,4000
3442.1909978617427,-187500.02235174447,194.4825285056268,-187500.02235174447,-187500.02235174447,-187500.02235174447,-187500.02235174447,-187500.02235174447,1730243670.9914317,1730243670.1542692,4000
3429.5622622444944,-187500.02235174447,193.61081047186977,-187500.02235174447,-187500.02235174447,-187500.02235174447,-187500.02235174447,-187500.02235174447,1730243670.9954028,1730243670.1542692,4000
3491.0519112410443,-187500.02235174447,179.68567367621347,-187500.02235174447,-187500.02235174447,-187500.02235174447,-187500.02235174447,-187500.02235174447,1730243670.9995332,1730243670.1542692,4000
3613.919450511867,-187500.02235174447,149.3767081948171,-187500.02235174447,-187500.02235174447,-187500.02235174447,-187500.02235174447,-187500.02235174447,1730243671.0034437,1730243670.1542692,4000
3659.137029544953,-187500.02235174447,140.03367901249874,-187500.02235174447,-187500.02235174447,-187500.02235174447,-187500.02235174447,-187500.02235174447,1730243671.006598,1730243670.1542692,4000
3448.9412246872457,-187500.02235174447,213.28034559254,-187500.02235174447,-187500.02235174447,-187500.02235174447,-187500.02235174447,-187500.02235174447,1730243671.0114465,1730243670.1542692,4000
3263.913484086214,-187500.02235174447,298.99928557864257,-187500.02235174447,-187500.02235174447,-187500.02235174447,-187500.02235174447,-187500.02235174447,1730243671.016594,1730243670.1542692,4000
3307.901717174258,-187500.02235174447,313.3267537744944,-187500.02235174447,-187500.02235174447,-187500.02235174447,-187500.02235174447,-187500.02235174447,1730243671.020481,1730243670.1542692,4000
3371.8947615498023,-187500.02235174447,225.5514532985036,-187500.02235174447,-187500.02235174447,-187500.02235174447,-187500.02235174447,-187500.02235174447,1730243671.023649,1730243670.1542692,4000
3573.3510343254848,-187500.02235174447,130.33302191889547,-187500.02235174447,-187500.02235174447,-187500.02235174447,-187500.02235174447,-187500.02235174447,1730243671.0284865,1730243670.1542692,4000
3684.0368728681656,-187500.02235174447,134.8033708099569,-187500.02235174447,-187500.02235174447,-187500.02235174447,-187500.02235174447,-187500.02235174447,1730243671.0326352,1730243670.1542692,4000
3524.8924523463797,-187500.02235174447,259.9060845263105,-187500.02235174447,-187500.02235174447,-187500.02235174447,-187500.02235174447,-187500.02235174447,1730243671.03652,1730243670.1542692,4000
3316.7977114674704,-187500.02235174447,311.67272468480166,-187500.02235174447,-187500.02235174447,-187500.02235174447,-187500.02235174447,-187500.02235174447,1730243671.039679,1730243670.1542692,4000
3331.1028279188668,-187500.02235174447,179.99859809858776,-187500.02235174447,-187500.02235174447,-187500.02235174447,-187500.02235174447,-187500.02235174447,1730243671.0426505,1730243670.1542692,4000
3462.7098992717147,-187500.02235174447,130.48948413008264,-187500.02235174447,-187500.02235174447,-187500.02235174447,-187500.02235174447,-187500.02235174447,1730243671.0466373,1730243670.1542692,4000
3520.7797313666024,-187500.02235174447,250.25013092161788,-187500.02235174447,-187500.02235174447,-187500.02235174447,-187500.02235174447,-187500.02235174447,1730243671.0515091,1730243670.1542692,4000
3440.805189705514,-187500.02235174447,290.08093954097507,-187500.02235174447,-187500.02235174447,-187500.02235174447,-187500.02235174447,-187500.02235174447,1730243671.0555713,1730243670.1542692,4000
3338.031868700012,-187500.02235174447,274.3229596999836,-187500.02235174447,-187500.02235174447,-187500.02235174447,-187500.02235174447,-187500.02235174447,1730243671.0596883,1730243670.1542692,4000
3365.748031824593,-187500.02235174447,190.8391941594117,-187500.02235174447,-187500.02235174447,-187500.02235174447,-187500.02235174447,-187500.02235174447,1730243671.0625756,1730243670.1542692,4000
3404.0812735654445,-187500.02235174447,159.45734494416058,-187500.02235174447,-187500.02235174447,-187500.02235174447,-187500.02235174447,-187500.02235174447,1730243671.0665512,1730243670.1542692,4000
3495.008170009633,-187500.02235174447,155.18816175319694,-187500.02235174447,-187500.02235174447,-187500.02235174447,-187500.02235174447,-187500.02235174447,1730243671.0725667,1730243670.1542692,4000
3484.704015815737,-187500.02235174447,176.82465038593418,-187500.02235174447,-187500.02235174447,-187500.02235174447,-187500.02235174447,-187500.02235174447,1730243671.0756464,1730243670.1542692,4000
3365.9268457802355,-187500.02235174447,183.82074640044527,-187500.02235174447,-187500.02235174447,-187500.02235174447,-187500.02235174447,-187500.02235174447,1730243671.0796025,1730243670.1542692,4000
3403.880107865347,-187500.02235174447,205.52429026654843,-187500.02235174447,-187500.02235174447,-187500.02235174447,-187500.02235174447,-187500.02235174447,1730243671.0836587,1730243670.1542692,4000
3470.510658086617,-187500.02235174447,217.61658401686955,-187500.02235174447,-187500.02235174447,-187500.02235174447,-187500.02235174447,-187500.02235174447,1730243671.08771,1730243670.1542692,4000
3422.365000529885,-187500.02235174447,218.26478460607348,-187500.02235174447,-187500.02235174447,-187500.02235174447,-187500.02235174447,-187500.02235174447,1730243671.0906644,1730243670.1542692,4000
3459.1783236477763,-187500.02235174447,144.0346412699987,-187500.02235174447,-187500.02235174447,-187500.02235174447,-187500.02235174447,-187500.02235174447,1730243671.0945797,1730243670.1542692,4000
3533.0955425614766,-187500.02235174447,200.0257611305429,-187500.02235174447,-187500.02235174447,-187500.02235174447,-187500.02235174447,-187500.02235174447,1730243671.0987823,1730243670.1542692,4000
3499.255001456142,-187500.02235174447,286.0576255390198,-187500.02235174447,-187500.02235174447,-187500.02235174447,-187500.02235174447,-187500.02235174447,1730243671.1028605,1730243670.1542692,4000
3441.140465872344,-187500.02235174447,256.7321368136569,-187500.02235174447,-187500.02235174447,-187500.02235174447,-187500.02235174447,-187500.02235174447,1730243671.1066372,1730243670.1542692,4000
3413.58076495895,-187500.02235174447,217.2366043611293,-187500.02235174447,-187500.02235174447,-187500.02235174447,-187500.02235174447,-187500.02235174447,1730243671.1116064,1730243670.1542692,4000
3444.2697100960863,-187500.02235174447,230.0665056784756,-187500.02235174447,-187500.02235174447,-187500.02235174447,-187500.02235174447,-187500.02235174447,1730243671.1146984,1730243670.1542692,4000
3441.207521105709,-187500.02235174447,240.59417731692523,-187500.02235174447,-187500.02235174447,-187500.02235174447,-187500.02235174447,-187500.02235174447,1730243671.1188016,1730243670.1542692,4000
3475.226876166687,-187500.02235174447,159.56910366643712,-187500.02235174447,-187500.02235174447,-187500.02235174447,-187500.02235174447,-187500.02235174447,1730243671.122678,1730243670.1542692,4000
3487.386225150374,-187500.02235174447,154.49525767508243,-187500.02235174447,-187500.02235174447,-187500.02235174447,-187500.02235174447,-187500.02235174447,1730243671.1267672,1730243670.1542692,4000
3518.499853432161,-187500.02235174447,237.9119679822884,-187500.02235174447,-187500.02235174447,-187500.02235174447,-187500.02235174447,-187500.02235174447,1730243671.1307569,1730243670.1542692,4000
3463.581617305472,-187500.02235174447,282.9283813152768,-187500.02235174447,-187500.02235174447,-187500.02235174447,-187500.02235174447,-187500.02235174447,1730243671.1348042,1730243670.1542692,4000
3393.799471116003,-187500.02235174447,241.4658953506822,-187500.02235174447,-187500.02235174447,-187500.02235174447,-187500.02235174447,-187500.02235174447,1730243671.1396663,1730243670.1542692,4000
3454.551512545528,-187500.02235174447,178.85865913136712,-187500.02235174447,-187500.02235174447,-187500.02235174447,-187500.02235174447,-187500.02235174447,1730243671.1427565,1730243670.1542692,4000
3545.925443878823,-187500.02235174447,221.1258078963528,-187500.02235174447,-187500.02235174447,-187500.02235174447,-187500.02235174447,-187500.02235174447,1730243671.1467688,1730243670.1542692,4000
3439.128808871366,-187500.02235174447,305.79421589305593,-187500.02235174447,-187500.02235174447,-187500.02235174447,-187500.02235174447,-187500.02235174447,1730243671.150764,1730243670.1542692,4000
3331.1251796633223,-187500.02235174447,312.00800085163127,-187500.02235174447,-187500.02235174447,-187500.02235174447,-187500.02235174447,-187500.02235174447,1730243671.1604133,1730243670.1542692,4000
3330.7228482631267,-187500.02235174447,156.77513560952374,-187500.02235174447,-187500.02235174447,-187500.02235174447,-187500.02235174447,-187500.02235174447,1730243671.1607285,1730243670.1542692,4000
3472.410556365318,-187500.02235174447,105.7013995291471,-187500.02235174447,-187500.02235174447,-187500.02235174447,-187500.02235174447,-187500.02235174447,1730243671.1628575,1730243670.1542692,4000
3532.670859416826,-187500.02235174447,147.94619654967744,-187500.02235174447,-187500.02235174447,-187500.02235174447,-187500.02235174447,-187500.02235174447,1730243671.1678064,1730243670.1542692,4000
3583.834002475024,-187500.02235174447,216.83427296093384,-187500.02235174447,-187500.02235174447,-187500.02235174447,-187500.02235174447,-187500.02235174447,1730243671.1737833,1730243670.1542692,4000
3507.6145538824267,-187500.02235174447,186.3911970128056,-187500.02235174447,-187500.02235174447,-187500.02235174447,-187500.02235174447,-187500.02235174447,1730243671.1747203,1730243670.1542692,4000
3483.5864285929715,-187500.02235174447,163.74887987957953,-187500.02235174447,-187500.02235174447,-187500.02235174447,-187500.02235174447,-187500.02235174447,1730243671.1818874,1730243670.1542692,4000
3522.120836033921,-187500.02235174447,254.34050015693907,-187500.02235174447,-187500.02235174447,-187500.02235174447,-187500.02235174447,-187500.02235174447,1730243671.18272,1730243670.1542692,4000
3457.2337218801645,-187500.02235174447,346.02735591260864,-187500.02235174447,-187500.02235174447,-187500.02235174447,-187500.02235174447,-187500.02235174447,1730243671.1868165,1730243670.1542692,4000
3387.9209623242573,-187500.02235174447,261.0907269824418,-187500.02235174447,-187500.02235174447,-187500.02235174447,-187500.02235174447,-187500.02235174447,1730243671.1907303,1730243670.1542692,4000
3450.192922376743,-187500.02235174447,168.57685668192588,-187500.02235174447,-187500.02235174447,-187500.02235174447,-187500.02235174447,-187500.02235174447,1730243671.1958945,1730243670.1542692,4000
3486.2015826942425,-187500.02235174447,149.82374308392323,-187500.02235174447,-187500.02235174447,-187500.02235174447,-187500.02235174447,-187500.02235174447,1730243671.1987453,1730243670.1542692,4000
3525.630059913404,-187500.02235174447,192.13559533781952,-187500.02235174447,-187500.02235174447,-187500.02235174447,-187500.02235174447,-187500.02235174447,1730243671.2055943,1730243670.1542692,4000
3497.4892136441727,-187500.02235174447,279.64267488034665,-187500.02235174447,-187500.02235174447,-187500.02235174447,-187500.02235174447,-187500.02235174447,1730243671.2074368,1730243670.1542692,4000
3436.424247792274,-187500.02235174447,210.03934264652048,-187500.02235174447,-187500.02235174447,-187500.02235174447,-187500.02235174447,-187500.02235174447,1730243671.210948,1730243670.1542692,4000
3454.4621055677067,-187500.02235174447,168.93448459321078,-187500.02235174447,-187500.02235174447,-187500.02235174447,-187500.02235174447,-187500.02235174447,1730243671.2148817,1730243670.1542692,4000
3561.0128713861554,-187500.02235174447,237.55434007100345,-187500.02235174447,-187500.02235174447,-187500.02235174447,-187500.02235174447,-187500.02235174447,1730243671.2220268,1730243670.1542692,4000
3562.7786591981244,-187500.02235174447,202.95383965418813,-187500.02235174447,-187500.02235174447,-187500.02235174447,-187500.02235174447,-187500.02235174447,1730243671.2227993,1730243670.1542692,4000
3464.095707427944,-187500.02235174447,124.3651061493285,-187500.02235174447,-187500.02235174447,-187500.02235174447,-187500.02235174447,-187500.02235174447,1730243671.2267027,1730243670.1542692,4000
3420.1074743398995,-187500.02235174447,204.9431449107105,-187500.02235174447,-187500.02235174447,-187500.02235174447,-187500.02235174447,-187500.02235174447,1730243671.2318609,1730243670.1542692,4000
3510.9226120618123,-187500.02235174447,290.41621570780467,-187500.02235174447,-187500.02235174447,-187500.02235174447,-187500.02235174447,-187500.02235174447,1730243671.2349937,1730243670.1542692,4000
3473.6846057992707,-187500.02235174447,285.52118367209243,-187500.02235174447,-187500.02235174447,-187500.02235174447,-187500.02235174447,-187500.02235174447,1730243671.2404652,1730243670.1542692,4000
3386.579857656939,-187500.02235174447,249.0654884654866,-187500.02235174447,-187500.02235174447,-187500.02235174447,-187500.02235174447,-187500.02235174447,1730243671.2428524,1730243670.1542692,4000
3375.38163368483,-187500.02235174447,226.42317133226052,-187500.02235174447,-187500.02235174447,-187500.02235174447,-187500.02235174447,-187500.02235174447,1730243671.24692,1730243670.1542692,4000
3418.1181690833773,-187500.02235174447,251.25595942210668,-187500.02235174447,-187500.02235174447,-187500.02235174447,-187500.02235174447,-187500.02235174447,1730243671.2508683,1730243670.1542692,4000
3475.4950971001504,-187500.02235174447,217.88480495033323,-187500.02235174447,-187500.02235174447,-187500.02235174447,-187500.02235174447,-187500.02235174447,1730243671.2539146,1730243670.1542692,4000
3470.644768553349,-187500.02235174447,185.65358944578043,-187500.02235174447,-187500.02235174447,-187500.02235174447,-187500.02235174447,-187500.02235174447,1730243671.2579064,1730243670.1542692,4000
3508.9333068052897,-187500.02235174447,161.4242984562276,-187500.02235174447,-187500.02235174447,-187500.02235174447,-187500.02235174447,-187500.02235174447,1730243671.26565,1730243670.1542692,4000
3463.5592655610167,-187500.02235174447,252.6194158338804,-187500.02235174447,-187500.02235174447,-187500.02235174447,-187500.02235174447,-187500.02235174447,1730243671.2669091,1730243670.1542692,4000
3404.7965293880143,-187500.02235174447,369.49668759068106,-187500.02235174447,-187500.02235174447,-187500.02235174447,-187500.02235174447,-187500.02235174447,1730243671.272676,1730243670.1542692,4000
3364.7869068130144,-187500.02235174447,338.2042453532512,-187500.02235174447,-187500.02235174447,-187500.02235174447,-187500.02235174447,-187500.02235174447,1730243671.2748635,1730243670.1542692,4000
3453.098649155933,-187500.02235174447,171.81785962794538,-187500.02235174447,-187500.02235174447,-187500.02235174447,-187500.02235174447,-187500.02235174447,1730243671.27792,1730243670.1542692,4000
3503.546536391561,-187500.02235174447,110.1493966757532,-187500.02235174447,-187500.02235174447,-187500.02235174447,-187500.02235174447,-187500.02235174447,1730243671.281974,1730243670.1542692,4000
3461.413498093307,-187500.02235174447,189.49808949209327,-187500.02235174447,-187500.02235174447,-187500.02235174447,-187500.02235174447,-187500.02235174447,1730243671.287632,1730243670.1542692,4000
3415.972401615668,-187500.02235174447,251.77004954457877,-187500.02235174447,-187500.02235174447,-187500.02235174447,-187500.02235174447,-187500.02235174447,1730243671.2909212,1730243670.1542692,4000
3445.275538596575,-187500.02235174447,195.153080839286,-187500.02235174447,-187500.02235174447,-187500.02235174447,-187500.02235174447,-187500.02235174447,1730243671.2949317,1730243670.1542692,4000
3453.5680357894944,-187500.02235174447,204.47375827714905,-187500.02235174447,-187500.02235174447,-187500.02235174447,-187500.02235174447,-187500.02235174447,1730243671.2989998,1730243670.1542692,4000
3550.0158131141443,-187500.02235174447,250.5183518550816,-187500.02235174447,-187500.02235174447,-187500.02235174447,-187500.02235174447,-187500.02235174447,1730243671.30715,1730243670.1542692,4000
3511.056722528544,-187500.02235174447,250.56305534399215,-187500.02235174447,-187500.02235174447,-187500.02235174447,-187500.02235174447,-187500.02235174447,1730243671.3071733,1730243670.1542692,4000
3336.288432632498,-187500.02235174447,212.6321450033361,-187500.02235174447,-187500.02235174447,-187500.02235174447,-187500.02235174447,-187500.02235174447,1730243671.3136077,1730243670.1542692,4000
3385.976360556646,-187500.02235174447,200.2716303195513,-187500.02235174447,-187500.02235174447,-187500.02235174447,-187500.02235174447,-187500.02235174447,1730243671.3144844,1730243670.1542692,4000
3507.6145538824267,-187500.02235174447,204.98784839962107,-187500.02235174447,-187500.02235174447,-187500.02235174447,-187500.02235174447,-187500.02235174447,1730243671.3179705,1730243670.1542692,4000
3559.984691141211,-187500.02235174447,214.5320432820372,-187500.02235174447,-187500.02235174447,-187500.02235174447,-187500.02235174447,-187500.02235174447,1730243671.3229616,1730243670.1542692,4000
3447.0413264085446,-187500.02235174447,192.00148487108763,-187500.02235174447,-187500.02235174447,-187500.02235174447,-187500.02235174447,-187500.02235174447,1730243671.327085,1730243670.1542692,4000
3386.1104710233776,-187500.02235174447,246.80796227550056,-187500.02235174447,-187500.02235174447,-187500.02235174447,-187500.02235174447,-187500.02235174447,1730243671.3310845,1730243670.1542692,4000
3467.336710373964,-187500.02235174447,269.182058475263,-187500.02235174447,-187500.02235174447,-187500.02235174447,-187500.02235174447,-187500.02235174447,1730243671.3351064,1730243670.1542692,4000
3449.0529834095223,-187500.02235174447,256.0168809910871,-187500.02235174447,-187500.02235174447,-187500.02235174447,-187500.02235174447,-187500.02235174447,1730243671.3381553,1730243670.1542692,4000
3401.8908026088243,-187500.02235174447,224.6573835202913,-187500.02235174447,-187500.02235174447,-187500.02235174447,-187500.02235174447,-187500.02235174447,1730243671.344098,1730243670.1542692,4000
3458.038384680556,-187500.02235174447,175.59530444089228,-187500.02235174447,-187500.02235174447,-187500.02235174447,-187500.02235174447,-187500.02235174447,1730243671.347133,1730243670.1542692,4000
3459.1336201588656,-187500.02235174447,211.8945374363109,-187500.02235174447,-187500.02235174447,-187500.02235174447,-187500.02235174447,-187500.02235174447,1730243671.3512812,1730243670.1542692,4000
3446.840160708447,-187500.02235174447,260.5766368599697,-187500.02235174447,-187500.02235174447,-187500.02235174447,-187500.02235174447,-187500.02235174447,1730243671.3562052,1730243670.1542692,4000
3460.2065038927203,-187500.02235174447,196.71770295115743,-187500.02235174447,-187500.02235174447,-187500.02235174447,-187500.02235174447,-187500.02235174447,1730243671.3592324,1730243670.1542692,4000
3405.645895677316,-187500.02235174447,207.3347815674283,-187500.02235174447,-187500.02235174447,-187500.02235174447,-187500.02235174447,-187500.02235174447,1730243671.363296,1730243670.1542692,4000
3399.4768142076514,-187500.02235174447,247.72438379816816,-187500.02235174447,-187500.02235174447,-187500.02235174447,-187500.02235174447,-187500.02235174447,1730243671.366296,1730243670.1542692,4000
3427.930584899257,-187500.02235174447,278.212163235207,-187500.02235174447,-187500.02235174447,-187500.02235174447,-187500.02235174447,-187500.02235174447,1730243671.3701825,1730243670.1542692,4000
3407.165814300277,-187500.02235174447,237.7108022821906,-187500.02235174447,-187500.02235174447,-187500.02235174447,-187500.02235174447,-187500.02235174447,1730243671.3743036,1730243670.1542692,4000
3429.4952070111285,-187500.02235174447,193.4319965162273,-187500.02235174447,-187500.02235174447,-187500.02235174447,-187500.02235174447,-187500.02235174447,1730243671.378175,1730243670.1542692,4000
3447.6895269977485,-187500.02235174447,205.03255188853169,-187500.02235174447,-187500.02235174447,-187500.02235174447,-187500.02235174447,-187500.02235174447,1730243671.3831844,1730243670.1542692,4000
3417.782892916548,-187500.02235174447,237.21906390417385,-187500.02235174447,-187500.02235174447,-187500.02235174447,-187500.02235174447,-187500.02235174447,1730243671.3862872,1730243670.1542692,4000
3448.6283002648715,-187500.02235174447,208.07238913445343,-187500.02235174447,-187500.02235174447,-187500.02235174447,-187500.02235174447,-187500.02235174447,1730243671.3902657,1730243670.1542692,4000
3454.864436967902,-187500.02235174447,185.29596153449555,-187500.02235174447,-187500.02235174447,-187500.02235174447,-187500.02235174447,-187500.02235174447,1730243671.394344,1730243670.1542692,4000
3477.596161078949,-187500.02235174447,201.12099660885292,-187500.02235174447,-187500.02235174447,-187500.02235174447,-187500.02235174447,-187500.02235174447,1730243671.398404,1730243670.1542692,4000
3421.2027098182098,-187500.02235174447,252.5300088560592,-187500.02235174447,-187500.02235174447,-187500.02235174447,-187500.02235174447,-187500.02235174447,1730243671.4023812,1730243670.1542692,4000
3401.8460991199136,-187500.02235174447,272.534820143559,-187500.02235174447,-187500.02235174447,-187500.02235174447,-187500.02235174447,-187500.02235174447,1730243671.406273,1730243670.1542692,4000
3400.48264270814,-187500.02235174447,228.7254010111572,-187500.02235174447,-187500.02235174447,-187500.02235174447,-187500.02235174447,-187500.02235174447,1730243671.4112315,1730243670.1542692,4000
3446.7954572195363,-187500.02235174447,197.1870895847189,-187500.02235174447,-187500.02235174447,-187500.02235174447,-187500.02235174447,-187500.02235174447,1730243671.4142451,1730243670.1542692,4000
3487.4309286392845,-187500.02235174447,222.26574686357344,-187500.02235174447,-187500.02235174447,-187500.02235174447,-187500.02235174447,-187500.02235174447,1730243671.4183288,1730243670.1542692,4000
3498.8750218004016,-187500.02235174447,256.95565425821,-187500.02235174447,-187500.02235174447,-187500.02235174447,-187500.02235174447,-187500.02235174447,1730243671.4222667,1730243670.1542692,4000
3400.192070030221,-187500.02235174447,222.8021887305008,-187500.02235174447,-187500.02235174447,-187500.02235174447,-187500.02235174447,-187500.02235174447,1730243671.4264028,1730243670.1542692,4000
3384.6352558893277,-187500.02235174447,209.7487699686015,-187500.02235174447,-187500.02235174447,-187500.02235174447,-187500.02235174447,-187500.02235174447,1730243671.43045,1730243670.1542692,4000
3407.277573022553,-187500.02235174447,257.1121164693972,-187500.02235174447,-187500.02235174447,-187500.02235174447,-187500.02235174447,-187500.02235174447,1730243671.4344554,1730243670.1542692,4000
3413.8489858924136,-187500.02235174447,244.23751166314028,-187500.02235174447,-187500.02235174447,-187500.02235174447,-187500.02235174447,-187500.02235174447,1730243671.4394903,1730243670.1542692,4000
3367.491467892107,-187500.02235174447,211.64866824730257,-187500.02235174447,-187500.02235174447,-187500.02235174447,-187500.02235174447,-187500.02235174447,1730243671.442486,1730243670.1542692,4000
3417.872299894369,-187500.02235174447,169.9403130936996,-187500.02235174447,-187500.02235174447,-187500.02235174447,-187500.02235174447,-187500.02235174447,1730243671.4463384,1730243670.1542692,4000
3505.401731181352,-187500.02235174447,207.6924094787132,-187500.02235174447,-187500.02235174447,-187500.02235174447,-187500.02235174447,-187500.02235174447,1730243671.4504278,1730243670.1542692,4000
3470.421251108796,-187500.02235174447,275.3958434338383,-187500.02235174447,-187500.02235174447,-187500.02235174447,-187500.02235174447,-187500.02235174447,1730243671.4542837,1730243670.1542692,4000
3437.6982972262263,-187500.02235174447,227.18313064374095,-187500.02235174447,-187500.02235174447,-187500.02235174447,-187500.02235174447,-187500.02235174447,1730243671.4583535,1730243670.1542692,4000
3374.867543562358,-187500.02235174447,198.1035111073865,-187500.02235174447,-187500.02235174447,-187500.02235174447,-187500.02235174447,-187500.02235174447,1730243671.464429,1730243670.1542692,4000
3395.833479861436,-187500.02235174447,234.4027441028052,-187500.02235174447,-187500.02235174447,-187500.02235174447,-187500.02235174447,-187500.02235174447,1730243671.4674623,1730243670.1542692,4000
3391.743110626115,-187500.02235174447,257.5591513585033,-187500.02235174447,-187500.02235174447,-187500.02235174447,-187500.02235174447,-187500.02235174447,1730243671.4713247,1730243670.1542692,4000
3418.878128394858,-187500.02235174447,193.6778657052357,-187500.02235174447,-187500.02235174447,-187500.02235174447,-187500.02235174447,-187500.02235174447,1730243671.474512,1730243670.1542692,4000
3466.129716173377,-187500.02235174447,142.96175753614398,-187500.02235174447,-187500.02235174447,-187500.02235174447,-187500.02235174447,-187500.02235174447,1730243671.4784062,1730243670.1542692,4000
3525.5630046800384,-187500.02235174447,225.81967423196724,-187500.02235174447,-187500.02235174447,-187500.02235174447,-187500.02235174447,-187500.02235174447,1730243671.4825244,1730243670.1542692,4000
3498.897373544857,-187500.02235174447,277.2510382236288,-187500.02235174447,-187500.02235174447,-187500.02235174447,-187500.02235174447,-187500.02235174447,1730243671.4863083,1730243670.1542692,4000
3340.736429779104,-187500.02235174447,259.9060845263105,-187500.02235174447,-187500.02235174447,-187500.02235174447,-187500.02235174447,-187500.02235174447,1730243671.4904249,1730243670.1542692,4000
3354.840380530403,-187500.02235174447,194.0354936165206,-187500.02235174447,-187500.02235174447,-187500.02235174447,-187500.02235174447,-187500.02235174447,1730243671.4944625,1730243670.1542692,4000
3387.4962791796065,-187500.02235174447,198.55054599649264,-187500.02235174447,-187500.02235174447,-187500.02235174447,-187500.02235174447,-187500.02235174447,1730243671.4973557,1730243670.1542692,4000
3413.3348957699413,-187500.02235174447,238.78368601604532,-187500.02235174447,-187500.02235174447,-187500.02235174447,-187500.02235174447,-187500.02235174447,1730243671.5013635,1730243670.1542692,4000
3407.4340352337404,-187500.02235174447,227.85368297740015,-187500.02235174447,-187500.02235174447,-187500.02235174447,-187500.02235174447,-187500.02235174447,1730243671.50653,1730243670.1542692,4000
3393.3077327379865,-187500.02235174447,185.8324034014229,-187500.02235174447,-187500.02235174447,-187500.02235174447,-187500.02235174447,-187500.02235174447,1730243671.5105634,1730243670.1542692,4000
3396.302866494997,-187500.02235174447,209.7711217130568,-187500.02235174447,-187500.02235174447,-187500.02235174447,-187500.02235174447,-187500.02235174447,1730243671.5145605,1730243670.1542692,4000
3438.100628626422,-187500.02235174447,247.92554949826595,-187500.02235174447,-187500.02235174447,-187500.02235174447,-187500.02235174447,-187500.02235174447,1730243671.5185316,1730243670.1542692,4000
3435.574881502972,-187500.02235174447,273.0936137549417,-187500.02235174447,-187500.02235174447,-187500.02235174447,-187500.02235174447,-187500.02235174447,1730243671.52255,1730243670.1542692,4000
3383.6294273888384,-187500.02235174447,191.64385695980275,-187500.02235174447,-187500.02235174447,-187500.02235174447,-187500.02235174447,-187500.02235174447,1730243671.5255709,1730243670.1542692,4000
3370.710119093671,-187500.02235174447,157.80331585446783,-187500.02235174447,-187500.02235174447,-187500.02235174447,-187500.02235174447,-187500.02235174447,1730243671.5294173,1730243670.1542692,4000
3423.124959841366,-187500.02235174447,198.88582216332225,-187500.02235174447,-187500.02235174447,-187500.02235174447,-187500.02235174447,-187500.02235174447,1730243671.5345612,1730243670.1542692,4000
3530.659202415848,-187500.02235174447,212.6544967477914,-187500.02235174447,-187500.02235174447,-187500.02235174447,-187500.02235174447,-187500.02235174447,1730243671.538512,1730243670.1542692,4000
3459.670062025793,-187500.02235174447,246.8526657644112,-187500.02235174447,-187500.02235174447,-187500.02235174447,-187500.02235174447,-187500.02235174447,1730243671.5425856,1730243670.1542692,4000
3380.030796531534,-187500.02235174447,245.42215411927157,-187500.02235174447,-187500.02235174447,-187500.02235174447,-187500.02235174447,-187500.02235174447,1730243671.5466294,1730243670.1542692,4000
3490.247248440653,-187500.02235174447,241.7564680286012,-187500.02235174447,-187500.02235174447,-187500.02235174447,-187500.02235174447,-187500.02235174447,1730243671.5505,1730243670.1542692,4000
3522.5902226674825,-187500.02235174447,218.2200811171629,-187500.02235174447,-187500.02235174447,-187500.02235174447,-187500.02235174447,-187500.02235174447,1730243671.5534403,1730243670.1542692,4000
3281.9289901171915,-187500.02235174447,203.73615071012387,-187500.02235174447,-187500.02235174447,-187500.02235174447,-187500.02235174447,-187500.02235174447,1730243671.5575745,1730243670.1542692,4000
3322.0056679255567,-187500.02235174447,204.65257223279147,-187500.02235174447,-187500.02235174447,-187500.02235174447,-187500.02235174447,-187500.02235174447,1730243671.562482,1730243670.1542692,4000
3421.336820284941,-187500.02235174447,204.3396478104172,-187500.02235174447,-187500.02235174447,-187500.02235174447,-187500.02235174447,-187500.02235174447,1730243671.5666463,1730243670.1542692,4000
3367.0220812585453,-187500.02235174447,264.6670060952909,-187500.02235174447,-187500.02235174447,-187500.02235174447,-187500.02235174447,-187500.02235174447,1730243671.5705223,1730243670.1542692,4000
3357.4331828872187,-187500.02235174447,235.96736621467667,-187500.02235174447,-187500.02235174447,-187500.02235174447,-187500.02235174447,-187500.02235174447,1730243671.5747972,1730243670.1542692,4000
3401.264953764076,-187500.02235174447,187.3746737688391,-187500.02235174447,-187500.02235174447,-187500.02235174447,-187500.02235174447,-187500.02235174447,1730243671.577636,1730243670.1542692,4000
3425.024858120067,-187500.02235174447,204.49611002160432,-187500.02235174447,-187500.02235174447,-187500.02235174447,-187500.02235174447,-187500.02235174447,1730243671.5818248,1730243670.1542692,4000
3428.422323277274,-187500.02235174447,237.50963658209284,-187500.02235174447,-187500.02235174447,-187500.02235174447,-187500.02235174447,-187500.02235174447,1730243671.585708,1730243670.1542692,4000
3421.135654584844,-187500.02235174447,233.3298603689504,-187500.02235174447,-187500.02235174447,-187500.02235174447,-187500.02235174447,-187500.02235174447,1730243671.5906992,1730243670.1542692,4000
3396.2134595171765,-187500.02235174447,201.9480111536993,-187500.02235174447,-187500.02235174447,-187500.02235174447,-187500.02235174447,-187500.02235174447,1730243671.5945504,1730243670.1542692,4000
3413.647820192316,-187500.02235174447,196.29301980650663,-187500.02235174447,-187500.02235174447,-187500.02235174447,-187500.02235174447,-187500.02235174447,1730243671.5987,1730243670.1542692,4000
3432.4232855347736,-187500.02235174447,223.4280375752494,-187500.02235174447,-187500.02235174447,-187500.02235174447,-187500.02235174447,-187500.02235174447,1730243671.6027472,1730243670.1542692,4000
3468.2754836410863,-187500.02235174447,264.8681717953887,-187500.02235174447,-187500.02235174447,-187500.02235174447,-187500.02235174447,-187500.02235174447,1730243671.6058114,1730243670.1542692,4000
3446.035497908056,-187500.02235174447,220.36584858487237,-187500.02235174447,-187500.02235174447,-187500.02235174447,-187500.02235174447,-187500.02235174447,1730243671.609681,1730243670.1542692,4000
3391.877221092847,-187500.02235174447,205.9489734111993,-187500.02235174447,-187500.02235174447,-187500.02235174447,-187500.02235174447,-187500.02235174447,1730243671.6136734,1730243670.1542692,4000
3406.0705788219666,-187500.02235174447,246.24916866411792,-187500.02235174447,-187500.02235174447,-187500.02235174447,-187500.02235174447,-187500.02235174447,1730243671.6187198,1730243670.1542692,4000
3385.9540088121903,-187500.02235174447,248.99843323212068,-187500.02235174447,-187500.02235174447,-187500.02235174447,-187500.02235174447,-187500.02235174447,1730243671.6227777,1730243670.1542692,4000
3373.638197617316,-187500.02235174447,194.3260662944396,-187500.02235174447,-187500.02235174447,-187500.02235174447,-187500.02235174447,-187500.02235174447,1730243671.6267436,1730243670.1542692,4000
3379.6731686202493,-187500.02235174447,198.3940837853055,-187500.02235174447,-187500.02235174447,-187500.02235174447,-187500.02235174447,-187500.02235174447,1730243671.6296203,1730243670.1542692,4000
3450.483495054662,-187500.02235174447,222.01987767456507,-187500.02235174447,-187500.02235174447,-187500.02235174447,-187500.02235174447,-187500.02235174447,1730243671.6337075,1730243670.1542692,4000
3437.385372803852,-187500.02235174447,226.6243370323583,-187500.02235174447,-187500.02235174447,-187500.02235174447,-187500.02235174447,-187500.02235174447,1730243671.6376448,1730243670.1542692,4000
3368.184371970221,-187500.02235174447,206.2618978335736,-187500.02235174447,-187500.02235174447,-187500.02235174447,-187500.02235174447,-187500.02235174447,1730243671.6416895,1730243670.1542692,4000
3387.9209623242573,-187500.02235174447,185.184202812219,-187500.02235174447,-187500.02235174447,-187500.02235174447,-187500.02235174447,-187500.02235174447,1730243671.6466365,1730243670.1542692,4000
3403.0977968094107,-187500.02235174447,235.8332557479448,-187500.02235174447,-187500.02235174447,-187500.02235174447,-187500.02235174447,-187500.02235174447,1730243671.6507916,1730243670.1542692,4000
3447.1083816419105,-187500.02235174447,246.96442448668773,-187500.02235174447,-187500.02235174447,-187500.02235174447,-187500.02235174447,-187500.02235174447,1730243671.6546197,1730243670.1542692,4000
3375.068709262456,-187500.02235174447,213.9508979261992,-187500.02235174447,-187500.02235174447,-187500.02235174447,-187500.02235174447,-187500.02235174447,1730243671.6577492,1730243670.1542692,4000
3404.0365700765337,-187500.02235174447,204.02672338804288,-187500.02235174447,-187500.02235174447,-187500.02235174447,-187500.02235174447,-187500.02235174447,1730243671.661652,1730243670.1542692,4000
3420.643916206827,-187500.02235174447,220.6117177738807,-187500.02235174447,-187500.02235174447,-187500.02235174447,-187500.02235174447,-187500.02235174447,1730243671.6656191,1730243670.1542692,4000
3419.280459795053,-187500.02235174447,221.2599183630846,-187500.02235174447,-187500.02235174447,-187500.02235174447,-187500.02235174447,-187500.02235174447,1730243671.6696155,1730243670.1542692,4000
3408.6410294343277,-187500.02235174447,216.5660520274701,-187500.02235174447,-187500.02235174447,-187500.02235174447,-187500.02235174447,-187500.02235174447,1730243671.6738243,1730243670.1542692,4000
3392.927753082246,-187500.02235174447,180.7362056656129,-187500.02235174447,-187500.02235174447,-187500.02235174447,-187500.02235174447,-187500.02235174447,1730243671.6787393,1730243670.1542692,4000
3372.5206103945507,-187500.02235174447,183.75369116707932,-187500.02235174447,-187500.02235174447,-187500.02235174447,-187500.02235174447,-187500.02235174447,1730243671.682729,1730243670.1542692,4000
3396.347569983908,-187500.02235174447,256.57567460246975,-187500.02235174447,-187500.02235174447,-187500.02235174447,-187500.02235174447,-187500.02235174447,1730243671.685804,1730243670.1542692,4000
3397.5992676734054,-187500.02235174447,256.26275018009545,-187500.02235174447,-187500.02235174447,-187500.02235174447,-187500.02235174447,-187500.02235174447,1730243671.6898072,1730243670.1542692,4000
3384.836421589425,-187500.02235174447,196.38242678432783,-187500.02235174447,-187500.02235174447,-187500.02235174447,-187500.02235174447,-187500.02235174447,1730243671.6936967,1730243670.1542692,4000
3424.86839590888,-187500.02235174447,203.24441233210712,-187500.02235174447,-187500.02235174447,-187500.02235174447,-187500.02235174447,-187500.02235174447,1730243671.6978571,1730243670.1542692,4000
3438.6594222378044,-187500.02235174447,261.49305838263734,-187500.02235174447,-187500.02235174447,-187500.02235174447,-187500.02235174447,-187500.02235174447,1730243671.701655,1730243670.1542692,4000
3402.360189242386,-187500.02235174447,271.70780559871264,-187500.02235174447,-187500.02235174447,-187500.02235174447,-187500.02235174447,-187500.02235174447,1730243671.7068927,1730243670.1542692,4000
3392.570125170961,-187500.02235174447,201.41156928677196,-187500.02235174447,-187500.02235174447,-187500.02235174447,-187500.02235174447,-187500.02235174447,1730243671.7098737,1730243670.1542692,4000
3376.2086482296763,-187500.02235174447,213.14623512580812,-187500.02235174447,-187500.02235174447,-187500.02235174447,-187500.02235174447,-187500.02235174447,1730243671.7132268,1730243670.1542692,4000
3422.9684976301787,-187500.02235174447,223.74096199762369,-187500.02235174447,-187500.02235174447,-187500.02235174447,-187500.02235174447,-187500.02235174447,1730243671.7179077,1730243670.1542692,4000
3502.317190446519,-187500.02235174447,222.8245404749561,-187500.02235174447,-187500.02235174447,-187500.02235174447,-187500.02235174447,-187500.02235174447,1730243671.7219331,1730243670.1542692,4000
3352.3369851514085,-187500.02235174447,236.7273255261571,-187500.02235174447,-187500.02235174447,-187500.02235174447,-187500.02235174447,-187500.02235174447,1730243671.725916,1730243670.1542692,4000
3348.134857193811,-187500.02235174447,219.6282410178472,-187500.02235174447,-187500.02235174447,-187500.02235174447,-187500.02235174447,-187500.02235174447,1730243671.72984,1730243670.1542692,4000
3395.520555439062,-187500.02235174447,241.8682267508777,-187500.02235174447,-187500.02235174447,-187500.02235174447,-187500.02235174447,-187500.02235174447,1730243671.7340052,1730243670.1542692,4000
3401.309657252986,-187500.02235174447,245.39980237481623,-187500.02235174447,-187500.02235174447,-187500.02235174447,-187500.02235174447,-187500.02235174447,1730243671.7378156,1730243670.1542692,4000
3424.6001749754164,-187500.02235174447,187.15115632428603,-187500.02235174447,-187500.02235174447,-187500.02235174447,-187500.02235174447,-187500.02235174447,1730243671.740893,1730243670.1542692,4000
3383.964703555668,-187500.02235174447,196.5835924844256,-187500.02235174447,-187500.02235174447,-187500.02235174447,-187500.02235174447,-187500.02235174447,1730243671.746864,1730243670.1542692,4000
3366.060956246967,-187500.02235174447,252.5300088560592,-187500.02235174447,-187500.02235174447,-187500.02235174447,-187500.02235174447,-187500.02235174447,1730243671.7509043,1730243670.1542692,4000
3393.263029249076,-187500.02235174447,269.5396863865479,-187500.02235174447,-187500.02235174447,-187500.02235174447,-187500.02235174447,-187500.02235174447,1730243671.7538435,1730243670.1542692,4000
3405.9811718441456,-187500.02235174447,223.7186102531684,-187500.02235174447,-187500.02235174447,-187500.02235174447,-187500.02235174447,-187500.02235174447,1730243671.7598312,1730243670.1542692,4000
3409.5350992125395,-187500.02235174447,175.3270835074286,-187500.02235174447,-187500.02235174447,-187500.02235174447,-187500.02235174447,-187500.02235174447,1730243671.7639427,1730243670.1542692,4000
3358.1484387097885,-187500.02235174447,208.6088310013808,-187500.02235174447,-187500.02235174447,-187500.02235174447,-187500.02235174447,-187500.02235174447,1730243671.7669425,1730243670.1542692,4000
3390.178488514244,-187500.02235174447,242.29290989552857,-187500.02235174447,-187500.02235174447,-187500.02235174447,-187500.02235174447,-187500.02235174447,1730243671.769843,1730243670.1542692,4000
3442.123942628377,-187500.02235174447,253.73700305664576,-187500.02235174447,-187500.02235174447,-187500.02235174447,-187500.02235174447,-187500.02235174447,1730243671.7740064,1730243670.1542692,4000
3432.1327128568546,-187500.02235174447,179.21628704265203,-187500.02235174447,-187500.02235174447,-187500.02235174447,-187500.02235174447,-187500.02235174447,1730243671.7778232,1730243670.1542692,4000
3365.1445347243,-187500.02235174447,199.62342973034737,-187500.02235174447,-187500.02235174447,-187500.02235174447,-187500.02235174447,-187500.02235174447,1730243671.7822104,1730243670.1542692,4000
3427.8635296658917,-187500.02235174447,255.3686804018832,-187500.02235174447,-187500.02235174447,-187500.02235174447,-187500.02235174447,-187500.02235174447,1730243671.7861464,1730243670.1542692,4000
3430.1210558558773,-187500.02235174447,265.2034479622183,-187500.02235174447,-187500.02235174447,-187500.02235174447,-187500.02235174447,-187500.02235174447,1730243671.790032,1730243670.1542692,4000
3438.033573393056,-187500.02235174447,204.22788908814064,-187500.02235174447,-187500.02235174447,-187500.02235174447,-187500.02235174447,-187500.02235174447,1730243671.7941458,1730243670.1542692,4000
3430.277518067064,-187500.02235174447,194.1472523387972,-187500.02235174447,-187500.02235174447,-187500.02235174447,-187500.02235174447,-187500.02235174447,1730243671.7970295,1730243670.1542692,4000
3371.4030231717857,-187500.02235174447,242.65053780681347,-187500.02235174447,-187500.02235174447,-187500.02235174447,-187500.02235174447,-187500.02235174447,1730243671.8011315,1730243670.1542692,4000
3373.302921450487,-187500.02235174447,245.8691890083777,-187500.02235174447,-187500.02235174447,-187500.02235174447,-187500.02235174447,-187500.02235174447,1730243671.806222,1730243670.1542692,4000
3409.803320146003,-187500.02235174447,196.29301980650663,-187500.02235174447,-187500.02235174447,-187500.02235174447,-187500.02235174447,-187500.02235174447,1730243671.8100471,1730243670.1542692,4000
3356.2038369421766,-187500.02235174447,168.9568363376661,-187500.02235174447,-187500.02235174447,-187500.02235174447,-187500.02235174447,-187500.02235174447,1730243671.8139963,1730243670.1542692,4000
3397.0181223175678,-187500.02235174447,266.3880904183496,-187500.02235174447,-187500.02235174447,-187500.02235174447,-187500.02235174447,-187500.02235174447,1730243671.8182342,1730243670.1542692,4000
3432.7585617016034,-187500.02235174447,291.01971280809795,-187500.02235174447,-187500.02235174447,-187500.02235174447,-187500.02235174447,-187500.02235174447,1730243671.8208804,1730243670.1542692,4000
3395.431148461241,-187500.02235174447,235.117999925375,-187500.02235174447,-187500.02235174447,-187500.02235174447,-187500.02235174447,-187500.02235174447,1730243671.8255303,1730243670.1542692,4000
3375.985130785124,-187500.02235174447,207.40183680079423,-187500.02235174447,-187500.02235174447,-187500.02235174447,-187500.02235174447,-187500.02235174447,1730243671.8299637,1730243670.1542692,4000
3403.254259020598,-187500.02235174447,222.35515384139467,-187500.02235174447,-187500.02235174447,-187500.02235174447,-187500.02235174447,-187500.02235174447,1730243671.834128,1730243670.1542692,4000
3438.145332115332,-187500.02235174447,232.18992140172975,-187500.02235174447,-187500.02235174447,-187500.02235174447,-187500.02235174447,-187500.02235174447,1730243671.8379793,1730243670.1542692,4000
3367.782040570026,-187500.02235174447,231.11703766787505,-187500.02235174447,-187500.02235174447,-187500.02235174447,-187500.02235174447,-187500.02235174447,1730243671.8424866,1730243670.1542692,4000
3418.878128394858,-187500.02235174447,191.0627116039648,-187500.02235174447,-187500.02235174447,-187500.02235174447,-187500.02235174447,-187500.02235174447,1730243671.8449173,1730243670.1542692,4000
3441.118114127888,-187500.02235174447,223.2492236196069,-187500.02235174447,-187500.02235174447,-187500.02235174447,-187500.02235174447,-187500.02235174447,1730243671.8488967,1730243670.1542692,4000
3375.38163368483,-187500.02235174447,277.4745556681819,-187500.02235174447,-187500.02235174447,-187500.02235174447,-187500.02235174447,-187500.02235174447,1730243671.8529143,1730243670.1542692,4000
3359.6013020993832,-187500.02235174447,245.44450586372685,-187500.02235174447,-187500.02235174447,-187500.02235174447,-187500.02235174447,-187500.02235174447,1730243671.8571174,1730243670.1542692,4000
3348.157208938266,-187500.02235174447,160.1726007667304,-187500.02235174447,-187500.02235174447,-187500.02235174447,-187500.02235174447,-187500.02235174447,1730243671.8620229,1730243670.1542692,4000
3417.1793958162543,-187500.02235174447,191.08506334842008,-187500.02235174447,-187500.02235174447,-187500.02235174447,-187500.02235174447,-187500.02235174447,1730243671.8660946,1730243670.1542692,4000
3477.7302715456813,-187500.02235174447,240.3930116168275,-187500.02235174447,-187500.02235174447,-187500.02235174447,-187500.02235174447,-187500.02235174447,1730243671.8699727,1730243670.1542692,4000
3462.7322510161703,-187500.02235174447,204.25024083259595,-187500.02235174447,-187500.02235174447,-187500.02235174447,-187500.02235174447,-187500.02235174447,1730243671.8731475,1730243670.1542692,4000
3369.279607448532,-187500.02235174447,178.32221726443976,-187500.02235174447,-187500.02235174447,-187500.02235174447,-187500.02235174447,-187500.02235174447,1730243671.877071,1730243670.1542692,4000
3361.635310844816,-187500.02235174447,188.9169441362553,-187500.02235174447,-187500.02235174447,-187500.02235174447,-187500.02235174447,-187500.02235174447,1730243671.880982,1730243670.1542692,4000
3392.391311215318,-187500.02235174447,282.14607025934106,-187500.02235174447,-187500.02235174447,-187500.02235174447,-187500.02235174447,-187500.02235174447,1730243671.8850672,1730243670.1542692,4000
3360.003633499579,-187500.02235174447,281.47551792568186,-187500.02235174447,-187500.02235174447,-187500.02235174447,-187500.02235174447,-187500.02235174447,1730243671.8900025,1730243670.1542692,4000
3421.895613896324,-187500.02235174447,222.33280209693936,-187500.02235174447,-187500.02235174447,-187500.02235174447,-187500.02235174447,-187500.02235174447,1730243671.8941348,1730243670.1542692,4000
3453.590387533949,-187500.02235174447,200.0034093860876,-187500.02235174447,-187500.02235174447,-187500.02235174447,-187500.02235174447,-187500.02235174447,1730243671.8981502,1730243670.1542692,4000
3454.663271267804,-187500.02235174447,224.344459097917,-187500.02235174447,-187500.02235174447,-187500.02235174447,-187500.02235174447,-187500.02235174447,1730243671.9022152,1730243670.1542692,4000
3395.967590328168,-187500.02235174447,252.1723809447743,-187500.02235174447,-187500.02235174447,-187500.02235174447,-187500.02235174447,-187500.02235174447,1730243671.9062884,1730243670.1542692,4000
3345.229130414621,-187500.02235174447,225.8867294653332,-187500.02235174447,-187500.02235174447,-187500.02235174447,-187500.02235174447,-187500.02235174447,1730243671.9111848,1730243670.1542692,4000
3349.0736304609336,-187500.02235174447,152.57300765192602,-187500.02235174447,-187500.02235174447,-187500.02235174447,-187500.02235174447,-187500.02235174447,1730243671.9146583,1730243670.1542692,4000
3401.2426020196203,-187500.02235174447,257.8497240364223,-187500.02235174447,-187500.02235174447,-187500.02235174447,-187500.02235174447,-187500.02235174447,1730243671.9182918,1730243670.1542692,4000
3404.237735776632,-187500.02235174447,275.93228530076567,-187500.02235174447,-187500.02235174447,-187500.02235174447,-187500.02235174447,-187500.02235174447,1730243671.9225883,1730243670.1542692,4000
3385.2164012451653,-187500.02235174447,237.2414156486292,-187500.02235174447,-187500.02235174447,-187500.02235174447,-187500.02235174447,-187500.02235174447,1730243671.9276216,1730243670.1542692,4000
3371.4924301496067,-187500.02235174447,207.312429822973,-187500.02235174447,-187500.02235174447,-187500.02235174447,-187500.02235174447,-187500.02235174447,1730243671.9316387,1730243670.1542692,4000
3453.411573578307,-187500.02235174447,200.1822233417301,-187500.02235174447,-187500.02235174447,-187500.02235174447,-187500.02235174447,-187500.02235174447,1730243671.9344437,1730243670.1542692,4000
3416.0394568490337,-187500.02235174447,236.61556680388057,-187500.02235174447,-187500.02235174447,-187500.02235174447,-187500.02235174447,-187500.02235174447,1730243671.9370875,1730243670.1542692,4000
3374.420508673252,-187500.02235174447,249.89250301033297,-187500.02235174447,-187500.02235174447,-187500.02235174447,-187500.02235174447,-187500.02235174447,1730243671.9415288,1730243670.1542692,4000
3387.540982668517,-187500.02235174447,202.01506638706525,-187500.02235174447,-187500.02235174447,-187500.02235174447,-187500.02235174447,-187500.02235174447,1730243671.945108,1730243670.1542692,4000
3457.2113701357093,-187500.02235174447,185.7206446791464,-187500.02235174447,-187500.02235174447,-187500.02235174447,-187500.02235174447,-187500.02235174447,1730243671.9501653,1730243670.1542692,4000
3472.634073809871,-187500.02235174447,196.9188686512552,-187500.02235174447,-187500.02235174447,-187500.02235174447,-187500.02235174447,-187500.02235174447,1730243671.9531815,1730243670.1542692,4000
3416.4417882492294,-187500.02235174447,269.4279276642713,-187500.02235174447,-187500.02235174447,-187500.02235174447,-187500.02235174447,-187500.02235174447,1730243671.9574895,1730243670.1542692,4000
3354.706270063671,-187500.02235174447,255.18986644624076,-187500.02235174447,-187500.02235174447,-187500.02235174447,-187500.02235174447,-187500.02235174447,1730243671.9611824,1730243670.1542692,4000
3372.1853342277213,-187500.02235174447,237.3308226264504,-187500.02235174447,-187500.02235174447,-187500.02235174447,-187500.02235174447,-187500.02235174447,1730243671.9653232,1730243670.1542692,4000
3448.5612450315057,-187500.02235174447,242.85170350691124,-187500.02235174447,-187500.02235174447,-187500.02235174447,-187500.02235174447,-187500.02235174447,1730243671.9693787,1730243670.1542692,4000
3384.5905524004165,-187500.02235174447,245.53391284154807,-187500.02235174447,-187500.02235174447,-187500.02235174447,-187500.02235174447,-187500.02235174447,1730243671.97335,1730243670.1542692,4000
3363.356395167875,-187500.02235174447,207.71476122316847,-187500.02235174447,-187500.02235174447,-187500.02235174447,-187500.02235174447,-187500.02235174447,1730243671.978204,1730243670.1542692,4000
3392.257200748587,-187500.02235174447,198.0364558740206,-187500.02235174447,-187500.02235174447,-187500.02235174447,-187500.02235174447,-187500.02235174447,1730243671.981704,1730243670.1542692,4000
3396.9287153397463,-187500.02235174447,245.13158144135252,-187500.02235174447,-187500.02235174447,-187500.02235174447,-187500.02235174447,-187500.02235174447,1730243671.9855258,1730243670.1542692,4000
3443.196826362232,-187500.02235174447,264.2199712061848,-187500.02235174447,-187500.02235174447,-187500.02235174447,-187500.02235174447,-187500.02235174447,1730243671.9894392,1730243670.1542692,4000
3450.9975851771337,-187500.02235174447,219.0694474064645,-187500.02235174447,-187500.02235174447,-187500.02235174447,-187500.02235174447,-187500.02235174447,1730243671.9934144,1730243670.1542692,4000
3432.4232855347736,-187500.02235174447,192.94025813821057,-187500.02235174447,-187500.02235174447,-187500.02235174447,-187500.02235174447,-187500.02235174447,1730243671.9978,1730243670.1542692,4000
3389.0385495470227,-187500.02235174447,270.8360875649557,-187500.02235174447,-187500.02235174447,-187500.02235174447,-187500.02235174447,-187500.02235174447,1730243672.0018544,1730243670.1542692,4000
3371.805354571981,-187500.02235174447,311.91859387381004,-187500.02235174447,-187500.02235174447,-187500.02235174447,-187500.02235174447,-187500.02235174447,1730243672.006583,1730243670.1542692,4000
3405.847061377414,-187500.02235174447,222.4222090747606,-187500.02235174447,-187500.02235174447,-187500.02235174447,-187500.02235174447,-187500.02235174447,1730243672.0094593,1730243670.1542692,4000
3396.8616601063804,-187500.02235174447,172.71192940615768,-187500.02235174447,-187500.02235174447,-187500.02235174447,-187500.02235174447,-187500.02235174447,1730243672.0124648,1730243670.1542692,4000
3499.031484011589,-187500.02235174447,222.26574686357344,-187500.02235174447,-187500.02235174447,-187500.02235174447,-187500.02235174447,-187500.02235174447,1730243672.017779,1730243670.1542692,4000
3453.478628811673,-187500.02235174447,281.14024175885226,-187500.02235174447,-187500.02235174447,-187500.02235174447,-187500.02235174447,-187500.02235174447,1730243672.0213509,1730243670.1542692,4000
3406.9199451112686,-187500.02235174447,235.63209004784704,-187500.02235174447,-187500.02235174447,-187500.02235174447,-187500.02235174447,-187500.02235174447,1730243672.0255425,1730243670.1542692,4000
3417.4923202386285,-187500.02235174447,221.66224976328013,-187500.02235174447,-187500.02235174447,-187500.02235174447,-187500.02235174447,-187500.02235174447,1730243672.0294883,1730243670.1542692,4000
3363.6693195902494,-187500.02235174447,267.68449159675737,-187500.02235174447,-187500.02235174447,-187500.02235174447,-187500.02235174447,-187500.02235174447,1730243672.0346174,1730243670.1542692,4000
3369.9278080377358,-187500.02235174447,283.9565615602209,-187500.02235174447,-187500.02235174447,-187500.02235174447,-187500.02235174447,-187500.02235174447,1730243672.037236,1730243670.1542692,4000
3453.858608467413,-187500.02235174447,224.2103486311852,-187500.02235174447,-187500.02235174447,-187500.02235174447,-187500.02235174447,-187500.02235174447,1730243672.040441,1730243670.1542692,4000
3416.710009182693,-187500.02235174447,189.18516506971895,-187500.02235174447,-187500.02235174447,-187500.02235174447,-187500.02235174447,-187500.02235174447,1730243672.0452864,1730243670.1542692,4000
3429.4952070111285,-187500.02235174447,225.0373631760315,-187500.02235174447,-187500.02235174447,-187500.02235174447,-187500.02235174447,-187500.02235174447,1730243672.0498104,1730243670.1542692,4000
3380.2766657205425,-187500.02235174447,295.2888959990616,-187500.02235174447,-187500.02235174447,-187500.02235174447,-187500.02235174447,-187500.02235174447,1730243672.0532367,1730243670.1542692,4000
3381.126032009844,-187500.02235174447,278.72625335767907,-187500.02235174447,-187500.02235174447,-187500.02235174447,-187500.02235174447,-187500.02235174447,1730243672.0576808,1730243670.1542692,4000
3355.421525886241,-187500.02235174447,240.72828778365707,-187500.02235174447,-187500.02235174447,-187500.02235174447,-187500.02235174447,-187500.02235174447,1730243672.0635269,1730243670.1542692,4000
3396.884011850836,-187500.02235174447,232.83812199093367,-187500.02235174447,-187500.02235174447,-187500.02235174447,-187500.02235174447,-187500.02235174447,1730243672.0668695,1730243670.1542692,4000
3416.0841603379445,-187500.02235174447,279.1285847578746,-187500.02235174447,-187500.02235174447,-187500.02235174447,-187500.02235174447,-187500.02235174447,1730243672.0703268,1730243670.1542692,4000
3406.0705788219666,-187500.02235174447,279.5756196469807,-187500.02235174447,-187500.02235174447,-187500.02235174447,-187500.02235174447,-187500.02235174447,1730243672.0744724,1730243670.1542692,4000
3410.160948057288,-187500.02235174447,211.1345781248305,-187500.02235174447,-187500.02235174447,-187500.02235174447,-187500.02235174447,-187500.02235174447,1730243672.077598,1730243670.1542692,4000
3440.738134472148,-187500.02235174447,220.634069518336,-187500.02235174447,-187500.02235174447,-187500.02235174447,-187500.02235174447,-187500.02235174447,1730243672.0826097,1730243670.1542692,4000
3467.4931725851507,-187500.02235174447,237.82256100446716,-187500.02235174447,-187500.02235174447,-187500.02235174447,-187500.02235174447,-187500.02235174447,1730243672.0873227,1730243670.1542692,4000
3467.44846909624,-187500.02235174447,231.4299620902493,-187500.02235174447,-187500.02235174447,-187500.02235174447,-187500.02235174447,-187500.02235174447,1730243672.0904667,1730243670.1542692,4000
3379.6731686202493,-187500.02235174447,254.31814841248377,-187500.02235174447,-187500.02235174447,-187500.02235174447,-187500.02235174447,-187500.02235174447,1730243672.0938728,1730243670.1542692,4000
3354.795677041492,-187500.02235174447,258.4532211367156,-187500.02235174447,-187500.02235174447,-187500.02235174447,-187500.02235174447,-187500.02235174447,1730243672.0974915,1730243670.1542692,4000
3421.470930751673,-187500.02235174447,265.33755842895016,-187500.02235174447,-187500.02235174447,-187500.02235174447,-187500.02235174447,-187500.02235174447,1730243672.1003864,1730243670.1542692,4000
3461.905236471324,-187500.02235174447,264.7117095842016,-187500.02235174447,-187500.02235174447,-187500.02235174447,-187500.02235174447,-187500.02235174447,1730243672.1055644,1730243670.1542692,4000
3411.032666091045,-187500.02235174447,244.05869770749783,-187500.02235174447,-187500.02235174447,-187500.02235174447,-187500.02235174447,-187500.02235174447,1730243672.109583,1730243670.1542692,4000
3408.216346289676,-187500.02235174447,196.42713027323848,-187500.02235174447,-187500.02235174447,-187500.02235174447,-187500.02235174447,-187500.02235174447,1730243672.1135428,1730243670.1542692,4000
3429.8081314335027,-187500.02235174447,252.48530536714856,-187500.02235174447,-187500.02235174447,-187500.02235174447,-187500.02235174447,-187500.02235174447,1730243672.1165278,1730243670.1542692,4000
3395.587610672428,-187500.02235174447,289.00805580712034,-187500.02235174447,-187500.02235174447,-187500.02235174447,-187500.02235174447,-187500.02235174447,1730243672.120328,1730243670.1542692,4000
3428.377619788363,-187500.02235174447,243.6787180517576,-187500.02235174447,-187500.02235174447,-187500.02235174447,-187500.02235174447,-187500.02235174447,1730243672.124452,1730243670.1542692,4000
3377.482697663629,-187500.02235174447,201.5903832424144,-187500.02235174447,-187500.02235174447,-187500.02235174447,-187500.02235174447,-187500.02235174447,1730243672.1293814,1730243670.1542692,4000
3380.0531482759893,-187500.02235174447,237.6884505377353,-187500.02235174447,-187500.02235174447,-187500.02235174447,-187500.02235174447,-187500.02235174447,1730243672.1335971,1730243670.1542692,4000
3433.8537971799133,-187500.02235174447,303.6037449364358,-187500.02235174447,-187500.02235174447,-187500.02235174447,-187500.02235174447,-187500.02235174447,1730243672.1373649,1730243670.1542692,4000
3434.949032658224,-187500.02235174447,245.48920935263743,-187500.02235174447,-187500.02235174447,-187500.02235174447,-187500.02235174447,-187500.02235174447,1730243672.141605,1730243670.1542692,4000
3405.0871020659333,-187500.02235174447,178.63514168681405,-187500.02235174447,-187500.02235174447,-187500.02235174447,-187500.02235174447,-187500.02235174447,1730243672.1443903,1730243670.1542692,4000
3390.7596338700814,-187500.02235174447,223.3833340863388,-187500.02235174447,-187500.02235174447,-187500.02235174447,-187500.02235174447,-187500.02235174447,1730243672.1485338,1730243670.1542692,4000
3418.520500483573,-187500.02235174447,319.2052625662401,-187500.02235174447,-187500.02235174447,-187500.02235174447,-187500.02235174447,-187500.02235174447,1730243672.152618,1730243670.1542692,4000
3438.413553048796,-187500.02235174447,260.71074732670155,-187500.02235174447,-187500.02235174447,-187500.02235174447,-187500.02235174447,-187500.02235174447,1730243672.156567,1730243670.1542692,4000
3406.7634829000813,-187500.02235174447,213.07917989244223,-187500.02235174447,-187500.02235174447,-187500.02235174447,-187500.02235174447,-187500.02235174447,1730243672.1613853,1730243670.1542692,4000
3386.356340212386,-187500.02235174447,240.95180522821013,-187500.02235174447,-187500.02235174447,-187500.02235174447,-187500.02235174447,-187500.02235174447,1730243672.16558,1730243670.1542692,4000
3400.326180496953,-187500.02235174447,271.3278259429724,-187500.02235174447,-187500.02235174447,-187500.02235174447,-187500.02235174447,-187500.02235174447,1730243672.1686392,1730243670.1542692,4000
3427.9529366437123,-187500.02235174447,260.7330990711569,-187500.02235174447,-187500.02235174447,-187500.02235174447,-187500.02235174447,-187500.02235174447,1730243672.1726975,1730243670.1542692,4000
3438.6817739822595,-187500.02235174447,219.44942706220476,-187500.02235174447,-187500.02235174447,-187500.02235174447,-187500.02235174447,-187500.02235174447,1730243672.1766856,1730243670.1542692,4000
3467.2920068850526,-187500.02235174447,201.43392103122724,-187500.02235174447,-187500.02235174447,-187500.02235174447,-187500.02235174447,-187500.02235174447,1730243672.1805725,1730243670.1542692,4000
3407.188166044732,-187500.02235174447,291.7796721195784,-187500.02235174447,-187500.02235174447,-187500.02235174447,-187500.02235174447,-187500.02235174447,1730243672.184647,1730243670.1542692,4000
3360.316557921953,-187500.02235174447,308.47642522769274,-187500.02235174447,-187500.02235174447,-187500.02235174447,-187500.02235174447,-187500.02235174447,1730243672.1895037,1730243670.1542692,4000
3396.2581630060868,-187500.02235174447,236.81673250397836,-187500.02235174447,-187500.02235174447,-187500.02235174447,-187500.02235174447,-187500.02235174447,1730243672.1937003,1730243670.1542692,4000
3366.9550260251794,-187500.02235174447,214.15206362629695,-187500.02235174447,-187500.02235174447,-187500.02235174447,-187500.02235174447,-187500.02235174447,1730243672.1966724,1730243670.1542692,4000
3453.0092421781114,-187500.02235174447,238.69427903822407,-187500.02235174447,-187500.02235174447,-187500.02235174447,-187500.02235174447,-187500.02235174447,1730243672.2006483,1730243670.1542692,4000
3527.6193651699264,-187500.02235174447,263.214142705696,-187500.02235174447,-187500.02235174447,-187500.02235174447,-187500.02235174447,-187500.02235174447,1730243672.2046194,1730243670.1542692,4000
3374.420508673252,-187500.02235174447,225.8867294653332,-187500.02235174447,-187500.02235174447,-187500.02235174447,-187500.02235174447,-187500.02235174447,1730243672.2086716,1730243670.1542692,4000
3286.131118074789,-187500.02235174447,244.43867736323804,-187500.02235174447,-187500.02235174447,-187500.02235174447,-187500.02235174447,-187500.02235174447,1730243672.2126074,1730243670.1542692,4000
3366.9773777696346,-187500.02235174447,290.63973315235773,-187500.02235174447,-187500.02235174447,-187500.02235174447,-187500.02235174447,-187500.02235174447,1730243672.2177107,1730243670.1542692,4000
3397.152232784299,-187500.02235174447,280.6708551252908,-187500.02235174447,-187500.02235174447,-187500.02235174447,-187500.02235174447,-187500.02235174447,1730243672.2216852,1730243670.1542692,4000
3455.1773613902765,-187500.02235174447,213.5262147815484,-187500.02235174447,-187500.02235174447,-187500.02235174447,-187500.02235174447,-187500.02235174447,1730243672.2257278,1730243670.1542692,4000
3442.973308917679,-187500.02235174447,203.93731641022163,-187500.02235174447,-187500.02235174447,-187500.02235174447,-187500.02235174447,-187500.02235174447,1730243672.2295904,1730243670.1542692,4000
3374.912247051269,-187500.02235174447,277.5863143904584,-187500.02235174447,-187500.02235174447,-187500.02235174447,-187500.02235174447,-187500.02235174447,1730243672.2329636,1730243670.1542692,4000
3391.519593181562,-187500.02235174447,274.3900149333495,-187500.02235174447,-187500.02235174447,-187500.02235174447,-187500.02235174447,-187500.02235174447,1730243672.2386303,1730243670.1542692,4000
3483.4299663817847,-187500.02235174447,261.13543047135244,-187500.02235174447,-187500.02235174447,-187500.02235174447,-187500.02235174447,-187500.02235174447,1730243672.2418785,1730243670.1542692,4000
3379.3378924534195,-187500.02235174447,223.27157536406224,-187500.02235174447,-187500.02235174447,-187500.02235174447,-187500.02235174447,-187500.02235174447,1730243672.244564,1730243670.1542692,4000
3387.1386512683216,-187500.02235174447,230.62529928985828,-187500.02235174447,-187500.02235174447,-187500.02235174447,-187500.02235174447,-187500.02235174447,1730243672.2499728,1730243670.1542692,4000
3421.537985985039,-187500.02235174447,249.8477995214224,-187500.02235174447,-187500.02235174447,-187500.02235174447,-187500.02235174447,-187500.02235174447,1730243672.2526236,1730243670.1542692,4000
3402.628410175849,-187500.02235174447,239.18601741624087,-187500.02235174447,-187500.02235174447,-187500.02235174447,-187500.02235174447,-187500.02235174447,1730243672.2565734,1730243670.1542692,4000
3391.4078344592854,-187500.02235174447,219.11415089537516,-187500.02235174447,-187500.02235174447,-187500.02235174447,-187500.02235174447,-187500.02235174447,1730243672.260811,1730243670.1542692,4000
3420.241584806632,-187500.02235174447,256.79919204702287,-187500.02235174447,-187500.02235174447,-187500.02235174447,-187500.02235174447,-187500.02235174447,1730243672.264814,1730243670.1542692,4000
3447.488361297651,-187500.02235174447,294.0148465651091,-187500.02235174447,-187500.02235174447,-187500.02235174447,-187500.02235174447,-187500.02235174447,1730243672.2689557,1730243670.1542692,4000
3428.332916299453,-187500.02235174447,234.26863363607333,-187500.02235174447,-187500.02235174447,-187500.02235174447,-187500.02235174447,-187500.02235174447,1730243672.274115,1730243670.1542692,4000
3382.131860510333,-187500.02235174447,205.2113658441741,-187500.02235174447,-187500.02235174447,-187500.02235174447,-187500.02235174447,-187500.02235174447,1730243672.2768474,1730243670.1542692,4000
3406.9870003446345,-187500.02235174447,238.35900287139447,-187500.02235174447,-187500.02235174447,-187500.02235174447,-187500.02235174447,-187500.02235174447,1730243672.2796533,1730243670.1542692,4000
3448.0024514201227,-187500.02235174447,284.7165208717014,-187500.02235174447,-187500.02235174447,-187500.02235174447,-187500.02235174447,-187500.02235174447,1730243672.2848392,1730243670.1542692,4000
3414.899517881813,-187500.02235174447,283.017788293098,-187500.02235174447,-187500.02235174447,-187500.02235174447,-187500.02235174447,-187500.02235174447,1730243672.2888691,1730243670.1542692,4000
3353.5663310964505,-187500.02235174447,269.45027940872666,-187500.02235174447,-187500.02235174447,-187500.02235174447,-187500.02235174447,-187500.02235174447,1730243672.292828,1730243670.1542692,4000
3357.52258986504,-187500.02235174447,261.3142444269949,-187500.02235174447,-187500.02235174447,-187500.02235174447,-187500.02235174447,-187500.02235174447,1730243672.2973812,1730243670.1542692,4000
3414.2066138036985,-187500.02235174447,252.2170844336849,-187500.02235174447,-187500.02235174447,-187500.02235174447,-187500.02235174447,-187500.02235174447,1730243672.3018093,1730243670.1542692,4000
3457.5019428136284,-187500.02235174447,235.22975864765152,-187500.02235174447,-187500.02235174447,-187500.02235174447,-187500.02235174447,-187500.02235174447,1730243672.3046951,1730243670.1542692,4000
3387.675093135249,-187500.02235174447,234.35804061389456,-187500.02235174447,-187500.02235174447,-187500.02235174447,-187500.02235174447,-187500.02235174447,1730243672.307839,1730243670.1542692,4000
3363.6693195902494,-187500.02235174447,225.61850853186948,-187500.02235174447,-187500.02235174447,-187500.02235174447,-187500.02235174447,-187500.02235174447,1730243672.3127549,1730243670.1542692,4000
3400.706160152693,-187500.02235174447,242.0917441954308,-187500.02235174447,-187500.02235174447,-187500.02235174447,-187500.02235174447,-187500.02235174447,1730243672.3168435,1730243670.1542692,4000
3421.336820284941,-187500.02235174447,267.0362910075535,-187500.02235174447,-187500.02235174447,-187500.02235174447,-187500.02235174447,-187500.02235174447,1730243672.3206744,1730243670.1542692,4000
3423.482587752651,-187500.02235174447,226.2220056321628,-187500.02235174447,-187500.02235174447,-187500.02235174447,-187500.02235174447,-187500.02235174447,1730243672.3252206,1730243670.1542692,4000
3381.9530465546904,-187500.02235174447,170.9014381052778,-187500.02235174447,-187500.02235174447,-187500.02235174447,-187500.02235174447,-187500.02235174447,1730243672.3287964,1730243670.1542692,4000
3380.4331279317294,-187500.02235174447,270.1878869757518,-187500.02235174447,-187500.02235174447,-187500.02235174447,-187500.02235174447,-187500.02235174447,1730243672.333104,1730243670.1542692,4000
3378.935561053224,-187500.02235174447,305.52599495959225,-187500.02235174447,-187500.02235174447,-187500.02235174447,-187500.02235174447,-187500.02235174447,1730243672.3357816,1730243670.1542692,4000
3419.1687010727765,-187500.02235174447,227.16077889928567,-187500.02235174447,-187500.02235174447,-187500.02235174447,-187500.02235174447,-187500.02235174447,1730243672.3433828,1730243670.1542692,4000
3427.684715710249,-187500.02235174447,225.59615678741417,-187500.02235174447,-187500.02235174447,-187500.02235174447,-187500.02235174447,-187500.02235174447,1730243672.345998,1730243670.1542692,4000
3398.962724085179,-187500.02235174447,243.29873839601737,-187500.02235174447,-187500.02235174447,-187500.02235174447,-187500.02235174447,-187500.02235174447,1730243672.3487084,1730243670.1542692,4000
3450.7517159881254,-187500.02235174447,279.03917778005336,-187500.02235174447,-187500.02235174447,-187500.02235174447,-187500.02235174447,-187500.02235174447,1730243672.3527284,1730243670.1542692,4000
3458.73128875867,-187500.02235174447,291.8914308418549,-187500.02235174447,-187500.02235174447,-187500.02235174447,-187500.02235174447,-187500.02235174447,1730243672.3569288,1730243670.1542692,4000
3352.5605025959617,-187500.02235174447,283.2636574821064,-187500.02235174447,-187500.02235174447,-187500.02235174447,-187500.02235174447,-187500.02235174447,1730243672.3608353,1730243670.1542692,4000
3358.5954735988944,-187500.02235174447,257.6262065918692,-187500.02235174447,-187500.02235174447,-187500.02235174447,-187500.02235174447,-187500.02235174447,1730243672.3807373,1730243670.1542692,4000
3433.4291140352625,-187500.02235174447,236.0567731924979,-187500.02235174447,-187500.02235174447,-187500.02235174447,-187500.02235174447,-187500.02235174447,1730243672.3807592,1730243670.1542692,4000
3450.125867143377,-187500.02235174447,243.65636630730228,-187500.02235174447,-187500.02235174447,-187500.02235174447,-187500.02235174447,-187500.02235174447,1730243672.3807666,1730243670.1542692,4000
3394.2018025161988,-187500.02235174447,226.08789516543092,-187500.02235174447,-187500.02235174447,-187500.02235174447,-187500.02235174447,-187500.02235174447,1730243672.3807738,1730243670.1542692,4000
3402.628410175849,-187500.02235174447,229.9994504451097,-187500.02235174447,-187500.02235174447,-187500.02235174447,-187500.02235174447,-187500.02235174447,1730243672.3807807,1730243670.1542692,4000
3370.1513254822885,-187500.02235174447,283.889506326855,-187500.02235174447,-187500.02235174447,-187500.02235174447,-187500.02235174447,-187500.02235174447,1730243672.3847747,1730243670.1542692,4000
3394.7605961275813,-187500.02235174447,271.73015734316795,-187500.02235174447,-187500.02235174447,-187500.02235174447,-187500.02235174447,-187500.02235174447,1730243672.3887675,1730243670.1542692,4000
3357.991976498601,-187500.02235174447,207.55829901198135,-187500.02235174447,-187500.02235174447,-187500.02235174447,-187500.02235174447,-187500.02235174447,1730243672.3917968,1730243670.1542692,4000
3390.3796542143414,-187500.02235174447,201.45627277568252,-187500.02235174447,-187500.02235174447,-187500.02235174447,-187500.02235174447,-187500.02235174447,1730243672.3967469,1730243670.1542692,4000
3477.0150157231114,-187500.02235174447,237.17436041526324,-187500.02235174447,-187500.02235174447,-187500.02235174447,-187500.02235174447,-187500.02235174447,1730243672.4008307,1730243670.1542692,4000
3447.868340953391,-187500.02235174447,285.7894046055561,-187500.02235174447,-187500.02235174447,-187500.02235174447,-187500.02235174447,-187500.02235174447,1730243672.4060671,1730243670.1542692,4000
3400.125014796855,-187500.02235174447,230.46883707867116,-187500.02235174447,-187500.02235174447,-187500.02235174447,-187500.02235174447,-187500.02235174447,1730243672.408798,1730243670.1542692,4000
3392.324255981953,-187500.02235174447,254.4299071347603,-187500.02235174447,-187500.02235174447,-187500.02235174447,-187500.02235174447,-187500.02235174447,1730243672.4117918,1730243670.1542692,4000
3380.0084447870786,-187500.02235174447,277.0722242679864,-187500.02235174447,-187500.02235174447,-187500.02235174447,-187500.02235174447,-187500.02235174447,1730243672.4175963,1730243670.1542692,4000
3422.5661662299835,-187500.02235174447,280.26852372509524,-187500.02235174447,-187500.02235174447,-187500.02235174447,-187500.02235174447,-187500.02235174447,1730243672.423258,1730243670.1542692,4000
3419.8839568953467,-187500.02235174447,263.7505845726233,-187500.02235174447,-187500.02235174447,-187500.02235174447,-187500.02235174447,-187500.02235174447,1730243672.4237933,1730243670.1542692,4000
3443.5321025290614,-187500.02235174447,230.60294754540297,-187500.02235174447,-187500.02235174447,-187500.02235174447,-187500.02235174447,-187500.02235174447,1730243672.4278235,1730243670.1542692,4000
3420.062770850989,-187500.02235174447,213.861490948378,-187500.02235174447,-187500.02235174447,-187500.02235174447,-187500.02235174447,-187500.02235174447,1730243672.435073,1730243670.1542692,4000
3380.6566453762825,-187500.02235174447,262.0071485051094,-187500.02235174447,-187500.02235174447,-187500.02235174447,-187500.02235174447,-187500.02235174447,1730243672.4368434,1730243670.1542692,4000
3327.347734850375,-187500.02235174447,296.2500210106398,-187500.02235174447,-187500.02235174447,-187500.02235174447,-187500.02235174447,-187500.02235174447,1730243672.4399376,1730243670.1542692,4000
3332.600394797372,-187500.02235174447,224.92560445375497,-187500.02235174447,-187500.02235174447,-187500.02235174447,-187500.02235174447,-187500.02235174447,1730243672.4443595,1730243670.1542692,4000
3393.844174604914,-187500.02235174447,227.47370332166,-187500.02235174447,-187500.02235174447,-187500.02235174447,-187500.02235174447,-187500.02235174447,1730243672.450196,1730243670.1542692,4000
3466.241474895653,-187500.02235174447,271.8642678098998,-187500.02235174447,-187500.02235174447,-187500.02235174447,-187500.02235174447,-187500.02235174447,1730243672.4518576,1730243670.1542692,4000
3411.3008870245085,-187500.02235174447,266.67866309626856,-187500.02235174447,-187500.02235174447,-187500.02235174447,-187500.02235174447,-187500.02235174447,1730243672.4565363,1730243670.1542692,4000
3395.922886839257,-187500.02235174447,210.1287496243417,-187500.02235174447,-187500.02235174447,-187500.02235174447,-187500.02235174447,-187500.02235174447,1730243672.4608643,1730243670.1542692,4000
3373.5040871505844,-187500.02235174447,198.81876692995635,-187500.02235174447,-187500.02235174447,-187500.02235174447,-187500.02235174447,-187500.02235174447,1730243672.46486,1730243670.1542692,4000
3392.570125170961,-187500.02235174447,292.2490587531398,-187500.02235174447,-187500.02235174447,-187500.02235174447,-187500.02235174447,-187500.02235174447,1730243672.4678972,1730243670.1542692,4000
3411.6585149357934,-187500.02235174447,284.6047621494248,-187500.02235174447,-187500.02235174447,-187500.02235174447,-187500.02235174447,-187500.02235174447,1730243672.471898,1730243670.1542692,4000
3391.4078344592854,-187500.02235174447,246.5173895975816,-187500.02235174447,-187500.02235174447,-187500.02235174447,-187500.02235174447,-187500.02235174447,1730243672.4795363,1730243670.1542692,4000
3428.8246546774694,-187500.02235174447,220.70112475170197,-187500.02235174447,-187500.02235174447,-187500.02235174447,-187500.02235174447,-187500.02235174447,1730243672.4800153,1730243670.1542692,4000
3429.003468633112,-187500.02235174447,243.2540349071068,-187500.02235174447,-187500.02235174447,-187500.02235174447,-187500.02235174447,-187500.02235174447,1730243672.4839437,1730243670.1542692,4000
3403.969514843168,-187500.02235174447,264.48819213964845,-187500.02235174447,-187500.02235174447,-187500.02235174447,-187500.02235174447,-187500.02235174447,1730243672.488968,1730243670.1542692,4000
3392.3019042374976,-187500.02235174447,243.23168316265145,-187500.02235174447,-187500.02235174447,-187500.02235174447,-187500.02235174447,-187500.02235174447,1730243672.496583,1730243670.1542692,4000
3406.1152823108773,-187500.02235174447,252.5523606005145,-187500.02235174447,-187500.02235174447,-187500.02235174447,-187500.02235174447,-187500.02235174447,1730243672.4966097,1730243670.1542692,4000
3374.062880761967,-187500.02235174447,274.52412540008135,-187500.02235174447,-187500.02235174447,-187500.02235174447,-187500.02235174447,-187500.02235174447,1730243672.5010097,1730243670.1542692,4000
3364.3398719239085,-187500.02235174447,294.5289366875812,-187500.02235174447,-187500.02235174447,-187500.02235174447,-187500.02235174447,-187500.02235174447,1730243672.5045283,1730243670.1542692,4000
3399.2756485075533,-187500.02235174447,258.8108490480005,-187500.02235174447,-187500.02235174447,-187500.02235174447,-187500.02235174447,-187500.02235174447,1730243672.512979,1730243670.1542692,4000
3457.2337218801645,-187500.02235174447,177.69636841969114,-187500.02235174447,-187500.02235174447,-187500.02235174447,-187500.02235174447,-187500.02235174447,1730243672.5130005,1730243670.1542692,4000
3458.4854195696616,-187500.02235174447,219.4047235732941,-187500.02235174447,-187500.02235174447,-187500.02235174447,-187500.02235174447,-187500.02235174447,1730243672.517105,1730243670.1542692,4000
3430.67984946726,-187500.02235174447,271.1713637317853,-187500.02235174447,-187500.02235174447,-187500.02235174447,-187500.02235174447,-187500.02235174447,1730243672.5211134,1730243670.1542692,4000
3433.518521013084,-187500.02235174447,262.45418339421553,-187500.02235174447,-187500.02235174447,-187500.02235174447,-187500.02235174447,-187500.02235174447,1730243672.5293508,1730243670.1542692,4000
3363.468153890152,-187500.02235174447,250.9430349997324,-187500.02235174447,-187500.02235174447,-187500.02235174447,-187500.02235174447,-187500.02235174447,1730243672.529368,1730243670.1542692,4000
3332.5109878195512,-187500.02235174447,258.5202763700815,-187500.02235174447,-187500.02235174447,-187500.02235174447,-187500.02235174447,-187500.02235174447,1730243672.533524,1730243670.1542692,4000
3375.4263371737406,-187500.02235174447,268.33269218596126,-187500.02235174447,-187500.02235174447,-187500.02235174447,-187500.02235174447,-187500.02235174447,1730243672.5361514,1730243670.1542692,4000
3386.4010437012967,-187500.02235174447,262.9459217722323,-187500.02235174447,-187500.02235174447,-187500.02235174447,-187500.02235174447,-187500.02235174447,1730243672.5400014,1730243670.1542692,4000
3383.450613433196,-187500.02235174447,255.4133838907938,-187500.02235174447,-187500.02235174447,-187500.02235174447,-187500.02235174447,-187500.02235174447,1730243672.5450225,1730243670.1542692,4000
3357.991976498601,-187500.02235174447,231.58642430143647,-187500.02235174447,-187500.02235174447,-187500.02235174447,-187500.02235174447,-187500.02235174447,1730243672.5483186,1730243670.1542692,4000
3419.0122388615896,-187500.02235174447,274.4570701667154,-187500.02235174447,-187500.02235174447,-187500.02235174447,-187500.02235174447,-187500.02235174447,1730243672.551149,1730243670.1542692,4000
