Fp1,Fp2,C3,C4,P7,P8,O1,O2,time_board,time_marker,marker
-6670.3640425639205,-60847.72924753777,4837.409238506465,-187500.02235174447,-187500.02235174447,-187500.02235174447,-187500.02235174447,-187500.02235174447,1730987736.186045,1730987736.183547,4000
-6649.666327198306,-60783.40092699539,4841.968994375347,-187500.02235174447,-187500.02235174447,-187500.02235174447,-187500.02235174447,-187500.02235174447,1730987736.1910627,1730987736.183547,4000
-6673.493286787664,-60730.1367199584,4849.680346212429,-187500.02235174447,-187500.02235174447,-187500.02235174447,-187500.02235174447,-187500.02235174447,1730987736.1950724,1730987736.183547,4000
-6741.375534698432,-60748.93453704531,4830.837825636605,-187500.02235174447,-187500.02235174447,-187500.02235174447,-187500.02235174447,-187500.02235174447,1730987736.1990657,1730987736.183547,4000
-6733.775941583627,-60833.17826189736,4841.544311230697,-187500.02235174447,-187500.02235174447,-187500.02235174447,-187500.02235174447,-187500.02235174447,1730987736.2030609,1730987736.183547,4000
-6717.3250576645205,-60851.17141618388,4840.2926135412,-187500.02235174447,-187500.02235174447,-187500.02235174447,-187500.02235174447,-187500.02235174447,1730987736.207082,1730987736.183547,4000
-6699.42131035582,-60744.95592653226,4829.854348880572,-187500.02235174447,-187500.02235174447,-187500.02235174447,-187500.02235174447,-187500.02235174447,1730987736.2110631,1730987736.183547,4000
-6689.497135817664,-60713.21644940573,4829.720238413839,-187500.02235174447,-187500.02235174447,-187500.02235174447,-187500.02235174447,-187500.02235174447,1730987736.2140903,1730987736.183547,4000
-6703.869307502426,-60807.67492147385,4843.086581598113,-187500.02235174447,-187500.02235174447,-187500.02235174447,-187500.02235174447,-187500.02235174447,1730987736.2191224,1730987736.183547,4000
-6693.811022497538,-60867.64465184745,4849.948567145892,-187500.02235174447,-187500.02235174447,-187500.02235174447,-187500.02235174447,-187500.02235174447,1730987736.2232485,1730987736.183547,4000
-6690.525316062608,-60781.23280778323,4841.678421697428,-187500.02235174447,-187500.02235174447,-187500.02235174447,-187500.02235174447,-187500.02235174447,1730987736.2271514,1730987736.183547,4000
-6683.484516559186,-60736.14933921687,4834.972898360837,-187500.02235174447,-187500.02235174447,-187500.02235174447,-187500.02235174447,-187500.02235174447,1730987736.2312818,1730987736.183547,4000
-6700.203621411756,-60829.937258951344,4837.76686641775,-187500.02235174447,-187500.02235174447,-187500.02235174447,-187500.02235174447,-187500.02235174447,1730987736.236172,1730987736.183547,4000
-6690.011225940136,-60850.769084783686,4838.213901306856,-187500.02235174447,-187500.02235174447,-187500.02235174447,-187500.02235174447,-187500.02235174447,1730987736.2392468,1730987736.183547,4000
-6694.168650408823,-60772.71679314576,4842.86306415356,-187500.02235174447,-187500.02235174447,-187500.02235174447,-187500.02235174447,-187500.02235174447,1730987736.2421875,1730987736.183547,4000
-6676.734289733683,-60753.047258025086,4840.024392607736,-187500.02235174447,-187500.02235174447,-187500.02235174447,-187500.02235174447,-187500.02235174447,1730987736.2471788,1730987736.183547,4000
-6696.716749276728,-60815.6544942444,4847.981613633825,-187500.02235174447,-187500.02235174447,-187500.02235174447,-187500.02235174447,-187500.02235174447,1730987736.2511945,1730987736.183547,4000
-6736.480502662719,-60887.06831777911,4844.204168820878,-187500.02235174447,-187500.02235174447,-187500.02235174447,-187500.02235174447,-187500.02235174447,1730987736.2553449,1730987736.183547,4000
-6730.557290382063,-60792.31927303306,4836.023430350236,-187500.02235174447,-187500.02235174447,-187500.02235174447,-187500.02235174447,-187500.02235174447,1730987736.259245,1730987736.183547,4000
-6704.830432514004,-60795.29205504562,4837.878625140027,-187500.02235174447,-187500.02235174447,-187500.02235174447,-187500.02235174447,-187500.02235174447,1730987736.2623737,1730987736.183547,4000
-6706.1715371813225,-60849.27151790518,4845.947604888393,-187500.02235174447,-187500.02235174447,-187500.02235174447,-187500.02235174447,-187500.02235174447,1730987736.266334,1730987736.183547,4000
-6701.142394678878,-60841.671924790375,4853.077811369635,-187500.02235174447,-187500.02235174447,-187500.02235174447,-187500.02235174447,-187500.02235174447,1730987736.270228,1730987736.183547,4000
-6699.175441166812,-60820.705988491296,4849.233311323323,-187500.02235174447,-187500.02235174447,-187500.02235174447,-187500.02235174447,-187500.02235174447,1730987736.274316,1730987736.183547,4000
-6681.517563047119,-60795.2026480678,4837.498645484287,-187500.02235174447,-187500.02235174447,-187500.02235174447,-187500.02235174447,-187500.02235174447,1730987736.2794728,1730987736.183547,4000
-6673.783859465583,-60821.93533443634,4831.418970992443,-187500.02235174447,-187500.02235174447,-187500.02235174447,-187500.02235174447,-187500.02235174447,1730987736.2834811,1730987736.183547,4000
-6692.291103874577,-60870.8185995601,4841.074924597136,-187500.02235174447,-187500.02235174447,-187500.02235174447,-187500.02235174447,-187500.02235174447,1730987736.2875144,1730987736.183547,4000
-6693.542801564075,-60821.354189080506,4849.7697531902495,-187500.02235174447,-187500.02235174447,-187500.02235174447,-187500.02235174447,-187500.02235174447,1730987736.290495,1730987736.183547,4000
-6686.70316776075,-60757.49525517169,4836.761037917261,-187500.02235174447,-187500.02235174447,-187500.02235174447,-187500.02235174447,-187500.02235174447,1730987736.294388,1730987736.183547,4000
-6692.045234685569,-60767.48648494321,4832.938889615404,-187500.02235174447,-187500.02235174447,-187500.02235174447,-187500.02235174447,-187500.02235174447,1730987736.2984896,1730987736.183547,4000
-6710.507775605653,-60865.364773913,4844.874721154538,-187500.02235174447,-187500.02235174447,-187500.02235174447,-187500.02235174447,-187500.02235174447,1730987736.3034663,1730987736.183547,4000
-6745.421200444842,-60881.368622943,4841.030221108225,-187500.02235174447,-187500.02235174447,-187500.02235174447,-187500.02235174447,-187500.02235174447,1730987736.3075013,1730987736.183547,4000
-6725.081112990512,-60802.64577897141,4840.627889708029,-187500.02235174447,-187500.02235174447,-187500.02235174447,-187500.02235174447,-187500.02235174447,1730987736.311519,1730987736.183547,4000
-6713.704075062761,-60828.529099050655,4848.160427589468,-187500.02235174447,-187500.02235174447,-187500.02235174447,-187500.02235174447,-187500.02235174447,1730987736.3155067,1730987736.183547,4000
-6715.760435552649,-60886.15189625644,4846.059363610669,-187500.02235174447,-187500.02235174447,-187500.02235174447,-187500.02235174447,-187500.02235174447,1730987736.3184898,1730987736.183547,4000
-6713.838185529493,-60857.966346498295,4841.410200763965,-187500.02235174447,-187500.02235174447,-187500.02235174447,-187500.02235174447,-187500.02235174447,1730987736.322543,1730987736.183547,4000
-6691.128813162901,-60821.37654082496,4836.448113494887,-187500.02235174447,-187500.02235174447,-187500.02235174447,-187500.02235174447,-187500.02235174447,1730987736.3264728,1730987736.183547,4000
-6685.362063093432,-60816.146232622414,4845.791142677205,-187500.02235174447,-187500.02235174447,-187500.02235174447,-187500.02235174447,-187500.02235174447,1730987736.3305771,1730987736.183547,4000
-6702.662313301839,-60901.88752435298,4847.065192111158,-187500.02235174447,-187500.02235174447,-187500.02235174447,-187500.02235174447,-187500.02235174447,1730987736.3355443,1730987736.183547,4000
-6699.018978955624,-60881.27921596518,4848.182779333924,-187500.02235174447,-187500.02235174447,-187500.02235174447,-187500.02235174447,-187500.02235174447,1730987736.3395913,1730987736.183547,4000
-6653.801399922539,-60807.0043691402,4838.9068053849705,-187500.02235174447,-187500.02235174447,-187500.02235174447,-187500.02235174447,-187500.02235174447,1730987736.3434749,1730987736.183547,4000
-6671.74985072015,-60778.416487981856,4834.592918705096,-187500.02235174447,-187500.02235174447,-187500.02235174447,-187500.02235174447,-187500.02235174447,1730987736.3463044,1730987736.183547,4000
-6738.916842808348,-60798.197781824805,4852.854293925082,-187500.02235174447,-187500.02235174447,-187500.02235174447,-187500.02235174447,-187500.02235174447,1730987736.3503275,1730987736.183547,4000
-6715.715732063739,-60904.5250301987,4862.018509151758,-187500.02235174447,-187500.02235174447,-187500.02235174447,-187500.02235174447,-187500.02235174447,1730987736.3543153,1730987736.183547,4000
-6706.953848237258,-60867.77876231418,4845.411163021465,-187500.02235174447,-187500.02235174447,-187500.02235174447,-187500.02235174447,-187500.02235174447,1730987736.3582811,1730987736.183547,4000
-6708.071435460024,-60784.80908689608,4840.113799585557,-187500.02235174447,-187500.02235174447,-187500.02235174447,-187500.02235174447,-187500.02235174447,1730987736.3623188,1730987736.183547,4000
-6702.37174062392,-60802.57872373804,4845.813494421661,-187500.02235174447,-187500.02235174447,-187500.02235174447,-187500.02235174447,-187500.02235174447,1730987736.367365,1730987736.183547,4000
-6716.6768570753175,-60928.37434153252,4844.159465331968,-187500.02235174447,-187500.02235174447,-187500.02235174447,-187500.02235174447,-187500.02235174447,1730987736.371338,1730987736.183547,4000
-6719.336714665498,-60903.18392553138,4834.257642538267,-187500.02235174447,-187500.02235174447,-187500.02235174447,-187500.02235174447,-187500.02235174447,1730987736.3743768,1730987736.183547,4000
-6708.697284304772,-60801.12586034845,4826.09925581208,-187500.02235174447,-187500.02235174447,-187500.02235174447,-187500.02235174447,-187500.02235174447,1730987736.378375,1730987736.183547,4000
-6699.935400478292,-60795.78379342363,4827.552119201675,-187500.02235174447,-187500.02235174447,-187500.02235174447,-187500.02235174447,-187500.02235174447,1730987736.382376,1730987736.183547,4000
-6691.978179452202,-60871.265634449206,4839.040915851702,-187500.02235174447,-187500.02235174447,-187500.02235174447,-187500.02235174447,-187500.02235174447,1730987736.3865,1730987736.183547,4000
-6680.221161868712,-60847.61748881549,4842.572491475641,-187500.02235174447,-187500.02235174447,-187500.02235174447,-187500.02235174447,-187500.02235174447,1730987736.3904068,1730987736.183547,4000
-6668.352385562943,-60806.51263076218,4830.48019772532,-187500.02235174447,-187500.02235174447,-187500.02235174447,-187500.02235174447,-187500.02235174447,1730987736.395422,1730987736.183547,4000
-6692.536973063586,-60851.97607898428,4821.807720876661,-187500.02235174447,-187500.02235174447,-187500.02235174447,-187500.02235174447,-187500.02235174447,1730987736.398429,1730987736.183547,4000
-6692.827545741505,-60915.924419870906,4849.121552601047,-187500.02235174447,-187500.02235174447,-187500.02235174447,-187500.02235174447,-187500.02235174447,1730987736.4024265,1730987736.183547,4000
-6708.116138948934,-60859.68743082135,4866.645320254007,-187500.02235174447,-187500.02235174447,-187500.02235174447,-187500.02235174447,-187500.02235174447,1730987736.4064243,1730987736.183547,4000
-6716.52039486413,-60844.5105963362,4852.496666013797,-187500.02235174447,-187500.02235174447,-187500.02235174447,-187500.02235174447,-187500.02235174447,1730987736.4104435,1730987736.183547,4000
-6699.778938267105,-60875.57952112908,4853.860122425571,-187500.02235174447,-187500.02235174447,-187500.02235174447,-187500.02235174447,-187500.02235174447,1730987736.4144535,1730987736.183547,4000
-6672.263940842622,-60884.74373635576,4866.824134209649,-187500.02235174447,-187500.02235174447,-187500.02235174447,-187500.02235174447,-187500.02235174447,1730987736.418464,1730987736.183547,4000
-6704.450452858264,-60889.14703001345,4862.085564385124,-187500.02235174447,-187500.02235174447,-187500.02235174447,-187500.02235174447,-187500.02235174447,1730987736.423482,1730987736.183547,4000
-6741.196720742789,-60880.563960142616,4832.849482637583,-187500.02235174447,-187500.02235174447,-187500.02235174447,-187500.02235174447,-187500.02235174447,1730987736.426453,1730987736.183547,4000
-6704.13752843589,-60827.56797403908,4830.077866325124,-187500.02235174447,-187500.02235174447,-187500.02235174447,-187500.02235174447,-187500.02235174447,1730987736.4305005,1730987736.183547,4000
-6680.310568846532,-60907.76603314472,4840.739648430306,-187500.02235174447,-187500.02235174447,-187500.02235174447,-187500.02235174447,-187500.02235174447,1730987736.434445,1730987736.183547,4000
-6703.80225226906,-60937.5832602481,4834.637622194007,-187500.02235174447,-187500.02235174447,-187500.02235174447,-187500.02235174447,-187500.02235174447,1730987736.43847,1730987736.183547,4000
-6702.774072024116,-60858.03340173166,4833.475331482331,-187500.02235174447,-187500.02235174447,-187500.02235174447,-187500.02235174447,-187500.02235174447,1730987736.4424713,1730987736.183547,4000
-6692.246400385667,-60836.55337531011,4844.785314176716,-187500.02235174447,-187500.02235174447,-187500.02235174447,-187500.02235174447,-187500.02235174447,1730987736.4464753,1730987736.183547,4000
-6712.653543073362,-60934.20814683535,4862.53259927423,-187500.02235174447,-187500.02235174447,-187500.02235174447,-187500.02235174447,-187500.02235174447,1730987736.4514625,1730987736.183547,4000
-6692.872249230415,-60956.35872559056,4858.397526549999,-187500.02235174447,-187500.02235174447,-187500.02235174447,-187500.02235174447,-187500.02235174447,1730987736.4545476,1730987736.183547,4000
-6669.022937896602,-60865.67769833538,4850.999099135292,-187500.02235174447,-187500.02235174447,-187500.02235174447,-187500.02235174447,-187500.02235174447,1730987736.458675,1730987736.183547,4000
-6676.957807178236,-60832.15008165242,4844.003003120781,-187500.02235174447,-187500.02235174447,-187500.02235174447,-187500.02235174447,-187500.02235174447,1730987736.4627268,1730987736.183547,4000
-6728.255060703166,-60841.58251781256,4839.599709463085,-187500.02235174447,-187500.02235174447,-187500.02235174447,-187500.02235174447,-187500.02235174447,1730987736.4666858,1730987736.183547,4000
-6722.935345522803,-60935.81747243613,4839.62206120754,-187500.02235174447,-187500.02235174447,-187500.02235174447,-187500.02235174447,-187500.02235174447,1730987736.470744,1730987736.183547,4000
-6693.18517365279,-60912.504602969246,4837.632755951018,-187500.02235174447,-187500.02235174447,-187500.02235174447,-187500.02235174447,-187500.02235174447,1730987736.4746711,1730987736.183547,4000
-6666.161914606323,-60851.43963711735,4825.473406967331,-187500.02235174447,-187500.02235174447,-187500.02235174447,-187500.02235174447,-187500.02235174447,1730987736.479648,1730987736.183547,4000
-6680.310568846532,-60892.27627423719,4823.394694732988,-187500.02235174447,-187500.02235174447,-187500.02235174447,-187500.02235174447,-187500.02235174447,1730987736.482646,1730987736.183547,4000
-6690.748833507161,-60904.54738194316,4851.647299724496,-187500.02235174447,-187500.02235174447,-187500.02235174447,-187500.02235174447,-187500.02235174447,1730987736.4856558,1730987736.183547,4000
-6711.982990739703,-60880.65336712043,4864.38779406402,-187500.02235174447,-187500.02235174447,-187500.02235174447,-187500.02235174447,-187500.02235174447,1730987736.4906375,1730987736.183547,4000
-6731.496063649186,-60880.25103572024,4852.764886947261,-187500.02235174447,-187500.02235174447,-187500.02235174447,-187500.02235174447,-187500.02235174447,1730987736.4946404,1730987736.183547,4000
-6729.305592692565,-60891.873942837,4847.512227000264,-187500.02235174447,-187500.02235174447,-187500.02235174447,-187500.02235174447,-187500.02235174447,1730987736.4985695,1730987736.183547,4000
-6744.929462066825,-60916.05853033764,4855.447096281898,-187500.02235174447,-187500.02235174447,-187500.02235174447,-187500.02235174447,-187500.02235174447,1730987736.502708,1730987736.183547,4000
-6742.403714943375,-60942.634754495,4860.00685215078,-187500.02235174447,-187500.02235174447,-187500.02235174447,-187500.02235174447,-187500.02235174447,1730987736.5077052,1730987736.183547,4000
-6723.360028667454,-60865.25301519073,4840.069096096647,-187500.02235174447,-187500.02235174447,-187500.02235174447,-187500.02235174447,-187500.02235174447,1730987736.5109212,1730987736.183547,4000
-6732.166615982845,-60852.19959642883,4820.354857487066,-187500.02235174447,-187500.02235174447,-187500.02235174447,-187500.02235174447,-187500.02235174447,1730987736.5135932,1730987736.183547,4000
-6731.697229349284,-60943.23825159529,4829.38496224701,-187500.02235174447,-187500.02235174447,-187500.02235174447,-187500.02235174447,-187500.02235174447,1730987736.5185905,1730987736.183547,4000
-6735.854653817971,-60973.63662405451,4830.949584358881,-187500.02235174447,-187500.02235174447,-187500.02235174447,-187500.02235174447,-187500.02235174447,1730987736.5225832,1730987736.183547,4000
-6720.4319501438085,-60884.251997977735,4826.054552323169,-187500.02235174447,-187500.02235174447,-187500.02235174447,-187500.02235174447,-187500.02235174447,1730987736.5266917,1730987736.183547,4000
-6689.072452673013,-60860.64855583294,4820.868947609538,-187500.02235174447,-187500.02235174447,-187500.02235174447,-187500.02235174447,-187500.02235174447,1730987736.530706,1730987736.183547,4000
-6691.218220140722,-60920.77474841771,4824.847558122583,-187500.02235174447,-187500.02235174447,-187500.02235174447,-187500.02235174447,-187500.02235174447,1730987736.533661,1730987736.183547,4000
-6721.035447244102,-60943.21589985084,4850.730878201828,-187500.02235174447,-187500.02235174447,-187500.02235174447,-187500.02235174447,-187500.02235174447,1730987736.537738,1730987736.183547,4000
-6756.1947412723,-60889.88463758047,4854.262453825767,-187500.02235174447,-187500.02235174447,-187500.02235174447,-187500.02235174447,-187500.02235174447,1730987736.5417745,1730987736.183547,4000
-6746.918767323347,-60893.95265507134,4854.843599181605,-187500.02235174447,-187500.02235174447,-187500.02235174447,-187500.02235174447,-187500.02235174447,1730987736.5467403,1730987736.183547,4000
-6756.95470058378,-60922.853460652055,4833.207110548868,-187500.02235174447,-187500.02235174447,-187500.02235174447,-187500.02235174447,-187500.02235174447,1730987736.550688,1730987736.183547,4000
-6751.0761917920345,-60884.117887511005,4831.128398314524,-187500.02235174447,-187500.02235174447,-187500.02235174447,-187500.02235174447,-187500.02235174447,1730987736.5547671,1730987736.183547,4000
-6735.251156717677,-60903.16157378693,4838.616232707052,-187500.02235174447,-187500.02235174447,-187500.02235174447,-187500.02235174447,-187500.02235174447,1730987736.558704,1730987736.183547,4000
-6736.413447429353,-60911.2752570242,4836.135189072513,-187500.02235174447,-187500.02235174447,-187500.02235174447,-187500.02235174447,-187500.02235174447,1730987736.5628216,1730987736.183547,4000
-6715.246345430178,-60859.35215465452,4836.2916512837,-187500.02235174447,-187500.02235174447,-187500.02235174447,-187500.02235174447,-187500.02235174447,1730987736.5657928,1730987736.183547,4000
-6720.342543165987,-60954.034144167206,4842.751305431283,-187500.02235174447,-187500.02235174447,-187500.02235174447,-187500.02235174447,-187500.02235174447,1730987736.5698128,1730987736.183547,4000
-6714.799310541072,-60987.18178119443,4835.017601849747,-187500.02235174447,-187500.02235174447,-187500.02235174447,-187500.02235174447,-187500.02235174447,1730987736.574813,1730987736.183547,4000
-6716.296877419577,-60906.64844592196,4830.681363425418,-187500.02235174447,-187500.02235174447,-187500.02235174447,-187500.02235174447,-187500.02235174447,1730987736.5786672,1730987736.183547,4000
-6761.268587263655,-60907.92249535591,4834.570566960641,-187500.02235174447,-187500.02235174447,-187500.02235174447,-187500.02235174447,-187500.02235174447,1730987736.582688,1730987736.183547,4000
-6779.261741550177,-60979.202208423885,4841.656069952974,-187500.02235174447,-187500.02235174447,-187500.02235174447,-187500.02235174447,-187500.02235174447,1730987736.58682,1730987736.183547,4000
-6756.0606308055685,-60931.01184737824,4838.616232707052,-187500.02235174447,-187500.02235174447,-187500.02235174447,-187500.02235174447,-187500.02235174447,1730987736.5897996,1730987736.183547,4000
-6726.869252546937,-60867.08585823606,4824.780502889216,-187500.02235174447,-187500.02235174447,-187500.02235174447,-187500.02235174447,-187500.02235174447,1730987736.5936835,1730987736.183547,4000
-6726.131644979912,-60880.49690490925,4821.628906921018,-187500.02235174447,-187500.02235174447,-187500.02235174447,-187500.02235174447,-187500.02235174447,1730987736.5977273,1730987736.183547,4000
-6764.330776254032,-60963.958318705365,4835.486988483309,-187500.02235174447,-187500.02235174447,-187500.02235174447,-187500.02235174447,-187500.02235174447,1730987736.601807,1730987736.183547,4000
-6744.996517300191,-60974.46363859936,4843.131285087024,-187500.02235174447,-187500.02235174447,-187500.02235174447,-187500.02235174447,-187500.02235174447,1730987736.6068094,1730987736.183547,4000
-6728.478578147719,-60883.4696869218,4845.947604888393,-187500.02235174447,-187500.02235174447,-187500.02235174447,-187500.02235174447,-187500.02235174447,1730987736.610763,1730987736.183547,4000
-6701.0082842121465,-60867.15291346943,4841.186683319412,-187500.02235174447,-187500.02235174447,-187500.02235174447,-187500.02235174447,-187500.02235174447,1730987736.6148968,1730987736.183547,4000
-6701.723540034716,-60949.608498765054,4850.5297125017305,-187500.02235174447,-187500.02235174447,-187500.02235174447,-187500.02235174447,-187500.02235174447,1730987736.6177945,1730987736.183547,4000
-6775.886628137426,-60962.30428961567,4882.358596606087,-187500.02235174447,-187500.02235174447,-187500.02235174447,-187500.02235174447,-187500.02235174447,1730987736.6218493,1730987736.183547,4000
-6791.354035300498,-60910.98468434629,4846.081715355124,-187500.02235174447,-187500.02235174447,-187500.02235174447,-187500.02235174447,-187500.02235174447,1730987736.625892,1730987736.183547,4000
-6769.024642589646,-60914.13628031448,4815.3704184735325,-187500.02235174447,-187500.02235174447,-187500.02235174447,-187500.02235174447,-187500.02235174447,1730987736.62977,1730987736.183547,4000
-6743.633060888417,-60981.41503112496,4818.924345841926,-187500.02235174447,-187500.02235174447,-187500.02235174447,-187500.02235174447,-187500.02235174447,1730987736.6348283,1730987736.183547,4000
-6749.064534791057,-60981.3926793805,4823.372342988532,-187500.02235174447,-187500.02235174447,-187500.02235174447,-187500.02235174447,-187500.02235174447,1730987736.6388016,1730987736.183547,4000
-6740.034430031113,-60921.22178330681,4822.567680188141,-187500.02235174447,-187500.02235174447,-187500.02235174447,-187500.02235174447,-187500.02235174447,1730987736.6429288,1730987736.183547,4000
-6692.626380041406,-60921.62411470701,4817.315020241144,-187500.02235174447,-187500.02235174447,-187500.02235174447,-187500.02235174447,-187500.02235174447,1730987736.6459432,1730987736.183547,4000
-6700.091862689479,-60972.76490602076,4848.495703756297,-187500.02235174447,-187500.02235174447,-187500.02235174447,-187500.02235174447,-187500.02235174447,1730987736.6499257,1730987736.183547,4000
-6693.676912030806,-60981.32562414714,4903.838623027637,-187500.02235174447,-187500.02235174447,-187500.02235174447,-187500.02235174447,-187500.02235174447,1730987736.6539254,1730987736.183547,4000
-6778.345320027509,-60945.31696382964,4898.943590991926,-187500.02235174447,-187500.02235174447,-187500.02235174447,-187500.02235174447,-187500.02235174447,1730987736.6582308,1730987736.183547,4000
-6824.054637438612,-60885.95073055634,4835.375229761032,-187500.02235174447,-187500.02235174447,-187500.02235174447,-187500.02235174447,-187500.02235174447,1730987736.662944,1730987736.183547,4000
-6792.493974267719,-60929.04489386617,4834.86113963856,-187500.02235174447,-187500.02235174447,-187500.02235174447,-187500.02235174447,-187500.02235174447,1730987736.6668704,1730987736.183547,4000
-6760.486276207719,-61032.13113929405,4911.192346953434,-187500.02235174447,-187500.02235174447,-187500.02235174447,-187500.02235174447,-187500.02235174447,1730987736.669957,1730987736.183547,4000
-6761.089773308012,-61014.27209547426,4930.392495440543,-187500.02235174447,-187500.02235174447,-187500.02235174447,-187500.02235174447,-187500.02235174447,1730987736.6739323,1730987736.183547,4000
-6776.53482872663,-60909.24124827877,4852.697831713896,-187500.02235174447,-187500.02235174447,-187500.02235174447,-187500.02235174447,-187500.02235174447,1730987736.6779644,1730987736.183547,4000
-6785.72139569776,-60918.87485013901,4799.075996765613,-187500.02235174447,-187500.02235174447,-187500.02235174447,-187500.02235174447,-187500.02235174447,1730987736.681954,1730987736.183547,4000
-6718.822624543027,-61025.26915374627,4749.119847908002,-187500.02235174447,-187500.02235174447,-187500.02235174447,-187500.02235174447,-187500.02235174447,1730987736.6859677,1730987736.183547,4000
-6677.002510667147,-61027.52667993626,4794.158612985446,-187500.02235174447,-187500.02235174447,-187500.02235174447,-187500.02235174447,-187500.02235174447,1730987736.6909022,1730987736.183547,4000
-6763.660223920372,-60921.62411470701,4841.119628086046,-187500.02235174447,-187500.02235174447,-187500.02235174447,-187500.02235174447,-187500.02235174447,1730987736.6948895,1730987736.183547,4000
-6804.742730229227,-60862.615509345,5131.200567627021,-187500.02235174447,-187500.02235174447,-187500.02235174447,-187500.02235174447,-187500.02235174447,1730987736.6979008,1730987736.183547,4000
-6841.556053347118,-60868.181093714375,5501.099586617897,-187500.02235174447,-187500.02235174447,-187500.02235174447,-187500.02235174447,-187500.02235174447,1730987736.702126,1730987736.183547,4000
-6858.275158199687,-60986.80180153869,5332.902709591712,-187500.02235174447,-187500.02235174447,-187500.02235174447,-187500.02235174447,-187500.02235174447,1730987736.706036,1730987736.183547,4000
-6912.299324548165,-61011.83575532863,4950.93374859497,-187500.02235174447,-187500.02235174447,-187500.02235174447,-187500.02235174447,-187500.02235174447,1730987736.7099924,1730987736.183547,4000
-6875.307187474631,-60912.99634134727,4819.192566775389,-187500.02235174447,-187500.02235174447,-187500.02235174447,-187500.02235174447,-187500.02235174447,1730987736.7149885,1730987736.183547,4000
-6825.842776995037,-60927.83789966559,4879.318759360166,-187500.02235174447,-187500.02235174447,-187500.02235174447,-187500.02235174447,-187500.02235174447,1730987736.718159,1730987736.183547,4000
-6732.434836916308,-60986.26535967176,4900.3070474037,-187500.02235174447,-187500.02235174447,-187500.02235174447,-187500.02235174447,-187500.02235174447,1730987736.721922,1730987736.183547,4000
-6614.998771548125,-60931.45888226735,4833.408276248965,-187500.02235174447,-187500.02235174447,-187500.02235174447,-187500.02235174447,-187500.02235174447,1730987736.7259583,1730987736.183547,4000
-6700.449490600764,-60878.28408220817,4884.392605351521,-187500.02235174447,-187500.02235174447,-187500.02235174447,-187500.02235174447,-187500.02235174447,1730987736.7300324,1730987736.183547,4000
-6759.927482596337,-60907.81073663363,5083.993683337412,-187500.02235174447,-187500.02235174447,-187500.02235174447,-187500.02235174447,-187500.02235174447,1730987736.7351708,1730987736.183547,4000
-6873.586103151572,-60983.20317068138,5317.85998557329,-187500.02235174447,-187500.02235174447,-187500.02235174447,-187500.02235174447,-187500.02235174447,1730987736.7380865,1730987736.183547,4000
-7017.106654299099,-60984.05253697068,5426.467111881628,-187500.02235174447,-187500.02235174447,-187500.02235174447,-187500.02235174447,-187500.02235174447,1730987736.741114,1730987736.183547,4000
-6994.173764487954,-60925.62507696451,5053.148275989089,-187500.02235174447,-187500.02235174447,-187500.02235174447,-187500.02235174447,-187500.02235174447,1730987736.7461643,1730987736.183547,4000
-6767.840000133515,-60923.07697809661,4695.83328912655,-187500.02235174447,-187500.02235174447,-187500.02235174447,-187500.02235174447,-187500.02235174447,1730987736.7502525,1730987736.183547,4000
-6596.02214050557,-61051.55480522572,4484.385786579345,-187500.02235174447,-187500.02235174447,-187500.02235174447,-187500.02235174447,-187500.02235174447,1730987736.7540526,1730987736.183547,4000
-6476.842639069872,-60997.441231899415,4453.339213530924,-187500.02235174447,-187500.02235174447,-187500.02235174447,-187500.02235174447,-187500.02235174447,1730987736.758135,1730987736.183547,4000
-6640.904443371826,-60916.9302483714,4653.029698494637,-187500.02235174447,-187500.02235174447,-187500.02235174447,-187500.02235174447,-187500.02235174447,1730987736.763101,1730987736.183547,4000
-6856.889350043458,-60937.22563233681,4963.607187701129,-187500.02235174447,-187500.02235174447,-187500.02235174447,-187500.02235174447,-187500.02235174447,1730987736.7661543,1730987736.183547,4000
-6880.068109043612,-60941.51716727224,5190.499745666951,-187500.02235174447,-187500.02235174447,-187500.02235174447,-187500.02235174447,-187500.02235174447,1730987736.7691453,1730987736.183547,4000
-6850.474399384785,-60914.56096345913,5132.92165195008,-187500.02235174447,-187500.02235174447,-187500.02235174447,-187500.02235174447,-187500.02235174447,1730987736.774041,1730987736.183547,4000
-6926.000943899267,-60941.24894633877,5032.9646507459465,-187500.02235174447,-187500.02235174447,-187500.02235174447,-187500.02235174447,-187500.02235174447,1730987736.7781184,1730987736.183547,4000
-6835.744599788738,-60933.67170496842,4899.3682741365765,-187500.02235174447,-187500.02235174447,-187500.02235174447,-187500.02235174447,-187500.02235174447,1730987736.7821312,1730987736.183547,4000
-6522.52960473652,-60906.17905928839,4751.958519453826,-187500.02235174447,-187500.02235174447,-187500.02235174447,-187500.02235174447,-187500.02235174447,1730987736.7861197,1730987736.183547,4000
-6605.141652243335,-60981.280920658224,4648.313480414568,-187500.02235174447,-187500.02235174447,-187500.02235174447,-187500.02235174447,-187500.02235174447,1730987736.790995,1730987736.183547,4000
-6819.897212969925,-60973.7930862657,4674.621483638463,-187500.02235174447,-187500.02235174447,-187500.02235174447,-187500.02235174447,-187500.02235174447,1730987736.7942576,1730987736.183547,4000
-6867.21585598181,-60922.02644610721,4793.37630192951,-187500.02235174447,-187500.02235174447,-187500.02235174447,-187500.02235174447,-187500.02235174447,1730987736.7972784,1730987736.183547,4000
-6745.689421378305,-60998.26824644426,4899.301218903211,-187500.02235174447,-187500.02235174447,-187500.02235174447,-187500.02235174447,-187500.02235174447,1730987736.80207,1730987736.183547,4000
-6560.0134801880695,-60977.54817933419,4831.106046570068,-187500.02235174447,-187500.02235174447,-187500.02235174447,-187500.02235174447,-187500.02235174447,1730987736.806069,1730987736.183547,4000
-6643.251376539633,-60942.18771960589,4694.760405392695,-187500.02235174447,-187500.02235174447,-187500.02235174447,-187500.02235174447,-187500.02235174447,1730987736.810168,1730987736.183547,4000
-6851.279062185176,-60934.29755381317,4857.257587582778,-187500.02235174447,-187500.02235174447,-187500.02235174447,-187500.02235174447,-187500.02235174447,1730987736.8142123,1730987736.183547,4000
-7045.739238946348,-60975.20124616638,4892.372178122066,-187500.02235174447,-187500.02235174447,-187500.02235174447,-187500.02235174447,-187500.02235174447,1730987736.8192053,1730987736.183547,4000
-6953.13596166801,-60963.86891172754,4871.696814500906,-187500.02235174447,-187500.02235174447,-187500.02235174447,-187500.02235174447,-187500.02235174447,1730987736.8222444,1730987736.183547,4000
-6818.086721669045,-60996.90479003249,4844.874721154538,-187500.02235174447,-187500.02235174447,-187500.02235174447,-187500.02235174447,-187500.02235174447,1730987736.8252015,1730987736.183547,4000
-6962.367232128052,-60944.69111498489,4720.867242916494,-187500.02235174447,-187500.02235174447,-187500.02235174447,-187500.02235174447,-187500.02235174447,1730987736.8302455,1730987736.183547,4000
-6948.75501975477,-60978.37519387904,4694.827460626061,-187500.02235174447,-187500.02235174447,-187500.02235174447,-187500.02235174447,-187500.02235174447,1730987736.8341253,1730987736.183547,4000
-6817.080893168556,-61055.55576748321,4794.627999619008,-187500.02235174447,-187500.02235174447,-187500.02235174447,-187500.02235174447,-187500.02235174447,1730987736.838132,1730987736.183547,4000
-6764.308424509576,-60948.222690608825,4917.495538889831,-187500.02235174447,-187500.02235174447,-187500.02235174447,-187500.02235174447,-187500.02235174447,1730987736.8421752,1730987736.183547,4000
-6757.647604661895,-60956.64929826848,4786.067281492625,-187500.02235174447,-187500.02235174447,-187500.02235174447,-187500.02235174447,-187500.02235174447,1730987736.84615,1730987736.183547,4000
-6770.790430401616,-61005.26434245877,4753.098458421047,-187500.02235174447,-187500.02235174447,-187500.02235174447,-187500.02235174447,-187500.02235174447,1730987736.8501756,1730987736.183547,4000
-6694.503926575652,-60972.7425542763,4769.884618506982,-187500.02235174447,-187500.02235174447,-187500.02235174447,-187500.02235174447,-187500.02235174447,1730987736.8531592,1730987736.183547,4000
-6805.793262218626,-61006.42663317045,4816.219784762834,-187500.02235174447,-187500.02235174447,-187500.02235174447,-187500.02235174447,-187500.02235174447,1730987736.8582194,1730987736.183547,4000
-6765.29190126561,-60943.95350741786,4768.968196984315,-187500.02235174447,-187500.02235174447,-187500.02235174447,-187500.02235174447,-187500.02235174447,1730987736.8622286,1730987736.183547,4000
-6826.267460139688,-60909.420062234414,4757.389993356466,-187500.02235174447,-187500.02235174447,-187500.02235174447,-187500.02235174447,-187500.02235174447,1730987736.8662157,1730987736.183547,4000
-6934.89693819248,-61025.38091246854,4798.785424087694,-187500.02235174447,-187500.02235174447,-187500.02235174447,-187500.02235174447,-187500.02235174447,1730987736.8702185,1730987736.183547,4000
-6792.829250434548,-61024.21862175687,4805.1556712574575,-187500.02235174447,-187500.02235174447,-187500.02235174447,-187500.02235174447,-187500.02235174447,1730987736.8732224,1730987736.183547,4000
-6677.293083345066,-60929.60368747755,4703.656399685908,-187500.02235174447,-187500.02235174447,-187500.02235174447,-187500.02235174447,-187500.02235174447,1730987736.877402,1730987736.183547,4000
-6967.463429863862,-60968.02633619623,4695.676826915363,-187500.02235174447,-187500.02235174447,-187500.02235174447,-187500.02235174447,-187500.02235174447,1730987736.8813384,1730987736.183547,4000
-6964.71416529586,-61021.73757812233,4921.697666847428,-187500.02235174447,-187500.02235174447,-187500.02235174447,-187500.02235174447,-187500.02235174447,1730987736.8853333,1730987736.183547,4000
-6713.480557618208,-61001.91158079048,4900.038826470235,-187500.02235174447,-187500.02235174447,-187500.02235174447,-187500.02235174447,-187500.02235174447,1730987736.890319,1730987736.183547,4000
-6552.547997539998,-60992.14386846351,4767.269464405712,-187500.02235174447,-187500.02235174447,-187500.02235174447,-187500.02235174447,-187500.02235174447,1730987736.8942308,1730987736.183547,4000
-6606.438053421743,-60944.71346672934,4915.126253977568,-187500.02235174447,-187500.02235174447,-187500.02235174447,-187500.02235174447,-187500.02235174447,1730987736.8982267,1730987736.183547,4000
-7396.371054216749,-61108.462346608925,4784.9049907809485,-187500.02235174447,-187500.02235174447,-187500.02235174447,-187500.02235174447,-187500.02235174447,1730987736.9012513,1730987736.183547,4000
-7335.663716276135,-61058.28268030676,4806.787348602695,-187500.02235174447,-187500.02235174447,-187500.02235174447,-187500.02235174447,-187500.02235174447,1730987736.9052515,1730987736.183547,4000
-6797.545468514618,-60953.18477787791,4864.834828953127,-187500.02235174447,-187500.02235174447,-187500.02235174447,-187500.02235174447,-187500.02235174447,1730987736.909223,1730987736.183547,4000
-6613.143576758334,-60933.80581543515,4846.1934740774,-187500.02235174447,-187500.02235174447,-187500.02235174447,-187500.02235174447,-187500.02235174447,1730987736.9132507,1730987736.183547,4000
-6807.357884330498,-61014.495612918814,4817.203261518867,-187500.02235174447,-187500.02235174447,-187500.02235174447,-187500.02235174447,-187500.02235174447,1730987736.9182763,1730987736.183547,4000
-6824.792245005638,-61030.96884858237,4776.880714521493,-187500.02235174447,-187500.02235174447,-187500.02235174447,-187500.02235174447,-187500.02235174447,1730987736.9223287,1730987736.183547,4000
-7162.661214192059,-61115.14551820106,4660.986919520727,-187500.02235174447,-187500.02235174447,-187500.02235174447,-187500.02235174447,-187500.02235174447,1730987736.9263537,1730987736.183547,4000
-7039.994840621333,-61053.2088343154,4741.386144326466,-187500.02235174447,-187500.02235174447,-187500.02235174447,-187500.02235174447,-187500.02235174447,1730987736.929285,1730987736.183547,4000
-6927.386752055497,-60994.33433942012,4900.4858613593415,-187500.02235174447,-187500.02235174447,-187500.02235174447,-187500.02235174447,-187500.02235174447,1730987736.9332905,1730987736.183547,4000
-6946.408086586963,-61046.01157260079,4903.548050349718,-187500.02235174447,-187500.02235174447,-187500.02235174447,-187500.02235174447,-187500.02235174447,1730987736.9372876,1730987736.183547,4000
-6813.974000689269,-61029.78420612624,4943.177693268978,-187500.02235174447,-187500.02235174447,-187500.02235174447,-187500.02235174447,-187500.02235174447,1730987736.9414806,1730987736.183547,4000
-6959.372098371041,-60966.484065828816,5049.616700365151,-187500.02235174447,-187500.02235174447,-187500.02235174447,-187500.02235174447,-187500.02235174447,1730987736.9464085,1730987736.183547,4000
-7142.946975582478,-60998.58117086663,5075.254151255388,-187500.02235174447,-187500.02235174447,-187500.02235174447,-187500.02235174447,-187500.02235174447,1730987736.9503632,1730987736.183547,4000
-7119.455292159951,-61101.66741629451,4774.04204297567,-187500.02235174447,-187500.02235174447,-187500.02235174447,-187500.02235174447,-187500.02235174447,1730987736.954336,1730987736.183547,4000
-7006.824851849658,-61083.38368933007,4468.35958580489,-187500.02235174447,-187500.02235174447,-187500.02235174447,-187500.02235174447,-187500.02235174447,1730987736.957383,1730987736.183547,4000
-6965.094144951599,-61016.08258677514,4517.220499184192,-187500.02235174447,-187500.02235174447,-187500.02235174447,-187500.02235174447,-187500.02235174447,1730987736.961372,1730987736.183547,4000
-7158.012051345355,-61014.719130363366,4698.761367650195,-187500.02235174447,-187500.02235174447,-187500.02235174447,-187500.02235174447,-187500.02235174447,1730987736.9653823,1730987736.183547,4000
-7263.288767729851,-61126.96959101792,4699.923658361871,-187500.02235174447,-187500.02235174447,-187500.02235174447,-187500.02235174447,-187500.02235174447,1730987736.9693575,1730987736.183547,4000
-6900.542306964673,-61061.72484895288,4853.480142769831,-187500.02235174447,-187500.02235174447,-187500.02235174447,-187500.02235174447,-187500.02235174447,1730987736.9733596,1730987736.183547,4000
-6807.715512241783,-60978.79987702369,4846.551101988685,-187500.02235174447,-187500.02235174447,-187500.02235174447,-187500.02235174447,-187500.02235174447,1730987736.9784613,1730987736.183547,4000
-6872.736736862271,-60989.88634227352,4703.522289219176,-187500.02235174447,-187500.02235174447,-187500.02235174447,-187500.02235174447,-187500.02235174447,1730987736.9814389,1730987736.183547,4000
-6791.801070189604,-61059.28850880725,4746.862321718017,-187500.02235174447,-187500.02235174447,-187500.02235174447,-187500.02235174447,-187500.02235174447,1730987736.9854507,1730987736.183547,4000
-6843.701820814827,-61078.44395380544,4839.890282141004,-187500.02235174447,-187500.02235174447,-187500.02235174447,-187500.02235174447,-187500.02235174447,1730987736.9894693,1730987736.183547,4000
-6941.490702806796,-60995.80955455417,4763.939054481871,-187500.02235174447,-187500.02235174447,-187500.02235174447,-187500.02235174447,-187500.02235174447,1730987736.9936256,1730987736.183547,4000
-6880.246922999254,-61020.17295601046,4697.867297871983,-187500.02235174447,-187500.02235174447,-187500.02235174447,-187500.02235174447,-187500.02235174447,1730987736.9976308,1730987736.183547,4000
-6738.626270130429,-61024.64330490152,4776.925418010404,-187500.02235174447,-187500.02235174447,-187500.02235174447,-187500.02235174447,-187500.02235174447,1730987737.0015893,1730987736.183547,4000
-6762.3414709975095,-61011.41107218398,4802.719331111829,-187500.02235174447,-187500.02235174447,-187500.02235174447,-187500.02235174447,-187500.02235174447,1730987737.0066233,1730987736.183547,4000
-6806.329704085553,-60980.69977530239,4803.501642167765,-187500.02235174447,-187500.02235174447,-187500.02235174447,-187500.02235174447,-187500.02235174447,1730987737.0095131,1730987736.183547,4000
-6880.738661377271,-61019.63651414353,4794.963275785837,-187500.02235174447,-187500.02235174447,-187500.02235174447,-187500.02235174447,-187500.02235174447,1730987737.0136747,1730987736.183547,4000
-6981.321511426153,-61044.31284002219,4831.083694825613,-187500.02235174447,-187500.02235174447,-187500.02235174447,-187500.02235174447,-187500.02235174447,1730987737.0174537,1730987736.183547,4000
-6828.077951440568,-61024.844470601616,4911.661733586995,-187500.02235174447,-187500.02235174447,-187500.02235174447,-187500.02235174447,-187500.02235174447,1730987737.0215197,1730987736.183547,4000
-6931.298307335175,-61071.7160787244,4815.437473706898,-187500.02235174447,-187500.02235174447,-187500.02235174447,-187500.02235174447,-187500.02235174447,1730987737.0254977,1730987736.183547,4000
-6818.042018180135,-60983.06906021465,4796.796118831172,-187500.02235174447,-187500.02235174447,-187500.02235174447,-187500.02235174447,-187500.02235174447,1730987737.0294292,1730987736.183547,4000
-6739.497988164186,-60990.91452251846,4765.682490549385,-187500.02235174447,-187500.02235174447,-187500.02235174447,-187500.02235174447,-187500.02235174447,1730987737.0346923,1730987736.183547,4000
-6809.213079120288,-61085.68591900897,4747.309356607122,-187500.02235174447,-187500.02235174447,-187500.02235174447,-187500.02235174447,-187500.02235174447,1730987737.037702,1730987736.183547,4000
-6931.186548612899,-61084.54598004175,4866.980596420836,-187500.02235174447,-187500.02235174447,-187500.02235174447,-187500.02235174447,-187500.02235174447,1730987737.0417864,1730987736.183547,4000
-6877.095327031056,-60993.12734521954,4893.06508220018,-187500.02235174447,-187500.02235174447,-187500.02235174447,-187500.02235174447,-187500.02235174447,1730987737.0457044,1730987736.183547,4000
-6887.444184713863,-60972.02729845373,4776.791307543673,-187500.02235174447,-187500.02235174447,-187500.02235174447,-187500.02235174447,-187500.02235174447,1730987737.0495234,1730987736.183547,4000
-6912.299324548165,-61054.214662815895,4828.960279102359,-187500.02235174447,-187500.02235174447,-187500.02235174447,-187500.02235174447,-187500.02235174447,1730987737.0537677,1730987736.183547,4000
-6953.672403534938,-61100.66158779402,4827.060380823658,-187500.02235174447,-187500.02235174447,-187500.02235174447,-187500.02235174447,-187500.02235174447,1730987737.0576184,1730987736.183547,4000
-6886.974798080301,-61003.23033371333,4770.152839440446,-187500.02235174447,-187500.02235174447,-187500.02235174447,-187500.02235174447,-187500.02235174447,1730987737.0625205,1730987736.183547,4000
-6890.841649871069,-60957.81158898016,4848.629814223029,-187500.02235174447,-187500.02235174447,-187500.02235174447,-187500.02235174447,-187500.02235174447,1730987737.0656168,1730987736.183547,4000
-7012.770415874769,-61040.7589126538,4917.227317956366,-187500.02235174447,-187500.02235174447,-187500.02235174447,-187500.02235174447,-187500.02235174447,1730987737.0696323,1730987736.183547,4000
-6960.690851293904,-61088.256369621326,4924.156358737512,-187500.02235174447,-187500.02235174447,-187500.02235174447,-187500.02235174447,-187500.02235174447,1730987737.073645,1730987736.183547,4000
-6899.178850552899,-60995.92131327645,4871.853276712093,-187500.02235174447,-187500.02235174447,-187500.02235174447,-187500.02235174447,-187500.02235174447,1730987737.0776503,1730987736.183547,4000
-6888.494716703262,-60967.15461816247,4824.780502889216,-187500.02235174447,-187500.02235174447,-187500.02235174447,-187500.02235174447,-187500.02235174447,1730987737.0816605,1730987736.183547,4000
-6849.312108673109,-61071.58196825767,4774.265560420223,-187500.02235174447,-187500.02235174447,-187500.02235174447,-187500.02235174447,-187500.02235174447,1730987737.0855458,1730987736.183547,4000
-6843.344192903543,-61073.10188688063,4725.896385418938,-187500.02235174447,-187500.02235174447,-187500.02235174447,-187500.02235174447,-187500.02235174447,1730987737.0896325,1730987736.183547,4000
-6885.477231201796,-61023.45866244539,4806.832052091605,-187500.02235174447,-187500.02235174447,-187500.02235174447,-187500.02235174447,-187500.02235174447,1730987737.093785,1730987736.183547,4000
-6953.270072134742,-61023.03397930074,4837.72216292884,-187500.02235174447,-187500.02235174447,-187500.02235174447,-187500.02235174447,-187500.02235174447,1730987737.0966637,1730987736.183547,4000
-6908.410121012941,-61022.07285428916,4827.797988390683,-187500.02235174447,-187500.02235174447,-187500.02235174447,-187500.02235174447,-187500.02235174447,1730987737.101698,1730987736.183547,4000
-6848.865073784003,-61074.08536363666,4812.755264372261,-187500.02235174447,-187500.02235174447,-187500.02235174447,-187500.02235174447,-187500.02235174447,1730987737.1056907,1730987736.183547,4000
-6795.198535346811,-61019.16712750997,4800.774729344217,-187500.02235174447,-187500.02235174447,-187500.02235174447,-187500.02235174447,-187500.02235174447,1730987737.109682,1730987736.183547,4000
-6753.512531937663,-60950.86019645455,4837.05161059518,-187500.02235174447,-187500.02235174447,-187500.02235174447,-187500.02235174447,-187500.02235174447,1730987737.113712,1730987736.183547,4000
-6955.169970413444,-61051.42069475898,4823.484101710809,-187500.02235174447,-187500.02235174447,-187500.02235174447,-187500.02235174447,-187500.02235174447,1730987737.1167512,1730987736.183547,4000
-7032.663468439993,-61113.04445422226,4814.118720784035,-187500.02235174447,-187500.02235174447,-187500.02235174447,-187500.02235174447,-187500.02235174447,1730987737.1206346,1730987736.183547,4000
-6938.316755094142,-61042.4576452324,4859.224541094844,-187500.02235174447,-187500.02235174447,-187500.02235174447,-187500.02235174447,-187500.02235174447,1730987737.1246374,1730987736.183547,4000
-6899.156498808444,-60985.88538001602,4842.125456586535,-187500.02235174447,-187500.02235174447,-187500.02235174447,-187500.02235174447,-187500.02235174447,1730987737.1297054,1730987736.183547,4000
-6921.329429308108,-61030.14183403752,4777.372452899511,-187500.02235174447,-187500.02235174447,-187500.02235174447,-187500.02235174447,-187500.02235174447,1730987737.1336668,1730987736.183547,4000
-6942.3177173516415,-61064.54116875424,4789.822374561117,-187500.02235174447,-187500.02235174447,-187500.02235174447,-187500.02235174447,-187500.02235174447,1730987737.13775,1730987736.183547,4000
-6902.688074432383,-61048.067933090686,4897.513079346786,-187500.02235174447,-187500.02235174447,-187500.02235174447,-187500.02235174447,-187500.02235174447,1730987737.1417923,1730987736.183547,4000
-6906.778443667704,-61013.82506058515,4829.161444802457,-187500.02235174447,-187500.02235174447,-187500.02235174447,-187500.02235174447,-187500.02235174447,1730987737.1447744,1730987736.183547,4000
-6875.1060217745335,-60980.58801658011,4832.648316937485,-187500.02235174447,-187500.02235174447,-187500.02235174447,-187500.02235174447,-187500.02235174447,1730987737.148769,1730987736.183547,4000
-6874.1225450185,-61066.61988098859,4805.982685802303,-187500.02235174447,-187500.02235174447,-187500.02235174447,-187500.02235174447,-187500.02235174447,1730987737.1526935,1730987736.183547,4000
-6886.281894002187,-61120.845213037166,4736.915795435405,-187500.02235174447,-187500.02235174447,-187500.02235174447,-187500.02235174447,-187500.02235174447,1730987737.1566887,1730987736.183547,4000
-6910.868812903025,-60990.78041205173,4739.84387395905,-187500.02235174447,-187500.02235174447,-187500.02235174447,-187500.02235174447,-187500.02235174447,1730987737.1617036,1730987736.183547,4000
-6882.817373611614,-60974.06130719916,4816.890337096494,-187500.02235174447,-187500.02235174447,-187500.02235174447,-187500.02235174447,-187500.02235174447,1730987737.1657095,1730987736.183547,4000
-6882.347986978053,-61021.625819400055,4866.108878387079,-187500.02235174447,-187500.02235174447,-187500.02235174447,-187500.02235174447,-187500.02235174447,1730987737.1697445,1730987736.183547,4000
-6872.35675720653,-61040.7589126538,4852.228445080334,-187500.02235174447,-187500.02235174447,-187500.02235174447,-187500.02235174447,-187500.02235174447,1730987737.1726613,1730987736.183547,4000
-6975.912389267968,-61074.957081670414,4859.582169006129,-187500.02235174447,-187500.02235174447,-187500.02235174447,-187500.02235174447,-187500.02235174447,1730987737.176696,1730987736.183547,4000
-6980.315682925664,-60995.273112687246,4856.788200949216,-187500.02235174447,-187500.02235174447,-187500.02235174447,-187500.02235174447,-187500.02235174447,1730987737.1806867,1730987736.183547,4000
-6927.3420485665865,-61008.39358668251,4873.127326146046,-187500.02235174447,-187500.02235174447,-187500.02235174447,-187500.02235174447,-187500.02235174447,1730987737.1847646,1730987736.183547,4000
-6961.607272816572,-61112.61977107761,4808.664895136941,-187500.02235174447,-187500.02235174447,-187500.02235174447,-187500.02235174447,-187500.02235174447,1730987737.1898117,1730987736.183547,4000
-6919.27306881822,-61033.0028573278,4779.115888967024,-187500.02235174447,-187500.02235174447,-187500.02235174447,-187500.02235174447,-187500.02235174447,1730987737.1937375,1730987736.183547,4000
-6857.939882032858,-60964.42770533892,4827.261546523756,-187500.02235174447,-187500.02235174447,-187500.02235174447,-187500.02235174447,-187500.02235174447,1730987737.197742,1730987736.183547,4000
-6883.040891056167,-61028.82308111466,4844.762962432261,-187500.02235174447,-187500.02235174447,-187500.02235174447,-187500.02235174447,-187500.02235174447,1730987737.2007525,1730987736.183547,4000
-6974.839505534113,-61119.347646158654,4855.20122709289,-187500.02235174447,-187500.02235174447,-187500.02235174447,-187500.02235174447,-187500.02235174447,1730987737.2049532,1730987736.183547,4000
-6901.861059887536,-61035.39449398453,4795.969104286326,-187500.02235174447,-187500.02235174447,-187500.02235174447,-187500.02235174447,-187500.02235174447,1730987737.2088506,1730987736.183547,4000
-6883.711443389827,-60980.96799623585,4789.934133283393,-187500.02235174447,-187500.02235174447,-187500.02235174447,-187500.02235174447,-187500.02235174447,1730987737.2127912,1730987736.183547,4000
-6974.57128460065,-61038.8590143751,4822.970011588337,-187500.02235174447,-187500.02235174447,-187500.02235174447,-187500.02235174447,-187500.02235174447,1730987737.2178693,1730987736.183547,4000
-6941.42364757343,-61062.08247686416,4797.734892098295,-187500.02235174447,-187500.02235174447,-187500.02235174447,-187500.02235174447,-187500.02235174447,1730987737.2219908,1730987736.183547,4000
-6854.520065131196,-61033.2040230279,4787.050758248658,-187500.02235174447,-187500.02235174447,-187500.02235174447,-187500.02235174447,-187500.02235174447,1730987737.2258475,1730987736.183547,4000
-6967.441078119407,-61052.98531687085,4805.490947424287,-187500.02235174447,-187500.02235174447,-187500.02235174447,-187500.02235174447,-187500.02235174447,1730987737.2288249,1730987736.183547,4000
-6975.510057867773,-61052.49357849283,4782.245133190767,-187500.02235174447,-187500.02235174447,-187500.02235174447,-187500.02235174447,-187500.02235174447,1730987737.232992,1730987736.183547,4000
-6947.458618576363,-61074.77826771478,4831.8660058815485,-187500.02235174447,-187500.02235174447,-187500.02235174447,-187500.02235174447,-187500.02235174447,1730987737.236843,1730987736.183547,4000
-6911.047626858667,-61079.092154394646,4860.208017850879,-187500.02235174447,-187500.02235174447,-187500.02235174447,-187500.02235174447,-187500.02235174447,1730987737.2409272,1730987736.183547,4000
-6902.643370943471,-60998.89409528901,4841.343145530599,-187500.02235174447,-187500.02235174447,-187500.02235174447,-187500.02235174447,-187500.02235174447,1730987737.245885,1730987736.183547,4000
-6942.094199907089,-61027.5043281918,4749.097496163547,-187500.02235174447,-187500.02235174447,-187500.02235174447,-187500.02235174447,-187500.02235174447,1730987737.249922,1730987736.183547,4000
-6901.1681558094215,-61114.05028272275,4810.609496904552,-187500.02235174447,-187500.02235174447,-187500.02235174447,-187500.02235174447,-187500.02235174447,1730987737.2528565,1730987736.183547,4000
-6900.69876917586,-61021.20113625541,4901.4246346264645,-187500.02235174447,-187500.02235174447,-187500.02235174447,-187500.02235174447,-187500.02235174447,1730987737.2568069,1730987736.183547,4000
-6958.120400681544,-60991.51801961876,4753.009051443226,-187500.02235174447,-187500.02235174447,-187500.02235174447,-187500.02235174447,-187500.02235174447,1730987737.2608545,1730987736.183547,4000
-6919.340124051586,-61039.57427019766,4811.123587027024,-187500.02235174447,-187500.02235174447,-187500.02235174447,-187500.02235174447,-187500.02235174447,1730987737.264836,1730987736.183547,4000
-6842.561881847606,-61053.32059303768,4860.789163206717,-187500.02235174447,-187500.02235174447,-187500.02235174447,-187500.02235174447,-187500.02235174447,1730987737.2688577,1730987736.183547,4000
-6914.243926315776,-61029.69479914842,4896.440195612931,-187500.02235174447,-187500.02235174447,-187500.02235174447,-187500.02235174447,-187500.02235174447,1730987737.273884,1730987736.183547,4000
-7033.177558562465,-61029.85126135961,4929.252556473321,-187500.02235174447,-187500.02235174447,-187500.02235174447,-187500.02235174447,-187500.02235174447,1730987737.2778833,1730987736.183547,4000
-6953.4041826014745,-60997.32947317714,4848.406296778477,-187500.02235174447,-187500.02235174447,-187500.02235174447,-187500.02235174447,-187500.02235174447,1730987737.280846,1730987736.183547,4000
-7009.954096073401,-61056.67335470598,4732.736019222262,-187500.02235174447,-187500.02235174447,-187500.02235174447,-187500.02235174447,-187500.02235174447,1730987737.2848969,1730987736.183547,4000
-6927.3420485665865,-61070.35262231263,4777.104231966046,-187500.02235174447,-187500.02235174447,-187500.02235174447,-187500.02235174447,-187500.02235174447,1730987737.2888916,1730987736.183547,4000
-6849.200349950833,-60990.95922600738,4793.756281585251,-187500.02235174447,-187500.02235174447,-187500.02235174447,-187500.02235174447,-187500.02235174447,1730987737.2928843,1730987736.183547,4000
-6843.388896392453,-60985.281882915726,4796.5278978977085,-187500.02235174447,-187500.02235174447,-187500.02235174447,-187500.02235174447,-187500.02235174447,1730987737.2969832,1730987736.183547,4000
-6966.479953107829,-61045.65394468951,4824.534633700208,-187500.02235174447,-187500.02235174447,-187500.02235174447,-187500.02235174447,-187500.02235174447,1730987737.3009536,1730987736.183547,4000
-6939.188473127899,-61102.56148607272,4822.366514488043,-187500.02235174447,-187500.02235174447,-187500.02235174447,-187500.02235174447,-187500.02235174447,1730987737.3061538,1730987736.183547,4000
-6904.722083177815,-61051.01836335878,4822.791197632694,-187500.02235174447,-187500.02235174447,-187500.02235174447,-187500.02235174447,-187500.02235174447,1730987737.3090312,1730987736.183547,4000
-6913.528670493206,-60992.23327544133,4811.056531793658,-187500.02235174447,-187500.02235174447,-187500.02235174447,-187500.02235174447,-187500.02235174447,1730987737.3131132,1730987736.183547,4000
-6989.748119085803,-61060.09317160764,4803.412235189943,-187500.02235174447,-187500.02235174447,-187500.02235174447,-187500.02235174447,-187500.02235174447,1730987737.316975,1730987736.183547,4000
-6971.956130499379,-61126.81312880673,4815.638639406996,-187500.02235174447,-187500.02235174447,-187500.02235174447,-187500.02235174447,-187500.02235174447,1730987737.3210847,1730987736.183547,4000
-6953.985327957312,-61069.07857287867,4788.637732104985,-187500.02235174447,-187500.02235174447,-187500.02235174447,-187500.02235174447,-187500.02235174447,1730987737.3251553,1730987736.183547,4000
-6939.076714405623,-61013.75800535179,4800.439453177387,-187500.02235174447,-187500.02235174447,-187500.02235174447,-187500.02235174447,-187500.02235174447,1730987737.329183,1730987736.183547,4000
-6872.535571162173,-61016.1049385196,4842.661898453463,-187500.02235174447,-187500.02235174447,-187500.02235174447,-187500.02235174447,-187500.02235174447,1730987737.3340604,1730987736.183547,4000
-6869.898065316447,-61101.890933739065,4819.281973753211,-187500.02235174447,-187500.02235174447,-187500.02235174447,-187500.02235174447,-187500.02235174447,1730987737.3371923,1730987736.183547,4000
-6991.424499919952,-61086.445878320446,4794.963275785837,-187500.02235174447,-187500.02235174447,-187500.02235174447,-187500.02235174447,-187500.02235174447,1730987737.3411405,1730987736.183547,4000
-6992.497383653807,-60992.97088300836,4842.080753097624,-187500.02235174447,-187500.02235174447,-187500.02235174447,-187500.02235174447,-187500.02235174447,1730987737.3452418,1730987736.183547,4000
-6944.75405749727,-61003.02916801324,4814.006962061759,-187500.02235174447,-187500.02235174447,-187500.02235174447,-187500.02235174447,-187500.02235174447,1730987737.3492577,1730987736.183547,4000
-6943.27884236322,-61098.31465462621,4863.761945219272,-187500.02235174447,-187500.02235174447,-187500.02235174447,-187500.02235174447,-187500.02235174447,1730987737.353187,1730987736.183547,4000
-6962.970729228346,-61069.36914555659,4899.256515414299,-187500.02235174447,-187500.02235174447,-187500.02235174447,-187500.02235174447,-187500.02235174447,1730987737.3572755,1730987736.183547,4000
-6995.693683110915,-61025.29150549073,4794.113909496536,-187500.02235174447,-187500.02235174447,-187500.02235174447,-187500.02235174447,-187500.02235174447,1730987737.362262,1730987736.183547,4000
-6918.736626951293,-60987.6958713169,4787.944828026871,-187500.02235174447,-187500.02235174447,-187500.02235174447,-187500.02235174447,-187500.02235174447,1730987737.365275,1730987736.183547,4000
-6891.355739993542,-61083.58485503017,4777.663025577429,-187500.02235174447,-187500.02235174447,-187500.02235174447,-187500.02235174447,-187500.02235174447,1730987737.3692584,1730987736.183547,4000
-6833.598832321029,-61079.24861660584,4796.036159519692,-187500.02235174447,-187500.02235174447,-187500.02235174447,-187500.02235174447,-187500.02235174447,1730987737.3732045,1730987736.183547,4000
-6973.677214822437,-61004.07970000264,4771.493944107765,-187500.02235174447,-187500.02235174447,-187500.02235174447,-187500.02235174447,-187500.02235174447,1730987737.3770344,1730987736.183547,4000
-7050.67897447097,-61047.48678773485,4808.977819559314,-187500.02235174447,-187500.02235174447,-187500.02235174447,-187500.02235174447,-187500.02235174447,1730987737.38104,1730987736.183547,4000
-6992.743252842814,-61062.97654664237,4867.405279565487,-187500.02235174447,-187500.02235174447,-187500.02235174447,-187500.02235174447,-187500.02235174447,1730987737.3851588,1730987736.183547,4000
-6935.500435292774,-61145.58859414919,4859.96214866187,-187500.02235174447,-187500.02235174447,-187500.02235174447,-187500.02235174447,-187500.02235174447,1730987737.389128,1730987736.183547,4000
-6919.295420562676,-61101.71211978342,4869.05930865518,-187500.02235174447,-187500.02235174447,-187500.02235174447,-187500.02235174447,-187500.02235174447,1730987737.392002,1730987736.183547,4000
-6974.52658111174,-61001.97863602384,4777.417156388421,-187500.02235174447,-187500.02235174447,-187500.02235174447,-187500.02235174447,-187500.02235174447,1730987737.3971276,1730987736.183547,4000
-6953.247720390287,-61022.676351389455,4749.879807219482,-187500.02235174447,-187500.02235174447,-187500.02235174447,-187500.02235174447,-187500.02235174447,1730987737.4011116,1730987736.183547,4000
-6982.148525970999,-61076.87933169358,4771.225723174301,-187500.02235174447,-187500.02235174447,-187500.02235174447,-187500.02235174447,-187500.02235174447,1730987737.405124,1730987736.183547,4000
-6996.319531955664,-61071.15728511302,4735.641746001452,-187500.02235174447,-187500.02235174447,-187500.02235174447,-187500.02235174447,-187500.02235174447,1730987737.4091966,1730987736.183547,4000
-6879.911646832425,-61003.11857499106,4853.122514858546,-187500.02235174447,-187500.02235174447,-187500.02235174447,-187500.02235174447,-187500.02235174447,1730987737.413202,1730987736.183547,4000
-6869.674547871894,-61015.83671758613,4830.681363425418,-187500.02235174447,-187500.02235174447,-187500.02235174447,-187500.02235174447,-187500.02235174447,1730987737.4172492,1730987736.183547,4000
-6950.699621522382,-61092.54790455674,4809.782482359706,-187500.02235174447,-187500.02235174447,-187500.02235174447,-187500.02235174447,-187500.02235174447,1730987737.4203196,1730987736.183547,4000
-7023.231032279853,-61044.11167432209,4833.2741657822335,-187500.02235174447,-187500.02235174447,-187500.02235174447,-187500.02235174447,-187500.02235174447,1730987737.4244022,1730987736.183547,4000
-6957.226330903332,-61033.8075201282,4822.746494143784,-187500.02235174447,-187500.02235174447,-187500.02235174447,-187500.02235174447,-187500.02235174447,1730987737.4294825,1730987736.183547,4000
-6942.429476073919,-61018.51892692077,4807.6814183809065,-187500.02235174447,-187500.02235174447,-187500.02235174447,-187500.02235174447,-187500.02235174447,1730987737.433154,1730987736.183547,4000
-6975.063022978667,-61072.61014850261,4808.039046292191,-187500.02235174447,-187500.02235174447,-187500.02235174447,-187500.02235174447,-187500.02235174447,1730987737.4375455,1730987736.183547,4000
-6984.853087050091,-61092.83847723466,4754.46191483282,-187500.02235174447,-187500.02235174447,-187500.02235174447,-187500.02235174447,-187500.02235174447,1730987737.4411798,1730987736.183547,4000
-6961.383755372019,-61013.69095011842,4825.093427311591,-187500.02235174447,-187500.02235174447,-187500.02235174447,-187500.02235174447,-187500.02235174447,1730987737.445232,1730987736.183547,4000
-6929.130188123011,-60996.05542374319,4890.114651932079,-187500.02235174447,-187500.02235174447,-187500.02235174447,-187500.02235174447,-187500.02235174447,1730987737.448259,1730987736.183547,4000
-6895.557867951139,-61055.17578782747,4820.936002842904,-187500.02235174447,-187500.02235174447,-187500.02235174447,-187500.02235174447,-187500.02235174447,1730987737.4521751,1730987736.183547,4000
-6941.311888851153,-61068.3633170561,4816.085674296102,-187500.02235174447,-187500.02235174447,-187500.02235174447,-187500.02235174447,-187500.02235174447,1730987737.456251,1730987736.183547,4000
-6933.9805166698125,-61001.1963249679,4811.972953316325,-187500.02235174447,-187500.02235174447,-187500.02235174447,-187500.02235174447,-187500.02235174447,1730987737.461145,1730987736.183547,4000
-6965.943511240901,-60991.31685391866,4788.548325127164,-187500.02235174447,-187500.02235174447,-187500.02235174447,-187500.02235174447,-187500.02235174447,1730987737.46525,1730987736.183547,4000
-6986.663578350971,-61089.59747428865,4766.665967305418,-187500.02235174447,-187500.02235174447,-187500.02235174447,-187500.02235174447,-187500.02235174447,1730987737.469507,1730987736.183547,4000
-6986.037729506223,-61090.13391615557,4755.221874144301,-187500.02235174447,-187500.02235174447,-187500.02235174447,-187500.02235174447,-187500.02235174447,1730987737.472206,1730987736.183547,4000
-6971.822020032647,-60997.26241794377,4825.3392965006,-187500.02235174447,-187500.02235174447,-187500.02235174447,-187500.02235174447,-187500.02235174447,1730987737.476262,1730987736.183547,4000
-6986.529467884239,-60986.98061549433,4838.169197817945,-187500.02235174447,-187500.02235174447,-187500.02235174447,-187500.02235174447,-187500.02235174447,1730987737.4803476,1730987736.183547,4000
-6978.974578258345,-61039.23899403084,4798.740720598784,-187500.02235174447,-187500.02235174447,-187500.02235174447,-187500.02235174447,-187500.02235174447,1730987737.484265,1730987736.183547,4000
-6932.482949791307,-61113.29032341127,4851.155561346479,-187500.02235174447,-187500.02235174447,-187500.02235174447,-187500.02235174447,-187500.02235174447,1730987737.4892435,1730987736.183547,4000
-6963.373060628541,-61068.58683450065,4868.478163299342,-187500.02235174447,-187500.02235174447,-187500.02235174447,-187500.02235174447,-187500.02235174447,1730987737.493246,1730987736.183547,4000
-7035.189215563442,-61031.54999393821,4826.501587212275,-187500.02235174447,-187500.02235174447,-187500.02235174447,-187500.02235174447,-187500.02235174447,1730987737.4962063,1730987736.183547,4000
-6979.399261402997,-61038.27786901926,4819.729008642317,-187500.02235174447,-187500.02235174447,-187500.02235174447,-187500.02235174447,-187500.02235174447,1730987737.5002255,1730987736.183547,4000
-6894.596742939561,-61103.23203840638,4850.909692157471,-187500.02235174447,-187500.02235174447,-187500.02235174447,-187500.02235174447,-187500.02235174447,1730987737.5041838,1730987736.183547,4000
-6905.325580278109,-61061.478979763866,4785.419080903421,-187500.02235174447,-187500.02235174447,-187500.02235174447,-187500.02235174447,-187500.02235174447,1730987737.508274,1730987736.183547,4000
-6957.561607070161,-61043.21760454388,4785.70965358134,-187500.02235174447,-187500.02235174447,-187500.02235174447,-187500.02235174447,-187500.02235174447,1730987737.5122497,1730987736.183547,4000
-6983.221409704854,-61068.07274437818,4824.825206378127,-187500.02235174447,-187500.02235174447,-187500.02235174447,-187500.02235174447,-187500.02235174447,1730987737.5172672,1730987736.183547,4000
-6990.7986510752025,-61032.04173231623,4781.239304690279,-187500.02235174447,-187500.02235174447,-187500.02235174447,-187500.02235174447,-187500.02235174447,1730987737.5214503,1730987736.183547,4000
-6992.296217953708,-61059.5120262518,4788.682435593896,-187500.02235174447,-187500.02235174447,-187500.02235174447,-187500.02235174447,-187500.02235174447,1730987737.5242636,1730987736.183547,4000
-6968.178685686432,-61027.079645047146,4842.371325775544,-187500.02235174447,-187500.02235174447,-187500.02235174447,-187500.02235174447,-187500.02235174447,1730987737.5283797,1730987736.183547,4000
-6942.720048751838,-61018.80949959868,4815.884508596005,-187500.02235174447,-187500.02235174447,-187500.02235174447,-187500.02235174447,-187500.02235174447,1730987737.5322924,1730987736.183547,4000
-6940.462522561851,-61098.13584067057,4788.95065652736,-187500.02235174447,-187500.02235174447,-187500.02235174447,-187500.02235174447,-187500.02235174447,1730987737.5362885,1730987736.183547,4000
-6975.778278801236,-61044.44695048892,4790.604685617052,-187500.02235174447,-187500.02235174447,-187500.02235174447,-187500.02235174447,-187500.02235174447,1730987737.5403247,1730987736.183547,4000
-6954.991156457801,-61016.26140073078,4788.794194316172,-187500.02235174447,-187500.02235174447,-187500.02235174447,-187500.02235174447,-187500.02235174447,1730987737.5443945,1730987736.183547,4000
-6951.750153511782,-61062.171883841984,4796.192621730879,-187500.02235174447,-187500.02235174447,-187500.02235174447,-187500.02235174447,-187500.02235174447,1730987737.5492897,1730987736.183547,4000
-6956.019336702745,-61077.95221542743,4816.756226629762,-187500.02235174447,-187500.02235174447,-187500.02235174447,-187500.02235174447,-187500.02235174447,1730987737.5523455,1730987736.183547,4000
-6921.731760708304,-61105.28839889627,4782.178077957401,-187500.02235174447,-187500.02235174447,-187500.02235174447,-187500.02235174447,-187500.02235174447,1730987737.5563662,1730987736.183547,4000
-6961.026127460734,-61104.21551516242,4784.860287292038,-187500.02235174447,-187500.02235174447,-187500.02235174447,-187500.02235174447,-187500.02235174447,1730987737.560372,1730987736.183547,4000
-6974.101897967089,-61020.39647345501,4809.961296315348,-187500.02235174447,-187500.02235174447,-187500.02235174447,-187500.02235174447,-187500.02235174447,1730987737.5643227,1730987736.183547,4000
-6983.467278893862,-61059.80259892972,4821.114816798547,-187500.02235174447,-187500.02235174447,-187500.02235174447,-187500.02235174447,-187500.02235174447,1730987737.5684,1730987736.183547,4000
-6992.542087142717,-61141.38646619159,4821.986534832303,-187500.02235174447,-187500.02235174447,-187500.02235174447,-187500.02235174447,-187500.02235174447,1730987737.573388,1730987736.183547,4000
-6975.308892167675,-61062.55186349772,4809.983648059803,-187500.02235174447,-187500.02235174447,-187500.02235174447,-187500.02235174447,-187500.02235174447,1730987737.5773668,1730987736.183547,4000
-6944.463484819351,-61033.24872651682,4799.545383399175,-187500.02235174447,-187500.02235174447,-187500.02235174447,-187500.02235174447,-187500.02235174447,1730987737.5803568,1730987736.183547,4000
-6933.779350969715,-61088.79281148825,4826.702752912373,-187500.02235174447,-187500.02235174447,-187500.02235174447,-187500.02235174447,-187500.02235174447,1730987737.58442,1730987736.183547,4000
-6956.019336702745,-61080.09798289514,4826.948622101381,-187500.02235174447,-187500.02235174447,-187500.02235174447,-187500.02235174447,-187500.02235174447,1730987737.58838,1730987736.183547,4000
-6974.772450300748,-61078.19808461644,4828.62500293553,-187500.02235174447,-187500.02235174447,-187500.02235174447,-187500.02235174447,-187500.02235174447,1730987737.5923836,1730987736.183547,4000
-6974.168953200455,-61050.54897672522,4799.210107232346,-187500.02235174447,-187500.02235174447,-187500.02235174447,-187500.02235174447,-187500.02235174447,1730987737.596385,1730987736.183547,4000
-6964.334185640119,-61042.43529348794,4793.868040307527,-187500.02235174447,-187500.02235174447,-187500.02235174447,-187500.02235174447,-187500.02235174447,1730987737.6014144,1730987736.183547,4000
-6989.85987780808,-61110.339893143166,4813.425816705921,-187500.02235174447,-187500.02235174447,-187500.02235174447,-187500.02235174447,-187500.02235174447,1730987737.6054156,1730987736.183547,4000
-6999.649941879505,-61087.40700333202,4816.197433018378,-187500.02235174447,-187500.02235174447,-187500.02235174447,-187500.02235174447,-187500.02235174447,1730987737.6084363,1730987736.183547,4000
-6958.925063481935,-61079.293320094745,4807.122624769524,-187500.02235174447,-187500.02235174447,-187500.02235174447,-187500.02235174447,-187500.02235174447,1730987737.6124525,1730987736.183547,4000
-6930.18072011241,-61025.53737467973,4793.845688563071,-187500.02235174447,-187500.02235174447,-187500.02235174447,-187500.02235174447,-187500.02235174447,1730987737.616428,1730987736.183547,4000
-6885.656045157439,-61067.80452344472,4811.6153254050405,-187500.02235174447,-187500.02235174447,-187500.02235174447,-187500.02235174447,-187500.02235174447,1730987737.6204357,1730987736.183547,4000
-6993.3243981986525,-61139.41951267952,4813.626982406018,-187500.02235174447,-187500.02235174447,-187500.02235174447,-187500.02235174447,-187500.02235174447,1730987737.6244292,1730987736.183547,4000
-7004.589677404128,-61039.0601800752,4839.778523418728,-187500.02235174447,-187500.02235174447,-187500.02235174447,-187500.02235174447,-187500.02235174447,1730987737.6295063,1730987736.183547,4000
-7010.043503051223,-61054.81815991618,4819.840767364593,-187500.02235174447,-187500.02235174447,-187500.02235174447,-187500.02235174447,-187500.02235174447,1730987737.6324732,1730987736.183547,4000
-6978.102860224589,-61128.82478580771,4793.599819374063,-187500.02235174447,-187500.02235174447,-187500.02235174447,-187500.02235174447,-187500.02235174447,1730987737.6355648,1730987736.183547,4000
-6925.486853776795,-61125.67318983951,4807.592011403085,-187500.02235174447,-187500.02235174447,-187500.02235174447,-187500.02235174447,-187500.02235174447,1730987737.6405387,1730987736.183547,4000
-6842.025439980679,-61039.84249113113,4784.815583803128,-187500.02235174447,-187500.02235174447,-187500.02235174447,-187500.02235174447,-187500.02235174447,1730987737.6444874,1730987736.183547,4000
-6960.489685593807,-61015.7026071194,4786.491964637276,-187500.02235174447,-187500.02235174447,-187500.02235174447,-187500.02235174447,-187500.02235174447,1730987737.6490223,1730987736.183547,4000
-7018.157186288498,-61105.735433785376,4800.037121777192,-187500.02235174447,-187500.02235174447,-187500.02235174447,-187500.02235174447,-187500.02235174447,1730987737.652527,1730987736.183547,4000
-7037.089113842144,-61148.20374825046,4773.37149064201,-187500.02235174447,-187500.02235174447,-187500.02235174447,-187500.02235174447,-187500.02235174447,1730987737.6576407,1730987736.183547,4000
-6977.454659635385,-61072.72190722488,4801.601743889063,-187500.02235174447,-187500.02235174447,-187500.02235174447,-187500.02235174447,-187500.02235174447,1730987737.6606376,1730987736.183547,4000
-6919.720103707326,-61045.89981387852,4813.984610317303,-187500.02235174447,-187500.02235174447,-187500.02235174447,-187500.02235174447,-187500.02235174447,1730987737.663621,1730987736.183547,4000
-6938.741438238792,-61108.5741053312,4817.00209581877,-187500.02235174447,-187500.02235174447,-187500.02235174447,-187500.02235174447,-187500.02235174447,1730987737.6685312,1730987736.183547,4000
-6972.872552022047,-61144.247489481866,4828.177968046423,-187500.02235174447,-187500.02235174447,-187500.02235174447,-187500.02235174447,-187500.02235174447,1730987737.672557,1730987736.183547,4000
-6987.647055107004,-61102.85205875064,4833.430627993421,-187500.02235174447,-187500.02235174447,-187500.02235174447,-187500.02235174447,-187500.02235174447,1730987737.6766205,1730987736.183547,4000
-6976.3594241570745,-61088.681052765976,4800.819432833127,-187500.02235174447,-187500.02235174447,-187500.02235174447,-187500.02235174447,-187500.02235174447,1730987737.680634,1730987736.183547,4000
-7007.7636251167805,-61116.28545716829,4802.495813667276,-187500.02235174447,-187500.02235174447,-187500.02235174447,-187500.02235174447,-187500.02235174447,1730987737.6845832,1730987736.183547,4000
-6981.723842826348,-61136.08910275568,4786.42490940391,-187500.02235174447,-187500.02235174447,-187500.02235174447,-187500.02235174447,-187500.02235174447,1730987737.6886406,1730987736.183547,4000
-6958.768601270748,-61074.10771538111,4784.189734958379,-187500.02235174447,-187500.02235174447,-187500.02235174447,-187500.02235174447,-187500.02235174447,1730987737.6916077,1730987736.183547,4000
-6986.060081250678,-61044.53635746674,4783.6756448359065,-187500.02235174447,-187500.02235174447,-187500.02235174447,-187500.02235174447,-187500.02235174447,1730987737.6966872,1730987736.183547,4000
-6967.865761264058,-61089.23984637736,4788.727139082806,-187500.02235174447,-187500.02235174447,-187500.02235174447,-187500.02235174447,-187500.02235174447,1730987737.700635,1730987736.183547,4000
-6920.189490340888,-61112.95504724444,4823.886433111004,-187500.02235174447,-187500.02235174447,-187500.02235174447,-187500.02235174447,-187500.02235174447,1730987737.7046776,1730987736.183547,4000
-6980.516848625762,-61130.70233234196,4803.814566590138,-187500.02235174447,-187500.02235174447,-187500.02235174447,-187500.02235174447,-187500.02235174447,1730987737.7086432,1730987736.183547,4000
-6989.323435941153,-61051.33128778116,4791.4764036508095,-187500.02235174447,-187500.02235174447,-187500.02235174447,-187500.02235174447,-187500.02235174447,1730987737.7126508,1730987736.183547,4000
-6963.842447262103,-61056.74040993934,4798.204278731857,-187500.02235174447,-187500.02235174447,-187500.02235174447,-187500.02235174447,-187500.02235174447,1730987737.7165763,1730987736.183547,4000
-6969.609197331572,-61144.06867552623,4787.386034415488,-187500.02235174447,-187500.02235174447,-187500.02235174447,-187500.02235174447,-187500.02235174447,1730987737.719628,1730987736.183547,4000
-7008.925915828457,-61108.35058788665,4809.201337003868,-187500.02235174447,-187500.02235174447,-187500.02235174447,-187500.02235174447,-187500.02235174447,1730987737.723595,1730987736.183547,4000
-6988.295255696208,-61019.07772053215,4809.04487479268,-187500.02235174447,-187500.02235174447,-187500.02235174447,-187500.02235174447,-187500.02235174447,1730987737.7285874,1730987736.183547,4000
-6939.6131562725495,-61052.18065407046,4790.112947239036,-187500.02235174447,-187500.02235174447,-187500.02235174447,-187500.02235174447,-187500.02235174447,1730987737.732653,1730987736.183547,4000
-6966.390546130007,-61122.74511131586,4764.810772515628,-187500.02235174447,-187500.02235174447,-187500.02235174447,-187500.02235174447,-187500.02235174447,1730987737.736791,1730987736.183547,4000
-6972.984310744323,-61085.2165323754,4773.729118553295,-187500.02235174447,-187500.02235174447,-187500.02235174447,-187500.02235174447,-187500.02235174447,1730987737.7405906,1730987736.183547,4000
-6989.546953385706,-61088.79281148825,4792.638694362485,-187500.02235174447,-187500.02235174447,-187500.02235174447,-187500.02235174447,-187500.02235174447,1730987737.7447288,1730987736.183547,4000
-6991.536258642228,-61126.27668693981,4784.972046014314,-187500.02235174447,-187500.02235174447,-187500.02235174447,-187500.02235174447,-187500.02235174447,1730987737.747677,1730987736.183547,4000
-6941.580109784617,-61070.151456612526,4798.740720598784,-187500.02235174447,-187500.02235174447,-187500.02235174447,-187500.02235174447,-187500.02235174447,1730987737.7517524,1730987736.183547,4000
-6942.205958629365,-61118.14065195807,4809.469557937331,-187500.02235174447,-187500.02235174447,-187500.02235174447,-187500.02235174447,-187500.02235174447,1730987737.756734,1730987736.183547,4000
-6997.705340111893,-61120.62169559261,4797.3325606981,-187500.02235174447,-187500.02235174447,-187500.02235174447,-187500.02235174447,-187500.02235174447,1730987737.7607586,1730987736.183547,4000
-7025.645020681027,-61037.71907540788,4782.647464590963,-187500.02235174447,-187500.02235174447,-187500.02235174447,-187500.02235174447,-187500.02235174447,1730987737.7648168,1730987736.183547,4000
-7000.119328513066,-61057.96975588438,4814.543403928686,-187500.02235174447,-187500.02235174447,-187500.02235174447,-187500.02235174447,-187500.02235174447,1730987737.7678492,1730987736.183547,4000
-6976.404127645985,-61122.99098050488,4809.782482359706,-187500.02235174447,-187500.02235174447,-187500.02235174447,-187500.02235174447,-187500.02235174447,1730987737.7717795,1730987736.183547,4000
-6971.4867438658175,-61103.16498317302,4776.478383121298,-187500.02235174447,-187500.02235174447,-187500.02235174447,-187500.02235174447,-187500.02235174447,1730987737.7758572,1730987736.183547,4000
-7002.95800005889,-61081.6179015181,4753.567845054608,-187500.02235174447,-187500.02235174447,-187500.02235174447,-187500.02235174447,-187500.02235174447,1730987737.7797227,1730987736.183547,4000
-6976.806459046181,-61102.583837817176,4781.015787245726,-187500.02235174447,-187500.02235174447,-187500.02235174447,-187500.02235174447,-187500.02235174447,1730987737.7837708,1730987736.183547,4000
-6978.058156735678,-61144.247489481866,4795.52206939722,-187500.02235174447,-187500.02235174447,-187500.02235174447,-187500.02235174447,-187500.02235174447,1730987737.7887993,1730987736.183547,4000
-7009.708226884392,-61113.491489111366,4796.237325219789,-187500.02235174447,-187500.02235174447,-187500.02235174447,-187500.02235174447,-187500.02235174447,1730987737.7928183,1730987736.183547,4000
-6999.1358517570325,-61072.94542466944,4788.593028616075,-187500.02235174447,-187500.02235174447,-187500.02235174447,-187500.02235174447,-187500.02235174447,1730987737.7957337,1730987736.183547,4000
-6966.725822296838,-61121.605172348645,4794.248019963267,-187500.02235174447,-187500.02235174447,-187500.02235174447,-187500.02235174447,-187500.02235174447,1730987737.8001325,1730987736.183547,4000
-6975.353595656586,-61136.89376555607,4790.001188516759,-187500.02235174447,-187500.02235174447,-187500.02235174447,-187500.02235174447,-187500.02235174447,1730987737.804041,1730987736.183547,4000
-6958.343918126097,-61095.29716912474,4831.19545354789,-187500.02235174447,-187500.02235174447,-187500.02235174447,-187500.02235174447,-187500.02235174447,1730987737.808416,1730987736.183547,4000
-6954.499418079784,-61064.87644492107,4828.334430257611,-187500.02235174447,-187500.02235174447,-187500.02235174447,-187500.02235174447,-187500.02235174447,1730987737.812009,1730987736.183547,4000
-6942.138903396,-61116.15134670155,4746.594100784552,-187500.02235174447,-187500.02235174447,-187500.02235174447,-187500.02235174447,-187500.02235174447,1730987737.816922,1730987736.183547,4000
-6910.421778013919,-61169.90729211656,4760.22866490229,-187500.02235174447,-187500.02235174447,-187500.02235174447,-187500.02235174447,-187500.02235174447,1730987737.821072,1730987736.183547,4000
-7018.872442111068,-61128.24364045187,4779.786441300684,-187500.02235174447,-187500.02235174447,-187500.02235174447,-187500.02235174447,-187500.02235174447,1730987737.824042,1730987736.183547,4000
-7075.623521283093,-61089.12808765508,4778.42298488891,-187500.02235174447,-187500.02235174447,-187500.02235174447,-187500.02235174447,-187500.02235174447,1730987737.8277977,1730987736.183547,4000
-6997.14654650051,-61057.79094192874,4789.3306361831,-187500.02235174447,-187500.02235174447,-187500.02235174447,-187500.02235174447,-187500.02235174447,1730987737.8324337,1730987736.183547,4000
-6970.346804898597,-61132.26695445382,4797.958409542848,-187500.02235174447,-187500.02235174447,-187500.02235174447,-187500.02235174447,-187500.02235174447,1730987737.8363383,1730987736.183547,4000
-6997.213601733876,-61112.86564026662,4803.792214845684,-187500.02235174447,-187500.02235174447,-187500.02235174447,-187500.02235174447,-187500.02235174447,1730987737.8403609,1730987736.183547,4000
-7012.211622263387,-61075.448820048434,4788.95065652736,-187500.02235174447,-187500.02235174447,-187500.02235174447,-187500.02235174447,-187500.02235174447,1730987737.8449385,1730987736.183547,4000
-6999.493479668317,-61090.69270976696,4784.770880314217,-187500.02235174447,-187500.02235174447,-187500.02235174447,-187500.02235174447,-187500.02235174447,1730987737.848932,1730987736.183547,4000
-6986.216543461865,-61130.72468408641,4771.806868530139,-187500.02235174447,-187500.02235174447,-187500.02235174447,-187500.02235174447,-187500.02235174447,1730987737.8521752,1730987736.183547,4000
-6916.054417616656,-61107.680035552985,4780.836973290083,-187500.02235174447,-187500.02235174447,-187500.02235174447,-187500.02235174447,-187500.02235174447,1730987737.8562374,1730987736.183547,4000
-6942.652993518472,-61093.71019526842,4812.8446713500825,-187500.02235174447,-187500.02235174447,-187500.02235174447,-187500.02235174447,-187500.02235174447,1730987737.859859,1730987736.183547,4000
-7049.3825732925625,-61096.21359064741,4807.636714891996,-187500.02235174447,-187500.02235174447,-187500.02235174447,-187500.02235174447,-187500.02235174447,1730987737.8645153,1730987736.183547,4000
-7016.525508943261,-61041.36240975409,4801.445281677876,-187500.02235174447,-187500.02235174447,-187500.02235174447,-187500.02235174447,-187500.02235174447,1730987737.8678792,1730987736.183547,4000
-6991.782127831237,-61118.54298335827,4822.455921465865,-187500.02235174447,-187500.02235174447,-187500.02235174447,-187500.02235174447,-187500.02235174447,1730987737.8730078,1730987736.183547,4000
-6989.211677218876,-61116.844250779664,4802.205240989357,-187500.02235174447,-187500.02235174447,-187500.02235174447,-187500.02235174447,-187500.02235174447,1730987737.87592,1730987736.183547,4000
-6940.484874306307,-61020.26236298828,4756.138295666969,-187500.02235174447,-187500.02235174447,-187500.02235174447,-187500.02235174447,-187500.02235174447,1730987737.8799496,1730987736.183547,4000
-6902.419853498919,-61035.260383517794,4767.023595216703,-187500.02235174447,-187500.02235174447,-187500.02235174447,-187500.02235174447,-187500.02235174447,1730987737.8839164,1730987736.183547,4000
-7038.6984394429255,-61170.98017585042,4794.203316474356,-187500.02235174447,-187500.02235174447,-187500.02235174447,-187500.02235174447,-187500.02235174447,1730987737.8879604,1730987736.183547,4000
-7046.879177913568,-61151.66826864103,4815.795101618183,-187500.02235174447,-187500.02235174447,-187500.02235174447,-187500.02235174447,-187500.02235174447,1730987737.892077,1730987736.183547,4000
-6990.999816775301,-61040.9600783539,4818.074979552624,-187500.02235174447,-187500.02235174447,-187500.02235174447,-187500.02235174447,-187500.02235174447,1730987737.8964825,1730987736.183547,4000
-6954.164141912955,-61038.680200419454,4801.4005781889655,-187500.02235174447,-187500.02235174447,-187500.02235174447,-187500.02235174447,-187500.02235174447,1730987737.9010272,1730987736.183547,4000
-6968.648072319994,-61145.56624240473,4802.249944478267,-187500.02235174447,-187500.02235174447,-187500.02235174447,-187500.02235174447,-187500.02235174447,1730987737.9042788,1730987736.183547,4000
-7006.064892538177,-61091.56442780071,4783.630941346996,-187500.02235174447,-187500.02235174447,-187500.02235174447,-187500.02235174447,-187500.02235174447,1730987737.9069262,1730987736.183547,4000
-7003.226220992354,-61047.97852611286,4776.008996487737,-187500.02235174447,-187500.02235174447,-187500.02235174447,-187500.02235174447,-187500.02235174447,1730987737.912666,1730987736.183547,4000
-6970.972653743345,-61085.440049819954,4787.609551860041,-187500.02235174447,-187500.02235174447,-187500.02235174447,-187500.02235174447,-187500.02235174447,1730987737.9164712,1730987736.183547,4000
-7005.237877993332,-61103.1202796841,4790.783499572694,-187500.02235174447,-187500.02235174447,-187500.02235174447,-187500.02235174447,-187500.02235174447,1730987737.9202535,1730987736.183547,4000
-7004.030883792745,-61125.06969273921,4792.303418195656,-187500.02235174447,-187500.02235174447,-187500.02235174447,-187500.02235174447,-187500.02235174447,1730987737.924076,1730987736.183547,4000
-6977.722880568848,-61073.39245955855,4785.374377414511,-187500.02235174447,-187500.02235174447,-187500.02235174447,-187500.02235174447,-187500.02235174447,1730987737.9294012,1730987736.183547,4000
-6981.477973637339,-61061.92601465297,4782.066319235125,-187500.02235174447,-187500.02235174447,-187500.02235174447,-187500.02235174447,-187500.02235174447,1730987737.9322996,1730987736.183547,4000
-6994.57609588815,-61128.13188172959,4791.074072250613,-187500.02235174447,-187500.02235174447,-187500.02235174447,-187500.02235174447,-187500.02235174447,1730987737.9352508,1730987736.183547,4000
-6978.192267202409,-61119.43705313648,4796.594953131074,-187500.02235174447,-187500.02235174447,-187500.02235174447,-187500.02235174447,-187500.02235174447,1730987737.9405596,1730987736.183547,4000
-6958.90271173748,-61042.63645918804,4790.515278639231,-187500.02235174447,-187500.02235174447,-187500.02235174447,-187500.02235174447,-187500.02235174447,1730987737.94463,1730987736.183547,4000
-7023.38749449104,-61001.06221450117,4759.446353846354,-187500.02235174447,-187500.02235174447,-187500.02235174447,-187500.02235174447,-187500.02235174447,1730987737.9484868,1730987736.183547,4000
-7020.77234038977,-61077.08049739367,4763.134391681479,-187500.02235174447,-187500.02235174447,-187500.02235174447,-187500.02235174447,-187500.02235174447,1730987737.9521587,1730987736.183547,4000
-6991.066872008667,-61106.09306169666,4768.029423717192,-187500.02235174447,-187500.02235174447,-187500.02235174447,-187500.02235174447,-187500.02235174447,1730987737.9570916,1730987736.183547,4000
-6981.030938748234,-61058.23797681785,4802.316999711633,-187500.02235174447,-187500.02235174447,-187500.02235174447,-187500.02235174447,-187500.02235174447,1730987737.960078,1730987736.183547,4000
-6959.61796756005,-61018.340112965125,4802.585220645096,-187500.02235174447,-187500.02235174447,-187500.02235174447,-187500.02235174447,-187500.02235174447,1730987737.9630651,1730987736.183547,4000
-6988.42936616294,-61085.79767773124,4788.213048960334,-187500.02235174447,-187500.02235174447,-187500.02235174447,-187500.02235174447,-187500.02235174447,1730987737.9680536,1730987736.183547,4000
-7011.630476907549,-61091.89970396754,4789.844726305571,-187500.02235174447,-187500.02235174447,-187500.02235174447,-187500.02235174447,-187500.02235174447,1730987737.972617,1730987736.183547,4000
-6995.738386599825,-61084.90360795303,4789.196525716367,-187500.02235174447,-187500.02235174447,-187500.02235174447,-187500.02235174447,-187500.02235174447,1730987737.9761028,1730987736.183547,4000
-6958.410973359463,-61006.091357003614,4767.604740572541,-187500.02235174447,-187500.02235174447,-187500.02235174447,-187500.02235174447,-187500.02235174447,1730987737.980442,1730987736.183547,4000
-7007.204831505398,-61011.634589628535,4772.700938308351,-187500.02235174447,-187500.02235174447,-187500.02235174447,-187500.02235174447,-187500.02235174447,1730987737.9855485,1730987736.183547,4000
-7027.947250359924,-61123.90740202754,4796.66200836444,-187500.02235174447,-187500.02235174447,-187500.02235174447,-187500.02235174447,-187500.02235174447,1730987737.9884984,1730987736.183547,4000
-7007.182479760943,-61126.366093917626,4792.929267040404,-187500.02235174447,-187500.02235174447,-187500.02235174447,-187500.02235174447,-187500.02235174447,1730987737.9913356,1730987736.183547,4000
-6977.566418357661,-61025.31385723518,4791.275237950711,-187500.02235174447,-187500.02235174447,-187500.02235174447,-187500.02235174447,-187500.02235174447,1730987737.9964886,1730987736.183547,4000
-7018.492462455329,-61035.55095619571,4778.914723266927,-187500.02235174447,-187500.02235174447,-187500.02235174447,-187500.02235174447,-187500.02235174447,1730987738.000156,1730987736.183547,4000
-7013.888003097535,-61105.8248407632,4771.8739237635045,-187500.02235174447,-187500.02235174447,-187500.02235174447,-187500.02235174447,-187500.02235174447,1730987738.00445,1730987736.183547,4000
-6999.1358517570325,-61075.381764815065,4780.456993634342,-187500.02235174447,-187500.02235174447,-187500.02235174447,-187500.02235174447,-187500.02235174447,1730987738.008427,1730987736.183547,4000
-6997.884154067535,-61055.17578782747,4780.99343550127,-187500.02235174447,-187500.02235174447,-187500.02235174447,-187500.02235174447,-187500.02235174447,1730987738.0125103,1730987736.183547,4000
-6981.589732359616,-61071.13493336856,4778.42298488891,-187500.02235174447,-187500.02235174447,-187500.02235174447,-187500.02235174447,-187500.02235174447,1730987738.0155144,1730987736.183547,4000
-6981.14269747051,-61072.72190722488,4790.738796083784,-187500.02235174447,-187500.02235174447,-187500.02235174447,-187500.02235174447,-187500.02235174447,1730987738.019518,1730987736.183547,4000
-6997.2583052227865,-61136.62554462261,4780.881676778994,-187500.02235174447,-187500.02235174447,-187500.02235174447,-187500.02235174447,-187500.02235174447,1730987738.0231435,1730987736.183547,4000
-6989.725767341348,-61091.58677954516,4776.858362777039,-187500.02235174447,-187500.02235174447,-187500.02235174447,-187500.02235174447,-187500.02235174447,1730987738.028635,1730987736.183547,4000
-6983.377871916041,-61022.74340662282,4791.56581062863,-187500.02235174447,-187500.02235174447,-187500.02235174447,-187500.02235174447,-187500.02235174447,1730987738.032498,1730987736.183547,4000
-6982.103822482089,-61088.07755566568,4795.790290330683,-187500.02235174447,-187500.02235174447,-187500.02235174447,-187500.02235174447,-187500.02235174447,1730987738.0366192,1730987736.183547,4000
-6966.56936008565,-61153.903443086565,4795.432662419398,-187500.02235174447,-187500.02235174447,-187500.02235174447,-187500.02235174447,-187500.02235174447,1730987738.0395093,1730987736.183547,4000
-6972.00083398829,-61080.38855557306,4783.89916228046,-187500.02235174447,-187500.02235174447,-187500.02235174447,-187500.02235174447,-187500.02235174447,1730987738.0431604,1730987736.183547,4000
-7000.387549446529,-61038.56844169718,4782.80392680215,-187500.02235174447,-187500.02235174447,-187500.02235174447,-187500.02235174447,-187500.02235174447,1730987738.047537,1730987736.183547,4000
-7018.537165944239,-61110.94339024346,4787.967179771326,-187500.02235174447,-187500.02235174447,-187500.02235174447,-187500.02235174447,-187500.02235174447,1730987738.0512147,1730987736.183547,4000
-6989.993988274812,-61166.37571649262,4793.085729251591,-187500.02235174447,-187500.02235174447,-187500.02235174447,-187500.02235174447,-187500.02235174447,1730987738.0565667,1730987736.183547,4000
-6981.455621892885,-61067.22337808888,4791.007017017248,-187500.02235174447,-187500.02235174447,-187500.02235174447,-187500.02235174447,-187500.02235174447,1730987738.0603335,1730987736.183547,4000
-6986.23889520632,-61059.5120262518,4778.780612800195,-187500.02235174447,-187500.02235174447,-187500.02235174447,-187500.02235174447,-187500.02235174447,1730987738.064488,1730987736.183547,4000
-7013.798596119714,-61103.43320410648,4779.585275600586,-187500.02235174447,-187500.02235174447,-187500.02235174447,-187500.02235174447,-187500.02235174447,1730987738.0671644,1730987736.183547,4000
-7015.989067076334,-61127.48368114039,4787.542496626675,-187500.02235174447,-187500.02235174447,-187500.02235174447,-187500.02235174447,-187500.02235174447,1730987738.0715048,1730987736.183547,4000
-6981.835601548624,-61131.10466374215,4802.920496811927,-187500.02235174447,-187500.02235174447,-187500.02235174447,-187500.02235174447,-187500.02235174447,1730987738.0752523,1730987736.183547,4000
-6985.948322528401,-61025.51502293528,4798.271333965223,-187500.02235174447,-187500.02235174447,-187500.02235174447,-187500.02235174447,-187500.02235174447,1730987738.0794675,1730987736.183547,4000
-6993.905543554491,-61027.906659592,4785.441432647876,-187500.02235174447,-187500.02235174447,-187500.02235174447,-187500.02235174447,-187500.02235174447,1730987738.084183,1730987736.183547,4000
-6996.09601451111,-61114.56437284522,4810.296572482178,-187500.02235174447,-187500.02235174447,-187500.02235174447,-187500.02235174447,-187500.02235174447,1730987738.0883832,1730987736.183547,4000
-7020.5041194563055,-61085.462401564415,4791.409348417443,-187500.02235174447,-187500.02235174447,-187500.02235174447,-187500.02235174447,-187500.02235174447,1730987738.0921595,1730987736.183547,4000
-6974.951264256391,-61044.20108129992,4783.697996580362,-187500.02235174447,-187500.02235174447,-187500.02235174447,-187500.02235174447,-187500.02235174447,1730987738.095344,1730987736.183547,4000
-6961.562569327662,-61046.43625574544,4786.08963323708,-187500.02235174447,-187500.02235174447,-187500.02235174447,-187500.02235174447,-187500.02235174447,1730987738.0996847,1730987736.183547,4000
-6982.126174226543,-61136.93846904498,4803.523993912219,-187500.02235174447,-187500.02235174447,-187500.02235174447,-187500.02235174447,-187500.02235174447,1730987738.103295,1730987736.183547,4000
-7004.679084381948,-61131.08231199769,4791.56581062863,-187500.02235174447,-187500.02235174447,-187500.02235174447,-187500.02235174447,-187500.02235174447,1730987738.1073909,1730987736.183547,4000
-6991.938590042423,-61033.78516838374,4767.582388828086,-187500.02235174447,-187500.02235174447,-187500.02235174447,-187500.02235174447,-187500.02235174447,1730987738.1122503,1730987736.183547,4000
-6986.752985328792,-61035.84152887363,4770.890447007471,-187500.02235174447,-187500.02235174447,-187500.02235174447,-187500.02235174447,-187500.02235174447,1730987738.116328,1730987736.183547,4000
-6971.4867438658175,-61111.3233698992,4795.633828119496,-187500.02235174447,-187500.02235174447,-187500.02235174447,-187500.02235174447,-187500.02235174447,1730987738.1202357,1730987736.183547,4000
-7005.506098926795,-61081.193218373446,4800.551211899664,-187500.02235174447,-187500.02235174447,-187500.02235174447,-187500.02235174447,-187500.02235174447,1730987738.1232336,1730987736.183547,4000
-6979.734537569826,-61026.20792701339,4794.248019963267,-187500.02235174447,-187500.02235174447,-187500.02235174447,-187500.02235174447,-187500.02235174447,1730987738.1273313,1730987736.183547,4000
-6948.956185454868,-61025.49267119083,4783.586237858086,-187500.02235174447,-187500.02235174447,-187500.02235174447,-187500.02235174447,-187500.02235174447,1730987738.1315231,1730987736.183547,4000
-7003.829718092647,-61022.22931650035,4790.939961783882,-187500.02235174447,-187500.02235174447,-187500.02235174447,-187500.02235174447,-187500.02235174447,1730987738.1354368,1730987736.183547,4000
-7014.670314153471,-61101.24273314986,4798.919534554427,-187500.02235174447,-187500.02235174447,-187500.02235174447,-187500.02235174447,-187500.02235174447,1730987738.14038,1730987736.183547,4000
-7004.410863448485,-61050.4595697474,4779.026481989203,-187500.02235174447,-187500.02235174447,-187500.02235174447,-187500.02235174447,-187500.02235174447,1730987738.1448572,1730987736.183547,4000
-6989.189325474421,-60990.802763796186,4773.639711575474,-187500.02235174447,-187500.02235174447,-187500.02235174447,-187500.02235174447,-187500.02235174447,1730987738.147832,1730987736.183547,4000
-6986.171839972954,-61043.709342921895,4789.554153627652,-187500.02235174447,-187500.02235174447,-187500.02235174447,-187500.02235174447,-187500.02235174447,1730987738.1514192,1730987736.183547,4000
-6987.803517318192,-61124.33208517219,4794.76211008574,-187500.02235174447,-187500.02235174447,-187500.02235174447,-187500.02235174447,-187500.02235174447,1730987738.155439,1730987736.183547,4000
-7010.870517596069,-61092.21262838991,4784.681473336395,-187500.02235174447,-187500.02235174447,-187500.02235174447,-187500.02235174447,-187500.02235174447,1730987738.1593697,1730987736.183547,4000
-6995.358406944086,-61022.74340662282,4784.122679725013,-187500.02235174447,-187500.02235174447,-187500.02235174447,-187500.02235174447,-187500.02235174447,1730987738.1633923,1730987736.183547,4000
-7003.740311114826,-61017.17782225345,4784.860287292038,-187500.02235174447,-187500.02235174447,-187500.02235174447,-187500.02235174447,-187500.02235174447,1730987738.1673672,1730987736.183547,4000
-6982.327339926642,-61106.80831751923,4790.671740850418,-187500.02235174447,-187500.02235174447,-187500.02235174447,-187500.02235174447,-187500.02235174447,1730987738.1723063,1730987736.183547,4000
-6988.541124885217,-61084.92595969749,4787.296627437667,-187500.02235174447,-187500.02235174447,-187500.02235174447,-187500.02235174447,-187500.02235174447,1730987738.1752908,1730987736.183547,4000
-7019.475939211362,-60995.76485106527,4785.217915203323,-187500.02235174447,-187500.02235174447,-187500.02235174447,-187500.02235174447,-187500.02235174447,1730987738.1798973,1730987736.183547,4000
-7002.041578536222,-60997.84356329961,4777.774784299706,-187500.02235174447,-187500.02235174447,-187500.02235174447,-187500.02235174447,-187500.02235174447,1730987738.1833923,1730987736.183547,4000
-6994.464337165873,-61090.4691923224,4786.067281492625,-187500.02235174447,-187500.02235174447,-187500.02235174447,-187500.02235174447,-187500.02235174447,1730987738.1880488,1730987736.183547,4000
-6999.158203501488,-61082.601378274136,4793.2421914627785,-187500.02235174447,-187500.02235174447,-187500.02235174447,-187500.02235174447,-187500.02235174447,1730987738.1915853,1730987736.183547,4000
-7008.925915828457,-61004.25851395828,4772.052737719147,-187500.02235174447,-187500.02235174447,-187500.02235174447,-187500.02235174447,-187500.02235174447,1730987738.1959157,1730987736.183547,4000
-7017.48663395484,-61005.1525837365,4774.846705776061,-187500.02235174447,-187500.02235174447,-187500.02235174447,-187500.02235174447,-187500.02235174447,1730987738.2004485,1730987736.183547,4000
-7010.423482706962,-61124.17562296101,4784.390900658476,-187500.02235174447,-187500.02235174447,-187500.02235174447,-187500.02235174447,-187500.02235174447,1730987738.203328,1730987736.183547,4000
-7019.274773511264,-61118.028893235794,4781.529877368197,-187500.02235174447,-187500.02235174447,-187500.02235174447,-187500.02235174447,-187500.02235174447,1730987738.2079003,1730987736.183547,4000
-7013.552726930706,-61075.89585493754,4775.807830787639,-187500.02235174447,-187500.02235174447,-187500.02235174447,-187500.02235174447,-187500.02235174447,1730987738.2114964,1730987736.183547,4000
-6983.087299238122,-61031.3041247492,4763.335557381578,-187500.02235174447,-187500.02235174447,-187500.02235174447,-187500.02235174447,-187500.02235174447,1730987738.2156844,1730987736.183547,4000
-6994.95607554389,-61125.650838095054,4765.995414971759,-187500.02235174447,-187500.02235174447,-187500.02235174447,-187500.02235174447,-187500.02235174447,1730987738.2196193,1730987736.183547,4000
-7021.711113656893,-61135.642067866575,4775.472554620809,-187500.02235174447,-187500.02235174447,-187500.02235174447,-187500.02235174447,-187500.02235174447,1730987738.2239392,1730987736.183547,4000
-7024.840357880636,-61050.61603195859,4782.133374468491,-187500.02235174447,-187500.02235174447,-187500.02235174447,-187500.02235174447,-187500.02235174447,1730987738.228654,1730987736.183547,4000
-6988.250552207298,-61016.1496420085,4765.3025108936445,-187500.02235174447,-187500.02235174447,-187500.02235174447,-187500.02235174447,-187500.02235174447,1730987738.2316084,1730987736.183547,4000
-6988.80934581868,-61038.23316553035,4764.497848093253,-187500.02235174447,-187500.02235174447,-187500.02235174447,-187500.02235174447,-187500.02235174447,1730987738.2357247,1730987736.183547,4000
-7003.896773326012,-61126.075521239705,4776.858362777039,-187500.02235174447,-187500.02235174447,-187500.02235174447,-187500.02235174447,-187500.02235174447,1730987738.2397213,1730987736.183547,4000
-7012.725712385859,-61045.83275864516,4777.864191277527,-187500.02235174447,-187500.02235174447,-187500.02235174447,-187500.02235174447,-187500.02235174447,1730987738.2435644,1730987736.183547,4000
-7006.57898266065,-61005.26434245877,4763.112039937025,-187500.02235174447,-187500.02235174447,-187500.02235174447,-187500.02235174447,-187500.02235174447,1730987738.247888,1730987736.183547,4000
-7023.655715424504,-61038.05435157471,4766.4200981164095,-187500.02235174447,-187500.02235174447,-187500.02235174447,-187500.02235174447,-187500.02235174447,1730987738.251623,1730987736.183547,4000
-7007.964790816879,-61133.78687307679,4785.75435707025,-187500.02235174447,-187500.02235174447,-187500.02235174447,-187500.02235174447,-187500.02235174447,1730987738.2570343,1730987736.183547,4000
-7009.1717850174655,-61077.50518053832,4794.404482174455,-187500.02235174447,-187500.02235174447,-187500.02235174447,-187500.02235174447,-187500.02235174447,1730987738.2595198,1730987736.183547,4000
-7013.351561230607,-61031.23706951584,4781.529877368197,-187500.02235174447,-187500.02235174447,-187500.02235174447,-187500.02235174447,-187500.02235174447,1730987738.262483,1730987736.183547,4000
-6994.218467976865,-61095.163058658014,4778.557095355642,-187500.02235174447,-187500.02235174447,-187500.02235174447,-187500.02235174447,-187500.02235174447,1730987738.2674646,1730987736.183547,4000
-7001.795709347214,-61166.86745487064,4792.2810664512,-187500.02235174447,-187500.02235174447,-187500.02235174447,-187500.02235174447,-187500.02235174447,1730987738.2715523,1730987736.183547,4000
-7005.640209393527,-61082.310805596215,4784.23443844729,-187500.02235174447,-187500.02235174447,-187500.02235174447,-187500.02235174447,-187500.02235174447,1730987738.275451,1730987736.183547,4000
-7011.138738529532,-61006.94072329292,4762.84381900356,-187500.02235174447,-187500.02235174447,-187500.02235174447,-187500.02235174447,-187500.02235174447,1730987738.2798884,1730987736.183547,4000
-6991.603313875594,-61022.11755777808,4765.347214382555,-187500.02235174447,-187500.02235174447,-187500.02235174447,-187500.02235174447,-187500.02235174447,1730987738.283445,1730987736.183547,4000
-6996.1407180000215,-61122.38748340458,4773.036214475181,-187500.02235174447,-187500.02235174447,-187500.02235174447,-187500.02235174447,-187500.02235174447,1730987738.2870934,1730987736.183547,4000
-7029.176596304965,-61081.8190672182,4784.569714614119,-187500.02235174447,-187500.02235174447,-187500.02235174447,-187500.02235174447,-187500.02235174447,1730987738.2906964,1730987736.183547,4000
-7021.107616556599,-61007.65597911549,4795.544421141675,-187500.02235174447,-187500.02235174447,-187500.02235174447,-187500.02235174447,-187500.02235174447,1730987738.2955613,1730987736.183547,4000
-7010.423482706962,-61016.529621664245,4790.403519916955,-187500.02235174447,-187500.02235174447,-187500.02235174447,-187500.02235174447,-187500.02235174447,1730987738.299646,1730987736.183547,4000
-6988.988159774323,-61076.54405552674,4793.912743796438,-187500.02235174447,-187500.02235174447,-187500.02235174447,-187500.02235174447,-187500.02235174447,1730987738.303763,1730987736.183547,4000
-7004.343808215119,-61062.395401286536,4789.956485027848,-187500.02235174447,-187500.02235174447,-187500.02235174447,-187500.02235174447,-187500.02235174447,1730987738.3078816,1730987736.183547,4000
-7017.196061276921,-61007.365406437566,4781.66398783493,-187500.02235174447,-187500.02235174447,-187500.02235174447,-187500.02235174447,-187500.02235174447,1730987738.3116367,1730987736.183547,4000
-7001.549840158205,-61015.27792397475,4775.360795898533,-187500.02235174447,-187500.02235174447,-187500.02235174447,-187500.02235174447,-187500.02235174447,1730987738.3147247,1730987736.183547,4000
-6984.160182971977,-61063.49063676485,4777.305397666144,-187500.02235174447,-187500.02235174447,-187500.02235174447,-187500.02235174447,-187500.02235174447,1730987738.3186471,1730987736.183547,4000
-7010.1105582845885,-61041.67533417646,4782.982740757792,-187500.02235174447,-187500.02235174447,-187500.02235174447,-187500.02235174447,-187500.02235174447,1730987738.3237998,1730987736.183547,4000
-7023.253384024309,-61036.42267422947,4787.430737904399,-187500.02235174447,-187500.02235174447,-187500.02235174447,-187500.02235174447,-187500.02235174447,1730987738.3276193,1730987736.183547,4000
-7018.760683388792,-61059.66848846299,4780.836973290083,-187500.02235174447,-187500.02235174447,-187500.02235174447,-187500.02235174447,-187500.02235174447,1730987738.3325791,1730987736.183547,4000
-7009.708226884392,-61073.504218280825,4777.461859877331,-187500.02235174447,-187500.02235174447,-187500.02235174447,-187500.02235174447,-187500.02235174447,1730987738.335468,1730987736.183547,4000
-7023.074570068667,-61057.56742448419,4791.1858309728905,-187500.02235174447,-187500.02235174447,-187500.02235174447,-187500.02235174447,-187500.02235174447,1730987738.3401077,1730987736.183547,4000
-7020.302953756208,-61063.26711932029,4782.021615746215,-187500.02235174447,-187500.02235174447,-187500.02235174447,-187500.02235174447,-187500.02235174447,1730987738.3425045,1730987736.183547,4000
-7022.180500290454,-61075.02413690378,4764.475496348799,-187500.02235174447,-187500.02235174447,-187500.02235174447,-187500.02235174447,-187500.02235174447,1730987738.3470998,1730987736.183547,4000
-7015.139700787032,-61008.21477272687,4775.114926709524,-187500.02235174447,-187500.02235174447,-187500.02235174447,-187500.02235174447,-187500.02235174447,1730987738.3515494,1730987736.183547,4000
-7005.170822759966,-61089.575122544185,4793.465708907332,-187500.02235174447,-187500.02235174447,-187500.02235174447,-187500.02235174447,-187500.02235174447,1730987738.3559096,1730987736.183547,4000
-7026.337924759141,-61069.97264265688,4789.844726305571,-187500.02235174447,-187500.02235174447,-187500.02235174447,-187500.02235174447,-187500.02235174447,1730987738.3597758,1730987736.183547,4000
-7038.094942342633,-60993.5967318531,4780.166420956423,-187500.02235174447,-187500.02235174447,-187500.02235174447,-187500.02235174447,-187500.02235174447,1730987738.3639016,1730987736.183547,4000
-7029.087189327144,-61070.48673277936,4786.827240804105,-187500.02235174447,-187500.02235174447,-187500.02235174447,-187500.02235174447,-187500.02235174447,1730987738.36767,1730987736.183547,4000
-7022.091093312632,-61101.04156744976,4784.793232058672,-187500.02235174447,-187500.02235174447,-187500.02235174447,-187500.02235174447,-187500.02235174447,1730987738.3712015,1730987736.183547,4000
-7032.864634140091,-61045.65394468951,4789.934133283393,-187500.02235174447,-187500.02235174447,-187500.02235174447,-187500.02235174447,-187500.02235174447,1730987738.3750196,1730987736.183547,4000
-7028.617802693582,-61002.91740929096,4781.775746557206,-187500.02235174447,-187500.02235174447,-187500.02235174447,-187500.02235174447,-187500.02235174447,1730987738.3786178,1730987736.183547,4000
-7002.779186103247,-61035.5062527068,4773.930284253393,-187500.02235174447,-187500.02235174447,-187500.02235174447,-187500.02235174447,-187500.02235174447,1730987738.383557,1730987736.183547,4000
-6982.394395160008,-61060.987241385854,4775.047871476158,-187500.02235174447,-187500.02235174447,-187500.02235174447,-187500.02235174447,-187500.02235174447,1730987738.387675,1730987736.183547,4000
-7010.1105582845885,-61018.18365075394,4791.007017017248,-187500.02235174447,-187500.02235174447,-187500.02235174447,-187500.02235174447,-187500.02235174447,1730987738.3906596,1730987736.183547,4000
-7024.952116602912,-61019.74827286581,4791.722272839817,-187500.02235174447,-187500.02235174447,-187500.02235174447,-187500.02235174447,-187500.02235174447,1730987738.3947709,1730987736.183547,4000
-7015.452625209407,-61009.175897738445,4787.430737904399,-187500.02235174447,-187500.02235174447,-187500.02235174447,-187500.02235174447,-187500.02235174447,1730987738.3986692,1730987736.183547,4000
-7044.196968578932,-60998.06708074416,4790.515278639231,-187500.02235174447,-187500.02235174447,-187500.02235174447,-187500.02235174447,-187500.02235174447,1730987738.4025652,1730987736.183547,4000
-7040.48657899935,-61098.4711168374,4797.980761287304,-187500.02235174447,-187500.02235174447,-187500.02235174447,-187500.02235174447,-187500.02235174447,1730987738.4067495,1730987736.183547,4000
-7058.546788519238,-61046.34684876762,4785.75435707025,-187500.02235174447,-187500.02235174447,-187500.02235174447,-187500.02235174447,-187500.02235174447,1730987738.4116712,1730987736.183547,4000
-7031.814102150692,-60982.15263869198,4762.352080625544,-187500.02235174447,-187500.02235174447,-187500.02235174447,-187500.02235174447,-187500.02235174447,1730987738.4157436,1730987736.183547,4000
-6986.820040562158,-61023.43631070093,4768.387051628477,-187500.02235174447,-187500.02235174447,-187500.02235174447,-187500.02235174447,-187500.02235174447,1730987738.4187737,1730987736.183547,4000
-7009.015322806278,-61099.40989010452,4783.295665180167,-187500.02235174447,-187500.02235174447,-187500.02235174447,-187500.02235174447,-187500.02235174447,1730987738.4226525,1730987736.183547,4000
-7044.085209856655,-61051.44304650343,4774.80200228715,-187500.02235174447,-187500.02235174447,-187500.02235174447,-187500.02235174447,-187500.02235174447,1730987738.426885,1730987736.183547,4000
-7014.513851942284,-60974.68715604391,4776.880714521493,-187500.02235174447,-187500.02235174447,-187500.02235174447,-187500.02235174447,-187500.02235174447,1730987738.4312537,1730987736.183547,4000
-6988.42936616294,-61029.91831659297,4805.893278824482,-187500.02235174447,-187500.02235174447,-187500.02235174447,-187500.02235174447,-187500.02235174447,1730987738.43522,1730987736.183547,4000
-7008.590639661627,-61087.697576009945,4814.677514395418,-187500.02235174447,-187500.02235174447,-187500.02235174447,-187500.02235174447,-187500.02235174447,1730987738.440056,1730987736.183547,4000
-7018.179538032954,-61063.37887804257,4802.115834011535,-187500.02235174447,-187500.02235174447,-187500.02235174447,-187500.02235174447,-187500.02235174447,1730987738.4437404,1730987736.183547,4000
-7025.645020681027,-61035.84152887363,4770.04108071817,-187500.02235174447,-187500.02235174447,-187500.02235174447,-187500.02235174447,-187500.02235174447,1730987738.447029,1730987736.183547,4000
-7027.924898615468,-61027.83960435863,4768.588217328575,-187500.02235174447,-187500.02235174447,-187500.02235174447,-187500.02235174447,-187500.02235174447,1730987738.4507031,1730987736.183547,4000
-7037.91612838699,-61104.21551516242,4781.216952945823,-187500.02235174447,-187500.02235174447,-187500.02235174447,-187500.02235174447,-187500.02235174447,1730987738.455029,1730987736.183547,4000
-7033.334020773652,-61076.18642761546,4773.639711575474,-187500.02235174447,-187500.02235174447,-187500.02235174447,-187500.02235174447,-187500.02235174447,1730987738.4587295,1730987736.183547,4000
-7010.1105582845885,-61005.24199071431,4768.677624306396,-187500.02235174447,-187500.02235174447,-187500.02235174447,-187500.02235174447,-187500.02235174447,1730987738.462756,1730987736.183547,4000
-6995.537220899728,-61033.2040230279,4778.020653488714,-187500.02235174447,-187500.02235174447,-187500.02235174447,-187500.02235174447,-187500.02235174447,1730987738.467736,1730987736.183547,4000
-7031.7693986617805,-61103.18733491747,4780.255827934245,-187500.02235174447,-187500.02235174447,-187500.02235174447,-187500.02235174447,-187500.02235174447,1730987738.4717662,1730987736.183547,4000
-7027.969602104378,-61053.2088343154,4800.7523775997615,-187500.02235174447,-187500.02235174447,-187500.02235174447,-187500.02235174447,-187500.02235174447,1730987738.4748814,1730987736.183547,4000
-7019.3865322335405,-60991.24979868529,4790.09059549458,-187500.02235174447,-187500.02235174447,-187500.02235174447,-187500.02235174447,-187500.02235174447,1730987738.479148,1730987736.183547,4000
-7005.394340204518,-61037.6073166856,4779.4511651338535,-187500.02235174447,-187500.02235174447,-187500.02235174447,-187500.02235174447,-187500.02235174447,1730987738.4827409,1730987736.183547,4000
-7023.655715424504,-61120.50993687033,4771.5833510855855,-187500.02235174447,-187500.02235174447,-187500.02235174447,-187500.02235174447,-187500.02235174447,1730987738.4870365,1730987736.183547,4000
-7015.407921720496,-61084.23305561937,4779.697034322862,-187500.02235174447,-187500.02235174447,-187500.02235174447,-187500.02235174447,-187500.02235174447,1730987738.4911618,1730987736.183547,4000
-7011.652828652004,-61026.4537962024,4783.4968308802645,-187500.02235174447,-187500.02235174447,-187500.02235174447,-187500.02235174447,-187500.02235174447,1730987738.4962733,1730987736.183547,4000
-7027.053180581711,-61021.916392077976,4775.986644743281,-187500.02235174447,-187500.02235174447,-187500.02235174447,-187500.02235174447,-187500.02235174447,1730987738.4999013,1730987736.183547,4000
-7011.764587374281,-61021.96109556688,4778.668854077918,-187500.02235174447,-187500.02235174447,-187500.02235174447,-187500.02235174447,-187500.02235174447,1730987738.5028694,1730987736.183547,4000
-7004.142642515021,-61053.92409013797,4795.544421141675,-187500.02235174447,-187500.02235174447,-187500.02235174447,-187500.02235174447,-187500.02235174447,1730987738.5068672,1730987736.183547,4000
-7002.62272389206,-61050.41486625849,4795.834993819594,-187500.02235174447,-187500.02235174447,-187500.02235174447,-187500.02235174447,-187500.02235174447,1730987738.5113168,1730987736.183547,4000
-7011.0046280628,-60963.44422858289,4780.5016971232535,-187500.02235174447,-187500.02235174447,-187500.02235174447,-187500.02235174447,-187500.02235174447,1730987738.5149577,1730987736.183547,4000
-7017.821910121669,-60969.45684784137,4785.977874514803,-187500.02235174447,-187500.02235174447,-187500.02235174447,-187500.02235174447,-187500.02235174447,1730987738.5192378,1730987736.183547,4000
-7024.393322991529,-61077.50518053832,4801.6911508668845,-187500.02235174447,-187500.02235174447,-187500.02235174447,-187500.02235174447,-187500.02235174447,1730987738.5237956,1730987736.183547,4000
-7023.3204392576745,-61060.02611637427,4799.18775548789,-187500.02235174447,-187500.02235174447,-187500.02235174447,-187500.02235174447,-187500.02235174447,1730987738.5274005,1730987736.183547,4000
-7020.347657245119,-60972.69785078739,4782.5580576131415,-187500.02235174447,-187500.02235174447,-187500.02235174447,-187500.02235174447,-187500.02235174447,1730987738.5300672,1730987736.183547,4000
-7008.098901283611,-61004.79495582521,4785.642598347974,-187500.02235174447,-187500.02235174447,-187500.02235174447,-187500.02235174447,-187500.02235174447,1730987738.535039,1730987736.183547,4000
-7010.468186195873,-61083.16017188552,4781.351063412555,-187500.02235174447,-187500.02235174447,-187500.02235174447,-187500.02235174447,-187500.02235174447,1730987738.5389335,1730987736.183547,4000
-6987.758813829281,-61008.03595877123,4778.870019778016,-187500.02235174447,-187500.02235174447,-187500.02235174447,-187500.02235174447,-187500.02235174447,1730987738.5429103,1730987736.183547,4000
-6994.665502865971,-60976.318833389145,4787.609551860041,-187500.02235174447,-187500.02235174447,-187500.02235174447,-187500.02235174447,-187500.02235174447,1730987738.5469215,1730987736.183547,4000
-7029.221299793876,-61068.51977926729,4793.37630192951,-187500.02235174447,-187500.02235174447,-187500.02235174447,-187500.02235174447,-187500.02235174447,1730987738.5523388,1730987736.183547,4000
-7029.780093405258,-61078.30984333871,4794.248019963267,-187500.02235174447,-187500.02235174447,-187500.02235174447,-187500.02235174447,-187500.02235174447,1730987738.5549457,1730987736.183547,4000
-7006.4672239383735,-61061.50133150832,4790.358816428044,-187500.02235174447,-187500.02235174447,-187500.02235174447,-187500.02235174447,-187500.02235174447,1730987738.5579605,1730987736.183547,4000
-6999.716997112871,-61058.84147391814,4787.2519239487565,-187500.02235174447,-187500.02235174447,-187500.02235174447,-187500.02235174447,-187500.02235174447,1730987738.562894,1730987736.183547,4000
-7004.656732637493,-60986.1983044384,4787.587200115586,-187500.02235174447,-187500.02235174447,-187500.02235174447,-187500.02235174447,-187500.02235174447,1730987738.5668864,1730987736.183547,4000
-7014.893831598024,-61066.95515715542,4789.37533967201,-187500.02235174447,-187500.02235174447,-187500.02235174447,-187500.02235174447,-187500.02235174447,1730987738.5708587,1730987736.183547,4000
-7010.982276318345,-61044.26813653328,4801.735854355795,-187500.02235174447,-187500.02235174447,-187500.02235174447,-187500.02235174447,-187500.02235174447,1730987738.57484,1730987736.183547,4000
-6979.041633491712,-60988.433478883926,4801.445281677876,-187500.02235174447,-187500.02235174447,-187500.02235174447,-187500.02235174447,-187500.02235174447,1730987738.5789354,1730987736.183547,4000
-7000.320494213163,-61006.381929681535,4775.561961598631,-187500.02235174447,-187500.02235174447,-187500.02235174447,-187500.02235174447,-187500.02235174447,1730987738.5830164,1730987736.183547,4000
-7014.670314153471,-61083.20487537442,4782.915685524426,-187500.02235174447,-187500.02235174447,-187500.02235174447,-187500.02235174447,-187500.02235174447,1730987738.5859518,1730987736.183547,4000
-7032.998744606823,-61109.646989065055,4795.276200208211,-187500.02235174447,-187500.02235174447,-187500.02235174447,-187500.02235174447,-187500.02235174447,1730987738.5899413,1730987736.183547,4000
-7034.96569811889,-61021.73757812233,4784.480307636298,-187500.02235174447,-187500.02235174447,-187500.02235174447,-187500.02235174447,-187500.02235174447,1730987738.5950935,1730987736.183547,4000
-7023.789825891236,-60973.50251358778,4786.357854170544,-187500.02235174447,-187500.02235174447,-187500.02235174447,-187500.02235174447,-187500.02235174447,1730987738.5991423,1730987736.183547,4000
-7004.746139615315,-61031.907621849496,4790.403519916955,-187500.02235174447,-187500.02235174447,-187500.02235174447,-187500.02235174447,-187500.02235174447,1730987738.603068,1730987736.183547,4000
