Fp1,Fp2,C3,C4,P7,P8,O1,O2,time_board,time_marker,marker
27685.45182769917,-87719.68933578602,26015.508295954263,-178799.53876728282,-187484.59964807032,-187500.02235174447,-187500.02235174447,-187500.02235174447,1730654803.2839873,1730654803.282301,4000
27691.75501963556,-87738.33069066175,26009.853304607077,-178822.69517453853,-187500.02235174447,-187500.02235174447,-187500.02235174447,-187500.02235174447,1730654803.2879865,1730654803.282301,4000
27679.30509797396,-87782.16246153861,26029.411081005463,-178873.9253728301,-187500.02235174447,-187500.02235174447,-187500.02235174447,-187500.02235174447,1730654803.2920513,1730654803.282301,4000
27648.90672551474,-87765.42100494159,26034.21670606336,-178862.30246571332,-187500.02235174447,-187500.02235174447,-187500.02235174447,-187500.02235174447,1730654803.2970316,1730654803.282301,4000
27641.664760311214,-87753.08284200226,26021.29739776819,-178853.1606022311,-187500.02235174447,-187500.02235174447,-187500.02235174447,-187500.02235174447,1730654803.3010368,1730654803.282301,4000
27667.168100734725,-87756.79323158185,26028.114679827057,-178861.65426512412,-187500.02235174447,-187500.02235174447,-187500.02235174447,-187500.02235174447,1730654803.3050444,1730654803.282301,4000
27667.279859457,-87803.10604609323,26023.890200125006,-178912.1245041042,-187500.02235174447,-187500.02235174447,-187500.02235174447,-187500.02235174447,1730654803.3090465,1730654803.282301,4000
27655.880469784795,-87781.0225225714,26023.018482091247,-178893.08081782828,-187500.02235174447,-187500.02235174447,-187500.02235174447,-187500.02235174447,1730654803.312092,1730654803.282301,4000
27659.546155875465,-87769.17609801008,26021.342101257094,-178885.95061134704,-187500.02235174447,-187500.02235174447,-187500.02235174447,-187500.02235174447,1730654803.316036,1730654803.282301,4000
27664.28472569999,-87731.98279523644,26020.24686577879,-178853.8535063092,-187500.02235174447,-187500.02235174447,-187500.02235174447,-187500.02235174447,1730654803.3200724,1730654803.282301,4000
27677.919289817728,-87754.0663187583,26021.09623206809,-178879.71447464402,-187500.02235174447,-187500.02235174447,-187500.02235174447,-187500.02235174447,1730654803.3240747,1730654803.282301,4000
27680.534443919,-87785.17994704009,26024.046662336197,-178914.65025122766,-187500.02235174447,-187500.02235174447,-187500.02235174447,-187500.02235174447,1730654803.329132,1730654803.282301,4000
27669.85031006936,-87786.87867961869,26028.271142038244,-178921.15460886416,-187500.02235174447,-187500.02235174447,-187500.02235174447,-187500.02235174447,1730654803.3331008,1730654803.282301,4000
27661.40135066525,-87783.1235865502,26025.700691425885,-178922.16043736466,-187500.02235174447,-187500.02235174447,-187500.02235174447,-187500.02235174447,1730654803.33609,1730654803.282301,4000
27666.743417590074,-87759.83306882776,26017.072918066136,-178901.82034991033,-187500.02235174447,-187500.02235174447,-187500.02235174447,-187500.02235174447,1730654803.34013,1730654803.282301,4000
27672.040781025986,-87769.08669103227,26021.967950101847,-178913.7785331939,-187500.02235174447,-187500.02235174447,-187500.02235174447,-187500.02235174447,1730654803.344143,1730654803.282301,4000
27687.083505044404,-87799.14978732464,26026.661816437463,-178949.2507516445,-187500.02235174447,-187500.02235174447,-187500.02235174447,-187500.02235174447,1730654803.348169,1730654803.282301,4000
27704.160237808257,-87795.81937740081,26024.516048969752,-178949.63073130022,-187500.02235174447,-187500.02235174447,-187500.02235174447,-187500.02235174447,1730654803.3522012,1730654803.282301,4000
27690.503321946064,-87801.09438909226,26035.110775841567,-178957.85617325976,-187500.02235174447,-187500.02235174447,-187500.02235174447,-187500.02235174447,1730654803.3571565,1730654803.282301,4000
27686.34589747738,-87788.55506045283,26037.882392154028,-178948.4460888441,-187500.02235174447,-187500.02235174447,-187500.02235174447,-187500.02235174447,1730654803.3611465,1730654803.282301,4000
27705.635452942308,-87802.94958388204,26030.81924090615,-178965.32165590784,-187500.02235174447,-187500.02235174447,-187500.02235174447,-187500.02235174447,1730654803.3641624,1730654803.282301,4000
27692.09029580239,-87782.3189237498,26034.10494734108,-178946.1438591652,-187500.02235174447,-187500.02235174447,-187500.02235174447,-187500.02235174447,1730654803.3681653,1730654803.282301,4000
27653.064149983427,-87792.3772087547,26018.794002389197,-178958.5937808268,-187500.02235174447,-187500.02235174447,-187500.02235174447,-187500.02235174447,1730654803.3721728,1730654803.282301,4000
27648.102062714348,-87790.09733082025,26018.68224366692,-178961.00776922796,-187500.02235174447,-187500.02235174447,-187500.02235174447,-187500.02235174447,1730654803.376146,1730654803.282301,4000
27653.48883312808,-87808.53751999588,26026.70651992637,-178984.9464875396,-187500.02235174447,-187500.02235174447,-187500.02235174447,-187500.02235174447,1730654803.3802752,1730654803.282301,4000
27650.292533670967,-87818.37228755621,26043.179755589936,-178999.47512143556,-187500.02235174447,-187500.02235174447,-187500.02235174447,-187500.02235174447,1730654803.385393,1730654803.282301,4000
27666.028161767503,-87811.3761915417,26030.14868857249,-178998.0446097904,-187500.02235174447,-187500.02235174447,-187500.02235174447,-187500.02235174447,1730654803.3893847,1730654803.282301,4000
27720.812287427463,-87789.4714819755,26031.86977289555,-178982.51014739397,-187500.02235174447,-187500.02235174447,-187500.02235174447,-187500.02235174447,1730654803.392184,1730654803.282301,4000
27710.105801833368,-87798.14395882416,26027.15355481548,-178994.31186846638,-187500.02235174447,-187500.02235174447,-187500.02235174447,-187500.02235174447,1730654803.3964071,1730654803.282301,4000
27656.774539563008,-87785.89520286265,26025.991264103803,-178983.985362528,-187500.02235174447,-187500.02235174447,-187500.02235174447,-187500.02235174447,1730654803.400187,1730654803.282301,4000
27621.19056239016,-87784.77761563989,26031.601551962085,-178984.32063869486,-187500.02235174447,-187500.02235174447,-187500.02235174447,-187500.02235174447,1730654803.4044185,1730654803.282301,4000
27620.36354784531,-87776.6639324026,26027.28766528221,-178977.50335663598,-187500.02235174447,-187500.02235174447,-187500.02235174447,-187500.02235174447,1730654803.408392,1730654803.282301,4000
27675.550004905464,-87780.24021151545,26025.45482223688,-178984.41004567267,-187500.02235174447,-187500.02235174447,-187500.02235174447,-187500.02235174447,1730654803.412424,1730654803.282301,4000
27686.703525388664,-87793.20422329953,26023.376110002533,-179002.33614472582,-187500.02235174447,-187500.02235174447,-187500.02235174447,-187500.02235174447,1730654803.417239,1730654803.282301,4000
27660.17200472021,-87781.98364758297,26036.60834272008,-178993.93188881062,-187500.02235174447,-187500.02235174447,-187500.02235174447,-187500.02235174447,1730654803.4205942,1730654803.282301,4000
27630.28772238347,-87798.07690359079,26035.20018281939,-179013.37790648674,-187500.02235174447,-187500.02235174447,-187500.02235174447,-187500.02235174447,1730654803.4246774,1730654803.282301,4000
27650.04666448196,-87821.0768486353,26029.120508327545,-179041.29523531144,-187500.02235174447,-187500.02235174447,-187500.02235174447,-187500.02235174447,1730654803.4285328,1730654803.282301,4000
27655.34402791787,-87815.91359566613,26017.72111865534,-179037.85306666532,-187500.02235174447,-187500.02235174447,-187500.02235174447,-187500.02235174447,1730654803.4326577,1730654803.282301,4000
27668.08452225739,-87812.38202004219,26024.940732114403,-179036.37785153126,-187500.02235174447,-187500.02235174447,-187500.02235174447,-187500.02235174447,1730654803.436488,1730654803.282301,4000
27702.975595352127,-87807.73285719549,26032.741490929307,-179035.59554047533,-187500.02235174447,-187500.02235174447,-187500.02235174447,-187500.02235174447,1730654803.4415567,1730654803.282301,4000
27702.4391534852,-87839.96407270004,26029.63459845002,-179073.59350604934,-187500.02235174447,-187500.02235174447,-187500.02235174447,-187500.02235174447,1730654803.444409,1730654803.282301,4000
27663.81533906643,-87827.42474406061,26030.01457810576,-179068.0726251689,-187500.02235174447,-187500.02235174447,-187500.02235174447,-187500.02235174447,1730654803.4474027,1730654803.282301,4000
27654.56171686193,-87820.24983409046,26031.89212464001,-179064.94338094516,-187500.02235174447,-187500.02235174447,-187500.02235174447,-187500.02235174447,1730654803.4524384,1730654803.282301,4000
27675.147673505267,-87812.35966829774,26026.460650737365,-179062.52939254398,-187500.02235174447,-187500.02235174447,-187500.02235174447,-187500.02235174447,1730654803.4566176,1730654803.282301,4000
27688.916348089737,-87785.96225809601,26024.448993736387,-179041.67521496717,-187500.02235174447,-187500.02235174447,-187500.02235174447,-187500.02235174447,1730654803.460364,1730654803.282301,4000
27688.737534134096,-87784.95642959552,26042.665665467463,-179042.74809870103,-187500.02235174447,-187500.02235174447,-187500.02235174447,-187500.02235174447,1730654803.4643877,1730654803.282301,4000
27655.20991745113,-87821.9262149246,26047.404235291982,-179082.55655557592,-187500.02235174447,-187500.02235174447,-187500.02235174447,-187500.02235174447,1730654803.4682696,1730654803.282301,4000
27633.439318351662,-87828.81055221683,26040.810470677672,-179095.85584352684,-187500.02235174447,-187500.02235174447,-187500.02235174447,-187500.02235174447,1730654803.4726148,1730654803.282301,4000
27646.67155106921,-87819.64633699016,26036.0942525976,-179095.18529119316,-187500.02235174447,-187500.02235174447,-187500.02235174447,-187500.02235174447,1730654803.4753883,1730654803.282301,4000
27696.20301678217,-87820.69686897956,26024.046662336197,-179102.53901511896,-187500.02235174447,-187500.02235174447,-187500.02235174447,-187500.02235174447,1730654803.480506,1730654803.282301,4000
27726.57903749693,-87810.66093571913,26023.890200125006,-179098.89568077275,-187500.02235174447,-187500.02235174447,-187500.02235174447,-187500.02235174447,1730654803.4843645,1730654803.282301,4000
27720.611121727365,-87796.46757799001,26023.10788906907,-179088.7256370456,-187500.02235174447,-187500.02235174447,-187500.02235174447,-187500.02235174447,1730654803.488417,1730654803.282301,4000
27677.785179350994,-87817.14294161116,26029.701653683383,-179114.40779142475,-187500.02235174447,-187500.02235174447,-187500.02235174447,-187500.02235174447,1730654803.492425,1730654803.282301,4000
27641.15067018875,-87809.3198310518,26039.983456132824,-179112.88787280177,-187500.02235174447,-187500.02235174447,-187500.02235174447,-187500.02235174447,1730654803.4964983,1730654803.282301,4000
27613.3674518308,-87795.99819135646,26033.18852581841,-179103.99187850856,-187500.02235174447,-187500.02235174447,-187500.02235174447,-187500.02235174447,1730654803.499365,1730654803.282301,4000
27628.41017584922,-87780.8660603602,26042.263334067266,-179089.776169035,-187500.02235174447,-187500.02235174447,-187500.02235174447,-187500.02235174447,1730654803.5034385,1730654803.282301,4000
27645.95629524664,-87799.70858093603,26036.34012178661,-179110.71975358963,-187500.02235174447,-187500.02235174447,-187500.02235174447,-187500.02235174447,1730654803.509376,1730654803.282301,4000
27635.38392011928,-87813.20903458704,26018.97281634484,-179126.85771308636,-187500.02235174447,-187500.02235174447,-187500.02235174447,-187500.02235174447,1730654803.5124075,1730654803.282301,4000
27648.61615283682,-87798.45688324653,26025.566580959152,-179116.24063447007,-187500.02235174447,-187500.02235174447,-187500.02235174447,-187500.02235174447,1730654803.5173788,1730654803.282301,4000
27684.490702687588,-87796.6240402012,26031.310979284168,-179118.65462287125,-187500.02235174447,-187500.02235174447,-187500.02235174447,-187500.02235174447,1730654803.521521,1730654803.282301,4000
27675.795874094478,-87770.67366488859,26038.35177878759,-179094.71590455962,-187500.02235174447,-187500.02235174447,-187500.02235174447,-187500.02235174447,1730654803.5244348,1730654803.282301,4000
27625.303283369936,-87781.69307490505,26040.00580787728,-179108.61868961083,-187500.02235174447,-187500.02235174447,-187500.02235174447,-187500.02235174447,1730654803.5281756,1730654803.282301,4000
27651.700693571653,-87807.91167115113,26031.48979323981,-179135.2396172571,-187500.02235174447,-187500.02235174447,-187500.02235174447,-187500.02235174447,1730654803.5314078,1730654803.282301,4000
27692.04559231348,-87816.07005787731,26018.302264011178,-179145.36495749533,-187500.02235174447,-187500.02235174447,-187500.02235174447,-187500.02235174447,1730654803.5365534,1730654803.282301,4000
27701.366269751343,-87826.24010160448,26019.01751983375,-179160.20651581365,-187500.02235174447,-187500.02235174447,-187500.02235174447,-187500.02235174447,1730654803.54088,1730654803.282301,4000
27656.685132585186,-87815.73478171049,26050.399369049,-179154.6409314443,-187500.02235174447,-187500.02235174447,-187500.02235174447,-187500.02235174447,1730654803.5444384,1730654803.282301,4000
27626.37616710379,-87805.34122053877,26043.20210733439,-179149.00829184154,-187500.02235174447,-187500.02235174447,-187500.02235174447,-187500.02235174447,1730654803.5487876,1730654803.282301,4000
27635.160402674726,-87804.40244727164,26025.09719432559,-179152.15988780974,-187500.02235174447,-187500.02235174447,-187500.02235174447,-187500.02235174447,1730654803.5528033,1730654803.282301,4000
27660.820205309417,-87814.50543576544,26025.92420887044,-179168.43195777322,-187500.02235174447,-187500.02235174447,-187500.02235174447,-187500.02235174447,1730654803.5561411,1730654803.282301,4000
27653.26531568352,-87848.27892163741,26039.96110438837,-179207.3463448699,-187500.02235174447,-187500.02235174447,-187500.02235174447,-187500.02235174447,1730654803.559871,1730654803.282301,4000
27647.118585958317,-87840.32170061133,26037.25654330928,-179202.76423725658,-187500.02235174447,-187500.02235174447,-187500.02235174447,-187500.02235174447,1730654803.5634618,1730654803.282301,4000
27666.36343793433,-87802.92723213759,26028.137031571518,-179166.08502460542,-187500.02235174447,-187500.02235174447,-187500.02235174447,-187500.02235174447,1730654803.5684285,1730654803.282301,4000
27657.66860934122,-87808.98455488498,26034.909610141476,-179175.96449565465,-187500.02235174447,-187500.02235174447,-187500.02235174447,-187500.02235174447,1730654803.572492,1730654803.282301,4000
27623.13516415777,-87827.69296499407,26037.68122645393,-179197.9362604542,-187500.02235174447,-187500.02235174447,-187500.02235174447,-187500.02235174447,1730654803.5764785,1730654803.282301,4000
27624.386861847262,-87836.49955230947,26021.185639045914,-179211.7496385276,-187500.02235174447,-187500.02235174447,-187500.02235174447,-187500.02235174447,1730654803.5794597,1730654803.282301,4000
27657.489795385576,-87848.21186640405,26016.022386076736,-179228.28992942453,-187500.02235174447,-187500.02235174447,-187500.02235174447,-187500.02235174447,1730654803.5843017,1730654803.282301,4000
27680.981478808106,-87835.76194474244,26022.347929757587,-179218.544568842,-187500.02235174447,-187500.02235174447,-187500.02235174447,-187500.02235174447,1730654803.5880215,1730654803.282301,4000
27679.79683635197,-87825.6813079931,26033.09911884059,-179213.5601298285,-187500.02235174447,-187500.02235174447,-187500.02235174447,-187500.02235174447,1730654803.591643,1730654803.282301,4000
27648.23617318108,-87839.15940989964,26044.85613642408,-179233.54258937153,-187500.02235174447,-187500.02235174447,-187500.02235174447,-187500.02235174447,1730654803.5960548,1730654803.282301,4000
27604.046774392937,-87833.32560459682,26034.172002574447,-179234.43665914974,-187500.02235174447,-187500.02235174447,-187500.02235174447,-187500.02235174447,1730654803.6006954,1730654803.282301,4000
27632.209972406625,-87830.55398828436,26039.29055205471,-179238.45997315168,-187500.02235174447,-187500.02235174447,-187500.02235174447,-187500.02235174447,1730654803.6045115,1730654803.282301,4000
27661.870737298817,-87851.5869798168,26026.795926904197,-179267.22666826568,-187500.02235174447,-187500.02235174447,-187500.02235174447,-187500.02235174447,1730654803.6075706,1730654803.282301,4000
27679.57331890742,-87826.2848050934,26010.68031915192,-179246.73011860016,-187500.02235174447,-187500.02235174447,-187500.02235174447,-187500.02235174447,1730654803.6136806,1730654803.282301,4000
27669.02329552452,-87812.58318574229,26036.96597063136,-179238.0576417515,-187500.02235174447,-187500.02235174447,-187500.02235174447,-187500.02235174447,1730654803.6155157,1730654803.282301,4000
27640.1224899438,-87845.3284913693,26070.985325692334,-179278.40254049332,-187500.02235174447,-187500.02235174447,-187500.02235174447,-187500.02235174447,1730654803.6195788,1730654803.282301,4000
27615.80379197643,-87852.90573273966,26064.324505844656,-179292.7747121781,-187500.02235174447,-187500.02235174447,-187500.02235174447,-187500.02235174447,1730654803.623977,1730654803.282301,4000
27640.70363529964,-87816.11476136623,26055.2496975958,-179261.63873215186,-187500.02235174447,-187500.02235174447,-187500.02235174447,-187500.02235174447,1730654803.628566,1730654803.282301,4000
27678.54513866248,-87783.99530458395,26106.658709843006,-179234.28019693855,-187500.02235174447,-187500.02235174447,-187500.02235174447,-187500.02235174447,1730654803.6315773,1730654803.282301,4000
27637.01559746452,-87799.57447046929,26152.18921329847,-179253.32388321447,-187500.02235174447,-187500.02235174447,-187500.02235174447,-187500.02235174447,1730654803.635565,1730654803.282301,4000
27591.57450098688,-87804.51420599392,26140.432195714977,-179261.8622495964,-187500.02235174447,-187500.02235174447,-187500.02235174447,-187500.02235174447,1730654803.6395516,1730654803.282301,4000
27615.312053598413,-87804.84948216075,26024.89602862549,-179264.92443858678,-187500.02235174447,-187500.02235174447,-187500.02235174447,-187500.02235174447,1730654803.64357,1730654803.282301,4000
27635.42862360819,-87818.59580500076,25980.974850770814,-179283.3199242735,-187500.02235174447,-187500.02235174447,-187500.02235174447,-187500.02235174447,1730654803.648039,1730654803.282301,4000
27649.01848423701,-87840.12053491123,25982.964156027338,-179308.95737516374,-187500.02235174447,-187500.02235174447,-187500.02235174447,-187500.02235174447,1730654803.6515927,1730654803.282301,4000
27658.026237252503,-87852.25753215046,26048.275953325745,-179325.29650036056,-187500.02235174447,-187500.02235174447,-187500.02235174447,-187500.02235174447,1730654803.6568177,1730654803.282301,4000
27651.94656276066,-87851.89990423917,26044.43145327943,-179328.09046841747,-187500.02235174447,-187500.02235174447,-187500.02235174447,-187500.02235174447,1730654803.6595929,1730654803.282301,4000
27662.004847765547,-87827.73766848298,26033.16617407396,-179306.87866292938,-187500.02235174447,-187500.02235174447,-187500.02235174447,-187500.02235174447,1730654803.6639893,1730654803.282301,4000
27666.743417590074,-87846.5354855699,26062.04462791021,-179329.833904485,-187500.02235174447,-187500.02235174447,-187500.02235174447,-187500.02235174447,1730654803.6676073,1730654803.282301,4000
27663.837690810884,-87877.51500338495,26060.859985454084,-179364.72497757972,-187500.02235174447,-187500.02235174447,-187500.02235174447,-187500.02235174447,1730654803.673253,1730654803.282301,4000
27663.14478673277,-87842.28865412339,26101.763677807296,-179333.6784045313,-187500.02235174447,-187500.02235174447,-187500.02235174447,-187500.02235174447,1730654803.6757672,1730654803.282301,4000
27655.61224885133,-87866.18266894612,26126.06002403021,-179362.02041650063,-187500.02235174447,-187500.02235174447,-187500.02235174447,-187500.02235174447,1730654803.6802354,1730654803.282301,4000
27655.00875175104,-87863.52281135593,26064.548023289208,-179361.61808510043,-187500.02235174447,-187500.02235174447,-187500.02235174447,-187500.02235174447,1730654803.6846457,1730654803.282301,4000
27662.4295309102,-87861.19822993258,25989.401458430464,-179361.70749207825,-187500.02235174447,-187500.02235174447,-187500.02235174447,-187500.02235174447,1730654803.6881676,1730654803.282301,4000
27655.500490129056,-87885.06989301085,25978.15853096945,-179393.3352104825,-187500.02235174447,-187500.02235174447,-187500.02235174447,-187500.02235174447,1730654803.6918647,1730654803.282301,4000
27685.362420721343,-87870.69772132608,26068.861909969084,-179383.47809117773,-187500.02235174447,-187500.02235174447,-187500.02235174447,-187500.02235174447,1730654803.6957314,1730654803.282301,4000
27697.320604004934,-87858.20309617557,26103.663576086,-179370.11174799345,-187500.02235174447,-187500.02235174447,-187500.02235174447,-187500.02235174447,1730654803.699715,1730654803.282301,4000
27675.505301416557,-87823.04380214737,26043.090348612117,-179335.4218405988,-187500.02235174447,-187500.02235174447,-187500.02235174447,-187500.02235174447,1730654803.703732,1730654803.282301,4000
27612.585140774863,-87827.60355801626,26101.674270829477,-179340.8756662459,-187500.02235174447,-187500.02235174447,-187500.02235174447,-187500.02235174447,1730654803.7076924,1730654803.282301,4000
27580.06335259239,-87845.19438090258,26183.57106251372,-179360.85812578895,-187500.02235174447,-187500.02235174447,-187500.02235174447,-187500.02235174447,1730654803.7117572,1730654803.282301,4000
27643.832879523383,-87850.0894129383,26074.91923271647,-179370.55878288255,-187500.02235174447,-187500.02235174447,-187500.02235174447,-187500.02235174447,1730654803.7146869,1730654803.282301,4000
27707.13301982081,-87847.85423849276,26002.879560337016,-179374.22446897323,-187500.02235174447,-187500.02235174447,-187500.02235174447,-187500.02235174447,1730654803.7187636,1730654803.282301,4000
27714.687909446708,-87819.64633699016,26065.732665745338,-179349.12345994991,-187500.02235174447,-187500.02235174447,-187500.02235174447,-187500.02235174447,1730654803.723762,1730654803.282301,4000
27676.198205494667,-87826.79889521586,26064.81624422267,-179356.52188736462,-187500.02235174447,-187500.02235174447,-187500.02235174447,-187500.02235174447,1730654803.7276857,1730654803.282301,4000
27648.14676620326,-87858.9854072315,26050.22055509336,-179389.088379036,-187500.02235174447,-187500.02235174447,-187500.02235174447,-187500.02235174447,1730654803.7317271,1730654803.282301,4000
27628.94661771615,-87892.8930035702,26077.847311240115,-179422.7501061857,-187500.02235174447,-187500.02235174447,-187500.02235174447,-187500.02235174447,1730654803.7357388,1730654803.282301,4000
27650.828975537894,-87884.80167207739,26060.189433120424,-179415.21756830427,-187500.02235174447,-187500.02235174447,-187500.02235174447,-187500.02235174447,1730654803.7397509,1730654803.282301,4000
27674.41006593825,-87882.61120112076,26043.537383501214,-179416.58102471603,-187500.02235174447,-187500.02235174447,-187500.02235174447,-187500.02235174447,1730654803.7427387,1730654803.282301,4000
27666.60930712334,-87879.72782608603,26061.93286918794,-179418.97266137274,-187500.02235174447,-187500.02235174447,-187500.02235174447,-187500.02235174447,1730654803.7468083,1730654803.282301,4000
27666.832824567897,-87855.25266590746,26070.04655242521,-179399.61605067446,-187500.02235174447,-187500.02235174447,-187500.02235174447,-187500.02235174447,1730654803.7517953,1730654803.282301,4000
27659.590859364376,-87853.66569205115,26070.35947684759,-179402.5441291981,-187500.02235174447,-187500.02235174447,-187500.02235174447,-187500.02235174447,1730654803.75581,1730654803.282301,4000
27683.887205587293,-87883.1476429877,26101.5625121072,-179436.11644936996,-187500.02235174447,-187500.02235174447,-187500.02235174447,-187500.02235174447,1730654803.75979,1730654803.282301,4000
27674.208900238147,-87892.22245123655,26137.54882068024,-179445.37007157446,-187500.02235174447,-187500.02235174447,-187500.02235174447,-187500.02235174447,1730654803.7668395,1730654803.282301,4000
27626.37616710379,-87898.5479949174,26050.82405219365,-179452.6567402669,-187500.02235174447,-187500.02235174447,-187500.02235174447,-187500.02235174447,1730654803.7698357,1730654803.282301,4000
27665.60347862285,-87902.45955019708,26002.76780161474,-179459.33991185905,-187500.02235174447,-187500.02235174447,-187500.02235174447,-187500.02235174447,1730654803.7738383,1730654803.282301,4000
27707.91533087675,-87892.42361693665,26046.376055047043,-179451.24858036623,-187500.02235174447,-187500.02235174447,-187500.02235174447,-187500.02235174447,1730654803.77691,1730654803.282301,4000
27685.362420721343,-87863.3887008892,26059.96591567587,-179424.18061783083,-187500.02235174447,-187500.02235174447,-187500.02235174447,-187500.02235174447,1730654803.7798512,1730654803.282301,4000
27646.51508885802,-87861.37704388822,26057.887203441525,-179423.17478933034,-187500.02235174447,-187500.02235174447,-187500.02235174447,-187500.02235174447,1730654803.7838433,1730654803.282301,4000
27636.836783508872,-87858.47131710903,26087.2573956558,-179421.0513736071,-187500.02235174447,-187500.02235174447,-187500.02235174447,-187500.02235174447,1730654803.7878191,1730654803.282301,4000
27620.832934478876,-87874.47516613903,26096.35455564911,-179441.57027501706,-187500.02235174447,-187500.02235174447,-187500.02235174447,-187500.02235174447,1730654803.7918167,1730654803.282301,4000
27661.53546113199,-87876.30800918437,26085.06692469918,-179448.38755707594,-187500.02235174447,-187500.02235174447,-187500.02235174447,-187500.02235174447,1730654803.794837,1730654803.282301,4000
27695.39835398178,-87873.33522717182,26093.247663169823,-179449.57219953206,-187500.02235174447,-187500.02235174447,-187500.02235174447,-187500.02235174447,1730654803.7988365,1730654803.282301,4000
27654.56171686193,-87882.07475925384,26075.410971094487,-179459.56342930358,-187500.02235174447,-187500.02235174447,-187500.02235174447,-187500.02235174447,1730654803.8028834,1730654803.282301,4000
27648.23617318108,-87882.7900150764,26079.143712418525,-179461.64214153794,-187500.02235174447,-187500.02235174447,-187500.02235174447,-187500.02235174447,1730654803.8069668,1730654803.282301,4000
27663.658876855243,-87901.63253565223,26112.64897735703,-179484.2174034378,-187500.02235174447,-187500.02235174447,-187500.02235174447,-187500.02235174447,1730654803.8118486,1730654803.282301,4000
27712.67625244573,-87882.05240750939,26104.088259230648,-179469.77817651967,-187500.02235174447,-187500.02235174447,-187500.02235174447,-187500.02235174447,1730654803.8159256,1730654803.282301,4000
27666.6316588678,-87871.90471552667,26055.29440108471,-179463.63144679446,-187500.02235174447,-187500.02235174447,-187500.02235174447,-187500.02235174447,1730654803.8199394,1730654803.282301,4000
27626.107946170327,-87848.6365495487,26042.956238145383,-179442.48669653974,-187500.02235174447,-187500.02235174447,-187500.02235174447,-187500.02235174447,1730654803.8228936,1730654803.282301,4000
27654.181737206192,-87872.10588122677,26044.87848816854,-179466.5595253181,-187500.02235174447,-187500.02235174447,-187500.02235174447,-187500.02235174447,1730654803.8270028,1730654803.282301,4000
27691.442095213188,-87867.07673872432,26057.68603774143,-179462.3573973605,-187500.02235174447,-187500.02235174447,-187500.02235174447,-187500.02235174447,1730654803.830934,1730654803.282301,4000
27707.13301982081,-87875.01160800597,26077.690849028928,-179472.68390329886,-187500.02235174447,-187500.02235174447,-187500.02235174447,-187500.02235174447,1730654803.8349192,1730654803.282301,4000
27685.876510843817,-87881.9406487871,26075.947412961414,-179481.57989759208,-187500.02235174447,-187500.02235174447,-187500.02235174447,-187500.02235174447,1730654803.8399267,1730654803.282301,4000
27654.606420350843,-87893.02711403694,26097.24862542732,-179494.38744716495,-187500.02235174447,-187500.02235174447,-187500.02235174447,-187500.02235174447,1730654803.8439434,1730654803.282301,4000
27643.631713823288,-87892.91535531466,26111.486686645352,-179495.862662299,-187500.02235174447,-187500.02235174447,-187500.02235174447,-187500.02235174447,1730654803.8469148,1730654803.282301,4000
27664.530594889,-87904.85118685379,26073.62283153806,-179509.25135722774,-187500.02235174447,-187500.02235174447,-187500.02235174447,-187500.02235174447,1730654803.850922,1730654803.282301,4000
27687.977574822617,-87891.10486401377,26047.471290525355,-179496.2202902103,-187500.02235174447,-187500.02235174447,-187500.02235174447,-187500.02235174447,1730654803.8549817,1730654803.282301,4000
27670.699676358665,-87902.28073624143,26070.31477335868,-179509.05019152764,-187500.02235174447,-187500.02235174447,-187500.02235174447,-187500.02235174447,1730654803.8589652,1730654803.282301,4000
27651.700693571653,-87913.72482940255,26069.68892451393,-179523.53412193467,-187500.02235174447,-187500.02235174447,-187500.02235174447,-187500.02235174447,1730654803.8629732,1730654803.282301,4000
27660.17200472021,-87895.23993673801,26073.600479793608,-179507.91025256042,-187500.02235174447,-187500.02235174447,-187500.02235174447,-187500.02235174447,1730654803.867964,1730654803.282301,4000
27694.973670837127,-87879.9960470195,26087.056229955702,-179496.10853148802,-187500.02235174447,-187500.02235174447,-187500.02235174447,-187500.02235174447,1730654803.8719947,1730654803.282301,4000
27694.034897570004,-87884.62285812174,26091.21365442439,-179503.9763455363,-187500.02235174447,-187500.02235174447,-187500.02235174447,-187500.02235174447,1730654803.8749652,1730654803.282301,4000
27656.908650029734,-87917.36816374876,26071.655878025995,-179542.04136634368,-187500.02235174447,-187500.02235174447,-187500.02235174447,-187500.02235174447,1730654803.8789763,1730654803.282301,4000
27649.5772778484,-87915.42356198115,26088.978479978858,-179545.88586639,-187500.02235174447,-187500.02235174447,-187500.02235174447,-187500.02235174447,1730654803.8831587,1730654803.282301,4000
27661.870737298817,-87908.78509387793,26124.584808896165,-179542.26488378822,-187500.02235174447,-187500.02235174447,-187500.02235174447,-187500.02235174447,1730654803.8870013,1730654803.282301,4000
27643.743472545564,-87880.93482028661,26066.06794191217,-179515.71101137533,-187500.02235174447,-187500.02235174447,-187500.02235174447,-187500.02235174447,1730654803.891009,1730654803.282301,4000
27673.62775488231,-87891.68600936962,26052.72395047235,-179527.24451151426,-187500.02235174447,-187500.02235174447,-187500.02235174447,-187500.02235174447,1730654803.8953052,1730654803.282301,4000
27682.143769519786,-87887.10390175629,26054.221517350856,-179524.38348822398,-187500.02235174447,-187500.02235174447,-187500.02235174447,-187500.02235174447,1730654803.9010549,1730654803.282301,4000
27661.75897857654,-87912.94251834662,26047.11366261407,-179553.7760321827,-187500.02235174447,-187500.02235174447,-187500.02235174447,-187500.02235174447,1730654803.905007,1730654803.282301,4000
27660.70844658714,-87922.39730625121,26058.58010751964,-179567.25413408925,-187500.02235174447,-187500.02235174447,-187500.02235174447,-187500.02235174447,1730654803.908108,1730654803.282301,4000
27666.497548401065,-87888.31089595686,26079.926023474454,-179536.54283720767,-187500.02235174447,-187500.02235174447,-187500.02235174447,-187500.02235174447,1730654803.9110763,1730654803.282301,4000
27656.08163548489,-87889.495538413,26072.505244315296,-179540.18617155388,-187500.02235174447,-187500.02235174447,-187500.02235174447,-187500.02235174447,1730654803.9151642,1730654803.282301,4000
27670.699676358665,-87904.85118685379,26049.415892292964,-179558.2240293293,-187500.02235174447,-187500.02235174447,-187500.02235174447,-187500.02235174447,1730654803.9190695,1730654803.282301,4000
27700.94158660669,-87892.62478263675,26071.141787903525,-179548.54572398018,-187500.02235174447,-187500.02235174447,-187500.02235174447,-187500.02235174447,1730654803.9242437,1730654803.282301,4000
27718.711223448663,-87920.94444286161,26087.302099144712,-179581.87217496303,-187500.02235174447,-187500.02235174447,-187500.02235174447,-187500.02235174447,1730654803.9292283,1730654803.282301,4000
27685.45182769917,-87924.43131499665,26085.87158749957,-179589.3376576111,-187500.02235174447,-187500.02235174447,-187500.02235174447,-187500.02235174447,1730654803.9320664,1730654803.282301,4000
27650.09136797087,-87910.01443982297,26074.13692166053,-179576.61951501603,-187500.02235174447,-187500.02235174447,-187500.02235174447,-187500.02235174447,1730654803.9360638,1730654803.282301,4000
27670.52086240302,-87897.51981467246,26071.320601859166,-179566.80709920014,-187500.02235174447,-187500.02235174447,-187500.02235174447,-187500.02235174447,1730654803.9390657,1730654803.282301,4000
27671.414932181237,-87902.01251530797,26068.750151246804,-179575.36781732654,-187500.02235174447,-187500.02235174447,-187500.02235174447,-187500.02235174447,1730654803.9431136,1730654803.282301,4000
27680.020353796524,-87915.51296895898,26061.68699999893,-179590.85757623406,-187500.02235174447,-187500.02235174447,-187500.02235174447,-187500.02235174447,1730654803.947094,1730654803.282301,4000
27684.64716489877,-87914.90947185869,26068.616040780074,-179592.24338439028,-187500.02235174447,-187500.02235174447,-187500.02235174447,-187500.02235174447,1730654803.952117,1730654803.282301,4000
27690.14569403478,-87926.42062025316,26076.662668783985,-179608.4931026093,-187500.02235174447,-187500.02235174447,-187500.02235174447,-187500.02235174447,1730654803.9551263,1730654803.282301,4000
27659.792025064475,-87961.69167300365,26066.000886678805,-179644.63587339353,-187500.02235174447,-187500.02235174447,-187500.02235174447,-187500.02235174447,1730654803.9581811,1730654803.282301,4000
27647.29739991396,-87935.71894594657,26062.514014543776,-179620.51834112627,-187500.02235174447,-187500.02235174447,-187500.02235174447,-187500.02235174447,1730654803.9631257,1730654803.282301,4000
27668.196280979668,-87918.5528062049,26060.658819753982,-179607.46492236436,-187500.02235174447,-187500.02235174447,-187500.02235174447,-187500.02235174447,1730654803.9671438,1730654803.282301,4000
27670.25264146956,-87926.53237897545,26070.58299429214,-179618.17140795846,-187500.02235174447,-187500.02235174447,-187500.02235174447,-187500.02235174447,1730654803.9711428,1730654803.282301,4000
27651.38776914928,-87932.99203312302,26067.2525843683,-179626.3521464291,-187500.02235174447,-187500.02235174447,-187500.02235174447,-187500.02235174447,1730654803.975224,1730654803.282301,4000
27664.888222800284,-87924.92305337466,26055.11558712907,-179618.08200098062,-187500.02235174447,-187500.02235174447,-187500.02235174447,-187500.02235174447,1730654803.9791615,1730654803.282301,4000
27687.262319000045,-87929.97454762156,26070.33712510313,-179627.22386446284,-187500.02235174447,-187500.02235174447,-187500.02235174447,-187500.02235174447,1730654803.9831882,1730654803.282301,4000
27687.061153299943,-87909.03096306694,26070.53829080323,-179611.7341055553,-187500.02235174447,-187500.02235174447,-187500.02235174447,-187500.02235174447,1730654803.986182,1730654803.282301,4000
27669.582089135896,-87907.6004514218,26056.456691796386,-179615.46684687937,-187500.02235174447,-187500.02235174447,-187500.02235174447,-187500.02235174447,1730654803.991158,1730654803.282301,4000
27668.5315571465,-87921.32442251735,26076.327392617157,-179631.22482672034,-187500.02235174447,-187500.02235174447,-187500.02235174447,-187500.02235174447,1730654803.99518,1730654803.282301,4000
27687.50818818905,-87918.3963439937,26082.854101998106,-179630.5095708978,-187500.02235174447,-187500.02235174447,-187500.02235174447,-187500.02235174447,1730654803.9992464,1730654803.282301,4000
27686.636470155296,-87919.78215214994,26085.916290988484,-179637.32685295664,-187500.02235174447,-187500.02235174447,-187500.02235174447,-187500.02235174447,1730654804.003203,1730654803.282301,4000
27651.790100549475,-87949.57702750886,26058.468348797363,-179672.19557430694,-187500.02235174447,-187500.02235174447,-187500.02235174447,-187500.02235174447,1730654804.007264,1730654803.282301,4000
27660.395522164767,-87939.92107390417,26055.495566784808,-179667.38994924905,-187500.02235174447,-187500.02235174447,-187500.02235174447,-187500.02235174447,1730654804.011279,1730654803.282301,4000
27666.542251889976,-87917.72579166005,26053.93094467294,-179649.70971938487,-187500.02235174447,-187500.02235174447,-187500.02235174447,-187500.02235174447,1730654804.0142384,1730654803.282301,4000
27669.447978669166,-87899.06208503987,26058.91538368647,-179635.47165816685,-187500.02235174447,-187500.02235174447,-187500.02235174447,-187500.02235174447,1730654804.018267,1730654803.282301,4000
27668.978592035604,-87901.69959088559,26064.77154073376,-179643.22771349284,-187500.02235174447,-187500.02235174447,-187500.02235174447,-187500.02235174447,1730654804.0232513,1730654803.282301,4000
27680.26622298553,-87920.0056695945,26063.430436066443,-179664.61833293657,-187500.02235174447,-187500.02235174447,-187500.02235174447,-187500.02235174447,1730654804.0272496,1730654803.282301,4000
27689.519845190032,-87908.85214911129,26066.760845990284,-179655.4541177099,-187500.02235174447,-187500.02235174447,-187500.02235174447,-187500.02235174447,1730654804.031276,1730654803.282301,4000
27659.38969366428,-87903.19715776411,26066.24675586781,-179652.92837058645,-187500.02235174447,-187500.02235174447,-187500.02235174447,-187500.02235174447,1730654804.0342772,1730654803.282301,4000
27664.3294291889,-87914.23891952503,26062.98340117734,-179667.88168762706,-187500.02235174447,-187500.02235174447,-187500.02235174447,-187500.02235174447,1730654804.0382526,1730654803.282301,4000
27673.136016504293,-87907.64515491072,26063.497491299808,-179665.46769922588,-187500.02235174447,-187500.02235174447,-187500.02235174447,-187500.02235174447,1730654804.0422578,1730654803.282301,4000
27666.05051351196,-87938.80348668141,26073.421665837966,-179700.0234961538,-187500.02235174447,-187500.02235174447,-187500.02235174447,-187500.02235174447,1730654804.0462732,1730654803.282301,4000
27664.79881582246,-87924.61012895229,26083.12232293157,-179685.38310353557,-187500.02235174447,-187500.02235174447,-187500.02235174447,-187500.02235174447,1730654804.0523193,1730654803.282301,4000
27666.34108618988,-87928.2087598096,26083.18937816493,-179686.6124494806,-187500.02235174447,-187500.02235174447,-187500.02235174447,-187500.02235174447,1730654804.0552776,1730654803.282301,4000
27656.28280118499,-87925.86182664179,26060.3011918427,-179685.47251051338,-187500.02235174447,-187500.02235174447,-187500.02235174447,-187500.02235174447,1730654804.0593095,1730654803.282301,4000
27654.56171686193,-87952.63921649924,26055.227345851345,-179717.01082193982,-187500.02235174447,-187500.02235174447,-187500.02235174447,-187500.02235174447,1730654804.06233,1730654803.282301,4000
27670.38675193629,-87942.69269021663,26053.193337105917,-179709.83591196965,-187500.02235174447,-187500.02235174447,-187500.02235174447,-187500.02235174447,1730654804.0666845,1730654803.282301,4000
27681.60732765285,-87915.69178291463,26059.07184589766,-179683.9525918904,-187500.02235174447,-187500.02235174447,-187500.02235174447,-187500.02235174447,1730654804.0704691,1730654803.282301,4000
27677.67342062872,-87929.79573366592,26068.146654146512,-179699.28588858675,-187500.02235174447,-187500.02235174447,-187500.02235174447,-187500.02235174447,1730654804.0745633,1730654803.282301,4000
27664.530594889,-87929.21458831007,26060.92704068745,-179700.7164002319,-187500.02235174447,-187500.02235174447,-187500.02235174447,-187500.02235174447,1730654804.0796518,1730654803.282301,4000
27643.36349288982,-87920.34094576132,26056.479043540843,-179695.7766647073,-187500.02235174447,-187500.02235174447,-187500.02235174447,-187500.02235174447,1730654804.0833757,1730654803.282301,4000
27650.47134762661,-87925.3030330304,26077.53438681774,-179703.0633333997,-187500.02235174447,-187500.02235174447,-187500.02235174447,-187500.02235174447,1730654804.087548,1730654803.282301,4000
27657.266277941024,-87929.505160988,26074.606308294096,-179707.28781310175,-187500.02235174447,-187500.02235174447,-187500.02235174447,-187500.02235174447,1730654804.0904567,1730654803.282301,4000
27679.19333925168,-87937.23886456953,26041.905706155983,-179715.53560680576,-187500.02235174447,-187500.02235174447,-187500.02235174447,-187500.02235174447,1730654804.0947,1730654803.282301,4000
27679.595670651877,-87921.61499519527,26037.63652296502,-179703.30920258872,-187500.02235174447,-187500.02235174447,-187500.02235174447,-187500.02235174447,1730654804.0986283,1730654803.282301,4000
27655.00875175104,-87919.71509691657,26058.311886586176,-179704.44914155593,-187500.02235174447,-187500.02235174447,-187500.02235174447,-187500.02235174447,1730654804.102393,1730654803.282301,4000
27655.455786640145,-87929.99689936601,26076.48385482834,-179717.7707812513,-187500.02235174447,-187500.02235174447,-187500.02235174447,-187500.02235174447,1730654804.1067016,1730654803.282301,4000
27648.3255801589,-87946.38072805175,26052.835709194627,-179735.98745298237,-187500.02235174447,-187500.02235174447,-187500.02235174447,-187500.02235174447,1730654804.1117332,1730654803.282301,4000
27665.737589089586,-87943.22913208355,26038.32942704313,-179735.0263279708,-187500.02235174447,-187500.02235174447,-187500.02235174447,-187500.02235174447,1730654804.1149414,1730654803.282301,4000
27678.053400284454,-87922.7549341625,26052.746302216805,-179716.83200798417,-187500.02235174447,-187500.02235174447,-187500.02235174447,-187500.02235174447,1730654804.1183949,1730654803.282301,4000
27676.15350200576,-87904.20298626459,26062.2010901214,-179700.9622694209,-187500.02235174447,-187500.02235174447,-187500.02235174447,-187500.02235174447,1730654804.12246,1730654803.282301,4000
27676.89110957278,-87894.3011634709,26091.72774454686,-179693.0050483948,-187500.02235174447,-187500.02235174447,-187500.02235174447,-187500.02235174447,1730654804.126582,1730654803.282301,4000
27671.839615325884,-87913.76953289146,26078.83078799615,-179716.67554577297,-187500.02235174447,-187500.02235174447,-187500.02235174447,-187500.02235174447,1730654804.1304262,1730654803.282301,4000
27667.771597835017,-87922.7549341625,26048.00773239228,-179730.06424070173,-187500.02235174447,-187500.02235174447,-187500.02235174447,-187500.02235174447,1730654804.135645,1730654803.282301,4000
27664.910574544738,-87928.0522975984,26033.65791245197,-179740.21193268444,-187500.02235174447,-187500.02235174447,-187500.02235174447,-187500.02235174447,1730654804.139754,1730654803.282301,4000
27665.514071645037,-87917.9046056157,26050.846403938103,-179736.1215634491,-187500.02235174447,-187500.02235174447,-187500.02235174447,-187500.02235174447,1730654804.14243,1730654803.282301,4000
27676.220557239125,-87912.6966491576,26055.495566784808,-179736.21097042694,-187500.02235174447,-187500.02235174447,-187500.02235174447,-187500.02235174447,1730654804.146448,1730654803.282301,4000
27672.934850804195,-87933.97550987906,26050.06409288217,-179763.36833994012,-187500.02235174447,-187500.02235174447,-187500.02235174447,-187500.02235174447,1730654804.1504278,1730654803.282301,4000
27679.930946818706,-87933.01438486748,26053.327447572643,-179767.41400568653,-187500.02235174447,-187500.02235174447,-187500.02235174447,-187500.02235174447,1730654804.1546884,1730654803.282301,4000
27669.939717047186,-87958.33891133535,26049.907630670983,-179797.41004674556,-187500.02235174447,-187500.02235174447,-187500.02235174447,-187500.02235174447,1730654804.1585252,1730654803.282301,4000
27662.13895823228,-87978.25431564503,26063.58689827763,-179823.0474976358,-187500.02235174447,-187500.02235174447,-187500.02235174447,-187500.02235174447,1730654804.1625533,1730654803.282301,4000
27666.765769334528,-87956.2154956121,26062.15638663249,-179804.8308259047,-187500.02235174447,-187500.02235174447,-187500.02235174447,-187500.02235174447,1730654804.1674497,1730654803.282301,4000
27662.47423439911,-87931.36035577778,26061.68699999893,-179782.90376459406,-187500.02235174447,-187500.02235174447,-187500.02235174447,-187500.02235174447,1730654804.1705575,1730654803.282301,4000
27665.782292578497,-87928.99107086552,26046.644275980507,-179783.19433727197,-187500.02235174447,-187500.02235174447,-187500.02235174447,-187500.02235174447,1730654804.174497,1730654803.282301,4000
27679.57331890742,-87913.59071893583,26048.410063792475,-179769.2915522208,-187500.02235174447,-187500.02235174447,-187500.02235174447,-187500.02235174447,1730654804.17876,1730654803.282301,4000
27676.600536894864,-87929.86278889928,26054.06505513967,-179788.11172105215,-187500.02235174447,-187500.02235174447,-187500.02235174447,-187500.02235174447,1730654804.1827362,1730654803.282301,4000
27665.67053385622,-87932.99203312302,26056.702560985395,-179795.37603800013,-187500.02235174447,-187500.02235174447,-187500.02235174447,-187500.02235174447,1730654804.1867912,1730654803.282301,4000
27676.220557239125,-87925.07951558585,26073.93575596044,-179791.01744783134,-187500.02235174447,-187500.02235174447,-187500.02235174447,-187500.02235174447,1730654804.190804,1730654803.282301,4000
27678.791007851483,-87944.92786466215,26063.184566877437,-179816.0961051102,-187500.02235174447,-187500.02235174447,-187500.02235174447,-187500.02235174447,1730654804.1957707,1730654803.282301,4000
27673.5830513934,-87934.04256511242,26047.046607380704,-179811.0893143522,-187500.02235174447,-187500.02235174447,-187500.02235174447,-187500.02235174447,1730654804.1988115,1730654803.282301,4000
27661.937792532182,-87901.40901820768,26050.44407253791,-179781.20503201545,-187500.02235174447,-187500.02235174447,-187500.02235174447,-187500.02235174447,1730654804.2016857,1730654803.282301,4000
27675.281783972,-87907.1981200216,26051.695770227405,-179786.99413382937,-187500.02235174447,-187500.02235174447,-187500.02235174447,-187500.02235174447,1730654804.2067847,1730654803.282301,4000
27683.4848741871,-87942.64798672772,26061.91051744348,-179823.82980869172,-187500.02235174447,-187500.02235174447,-187500.02235174447,-187500.02235174447,1730654804.2107787,1730654803.282301,4000
27669.783254835995,-87956.37195782327,26059.63063950904,-179841.44298332251,-187500.02235174447,-187500.02235174447,-187500.02235174447,-187500.02235174447,1730654804.214798,1730654803.282301,4000
27663.725932088608,-87937.06005061389,26052.03104639424,-179826.53436977082,-187500.02235174447,-187500.02235174447,-187500.02235174447,-187500.02235174447,1730654804.218793,1730654803.282301,4000
27683.39546720928,-87935.71894594657,26046.44311028041,-179829.77537271683,-187500.02235174447,-187500.02235174447,-187500.02235174447,-187500.02235174447,1730654804.222798,1730654803.282301,4000
27689.29632774548,-87912.07080031285,26043.895011412504,-179809.90467189607,-187500.02235174447,-187500.02235174447,-187500.02235174447,-187500.02235174447,1730654804.2255929,1730654803.282301,4000
27672.30900195945,-87923.69370742961,26043.2468108233,-179824.3438988142,-187500.02235174447,-187500.02235174447,-187500.02235174447,-187500.02235174447,1730654804.2298927,1730654803.282301,4000
27669.49268215808,-87941.3068820604,26060.569412776164,-179845.53335255783,-187500.02235174447,-187500.02235174447,-187500.02235174447,-187500.02235174447,1730654804.2358224,1730654803.282301,4000
27687.50818818905,-87960.03764391395,26064.793892478217,-179870.43319588105,-187500.02235174447,-187500.02235174447,-187500.02235174447,-187500.02235174447,1730654804.2388408,1730654803.282301,4000
27695.57716793742,-87940.68103321565,26063.83276746664,-179856.30689338528,-187500.02235174447,-187500.02235174447,-187500.02235174447,-187500.02235174447,1730654804.242684,1730654803.282301,4000
27674.790045593985,-87951.23105659855,26055.428511551443,-179871.68489357055,-187500.02235174447,-187500.02235174447,-187500.02235174447,-187500.02235174447,1730654804.2468476,1730654803.282301,4000
27661.66957159872,-87953.15330662171,26055.20499410689,-179879.48565238545,-187500.02235174447,-187500.02235174447,-187500.02235174447,-187500.02235174447,1730654804.249809,1730654803.282301,4000
27665.02233326701,-87951.25340834301,26067.833729724138,-179881.4079024086,-187500.02235174447,-187500.02235174447,-187500.02235174447,-187500.02235174447,1730654804.2538593,1730654803.282301,4000
27671.77256009252,-87974.87920223227,26055.96495341837,-179909.23582425545,-187500.02235174447,-187500.02235174447,-187500.02235174447,-187500.02235174447,1730654804.257893,1730654803.282301,4000
27672.219594981623,-87969.55948705191,26022.280874524226,-179908.1629405216,-187500.02235174447,-187500.02235174447,-187500.02235174447,-187500.02235174447,1730654804.2626405,1730654803.282301,4000
27688.24579575608,-87944.74905070652,26041.302209055688,-179886.52645188887,-187500.02235174447,-187500.02235174447,-187500.02235174447,-187500.02235174447,1730654804.2667017,1730654803.282301,4000
27675.550004905464,-87933.01438486748,26055.450863295897,-179876.8034430508,-187500.02235174447,-187500.02235174447,-187500.02235174447,-187500.02235174447,1730654804.2706976,1730654803.282301,4000
27671.14671124777,-87923.78311440744,26061.10585464309,-179869.09209121374,-187500.02235174447,-187500.02235174447,-187500.02235174447,-187500.02235174447,1730654804.2747977,1730654803.282301,4000
27699.24285402809,-87928.32051853187,26064.860947711582,-179875.86466978368,-187500.02235174447,-187500.02235174447,-187500.02235174447,-187500.02235174447,1730654804.2777624,1730654803.282301,4000
27683.775446865016,-87927.18057956465,26058.043665652716,-179879.21743145198,-187500.02235174447,-187500.02235174447,-187500.02235174447,-187500.02235174447,1730654804.281757,1730654803.282301,4000
27656.99805700756,-87955.03085315596,26039.603476477085,-179912.25330975692,-187500.02235174447,-187500.02235174447,-187500.02235174447,-187500.02235174447,1730654804.2857473,1730654803.282301,4000
27672.19724323717,-87974.07453943188,26034.172002574447,-179938.15898158064,-187500.02235174447,-187500.02235174447,-187500.02235174447,-187500.02235174447,1730654804.2906437,1730654803.282301,4000
27682.568452664436,-87972.82284174238,26054.467386539865,-179943.970435139,-187500.02235174447,-187500.02235174447,-187500.02235174447,-187500.02235174447,1730654804.2948916,1730654803.282301,4000
27689.363382978845,-87967.05609167292,26050.89110742701,-179942.4728682605,-187500.02235174447,-187500.02235174447,-187500.02235174447,-187500.02235174447,1730654804.2988975,1730654803.282301,4000
27687.50818818905,-87943.6538152282,26051.20403184939,-179922.60216743973,-187500.02235174447,-187500.02235174447,-187500.02235174447,-187500.02235174447,1730654804.3019032,1730654803.282301,4000
27678.880414829306,-87934.84722791282,26049.63940973752,-179916.8130656258,-187500.02235174447,-187500.02235174447,-187500.02235174447,-187500.02235174447,1730654804.3057935,1730654803.282301,4000
27676.555833405957,-87982.97053372509,26048.7006364704,-179970.3231418518,-187500.02235174447,-187500.02235174447,-187500.02235174447,-187500.02235174447,1730654804.3098571,1730654803.282301,4000
27664.55294663345,-87986.3679988823,26048.566526003666,-179980.1802611566,-187500.02235174447,-187500.02235174447,-187500.02235174447,-187500.02235174447,1730654804.3137915,1730654803.282301,4000
27682.47904568661,-87966.47494631707,26048.454767281382,-179965.56222028282,-187500.02235174447,-187500.02235174447,-187500.02235174447,-187500.02235174447,1730654804.3189125,1730654803.282301,4000
27688.983403323105,-87938.60232098131,26049.907630670983,-179942.94225489406,-187500.02235174447,-187500.02235174447,-187500.02235174447,-187500.02235174447,1730654804.3228855,1730654803.282301,4000
27679.19333925168,-87939.04935587042,26046.73368295833,-179947.47965901849,-187500.02235174447,-187500.02235174447,-187500.02235174447,-187500.02235174447,1730654804.3269265,1730654803.282301,4000
27692.827903369416,-87949.39821355323,26050.354665560088,-179960.8236504583,-187500.02235174447,-187500.02235174447,-187500.02235174447,-187500.02235174447,1730654804.3298285,1730654803.282301,4000
27691.24092951309,-87950.87342868728,26053.68507548393,-179965.31635109382,-187500.02235174447,-187500.02235174447,-187500.02235174447,-187500.02235174447,1730654804.3338025,1730654803.282301,4000
27654.31584767292,-87969.24656262953,26058.043665652716,-179988.11513043824,-187500.02235174447,-187500.02235174447,-187500.02235174447,-187500.02235174447,1730654804.3377872,1730654803.282301,4000
27651.030141237992,-87968.77717599597,26048.454767281382,-179990.81969151733,-187500.02235174447,-187500.02235174447,-187500.02235174447,-187500.02235174447,1730654804.341744,1730654803.282301,4000
27661.80368206545,-87947.6100739968,26045.43728177992,-179972.71477850853,-187500.02235174447,-187500.02235174447,-187500.02235174447,-187500.02235174447,1730654804.3458376,1730654803.282301,4000
27664.39648442227,-87944.92786466215,26051.718121971862,-179975.10641516524,-187500.02235174447,-187500.02235174447,-187500.02235174447,-187500.02235174447,1730654804.350814,1730654803.282301,4000
27667.793949579474,-87929.84043715482,26083.949337476413,-179964.8246127158,-187500.02235174447,-187500.02235174447,-187500.02235174447,-187500.02235174447,1730654804.354784,1730654803.282301,4000
27667.838653068386,-87949.88995193124,26068.191357635424,-179987.62339206022,-187500.02235174447,-187500.02235174447,-187500.02235174447,-187500.02235174447,1730654804.3579564,1730654803.282301,4000
27671.25846997005,-87972.93460046466,26035.06607235266,-180011.47270339404,-187500.02235174447,-187500.02235174447,-187500.02235174447,-187500.02235174447,1730654804.3618567,1730654803.282301,4000
27682.72491487562,-87973.80631849842,26036.67539795344,-180014.9372237846,-187500.02235174447,-187500.02235174447,-187500.02235174447,-187500.02235174447,1730654804.3659875,1730654803.282301,4000
27675.885281072293,-87963.65862651571,26042.7997759342,-180007.00235450297,-187500.02235174447,-187500.02235174447,-187500.02235174447,-187500.02235174447,1730654804.3699293,1730654803.282301,4000
27677.181682250703,-87979.10368193433,26046.577220747145,-180026.3366134568,-187500.02235174447,-187500.02235174447,-187500.02235174447,-187500.02235174447,1730654804.3740234,1730654803.282301,4000
27679.707429374157,-87970.58766729686,26048.790043448214,-180024.61552913376,-187500.02235174447,-187500.02235174447,-187500.02235174447,-187500.02235174447,1730654804.3788607,1730654803.282301,4000
27680.601499152363,-87963.83744047135,26048.566526003666,-180021.70980235457,-187500.02235174447,-187500.02235174447,-187500.02235174447,-187500.02235174447,1730654804.38301,1730654803.282301,4000
27670.789083336484,-87968.37484459578,26054.82501445115,-180028.66119488017,-187500.02235174447,-187500.02235174447,-187500.02235174447,-187500.02235174447,1730654804.3859184,1730654803.282301,4000
27676.019391539023,-87958.40596656871,26049.974685904348,-180022.35800294377,-187500.02235174447,-187500.02235174447,-187500.02235174447,-187500.02235174447,1730654804.3898604,1730654803.282301,4000
27693.20788302516,-87955.54494327844,26050.48877602682,-180023.2297209775,-187500.02235174447,-187500.02235174447,-187500.02235174447,-187500.02235174447,1730654804.3939364,1730654803.282301,4000
27668.062170512934,-87944.86080942879,26044.453805023888,-180016.12186624075,-187500.02235174447,-187500.02235174447,-187500.02235174447,-187500.02235174447,1730654804.397936,1730654803.282301,4000
27660.23905995358,-87951.74514672103,26041.413967777964,-180029.2870437249,-187500.02235174447,-187500.02235174447,-187500.02235174447,-187500.02235174447,1730654804.4019237,1730654803.282301,4000
27674.588879893887,-87939.96577739308,26045.884316669028,-180023.3861831887,-187500.02235174447,-187500.02235174447,-187500.02235174447,-187500.02235174447,1730654804.4069047,1730654803.282301,4000
27672.487815915087,-87946.67130072968,26068.146654146512,-180031.7904391039,-187500.02235174447,-187500.02235174447,-187500.02235174447,-187500.02235174447,1730654804.4098709,1730654803.282301,4000
27659.30028668645,-87941.55275124942,26057.57427901915,-180030.0022995475,-187500.02235174447,-187500.02235174447,-187500.02235174447,-187500.02235174447,1730654804.4138846,1730654803.282301,4000
27666.56460363443,-87930.37687902176,26043.716197456863,-180023.0956105108,-187500.02235174447,-187500.02235174447,-187500.02235174447,-187500.02235174447,1730654804.4179769,1730654803.282301,4000
27672.487815915087,-87943.76557395048,26045.459633524377,-180042.1392967867,-187500.02235174447,-187500.02235174447,-187500.02235174447,-187500.02235174447,1730654804.4219077,1730654803.282301,4000
27661.982496021094,-87930.1086580883,26057.86485169707,-180032.8856745822,-187500.02235174447,-187500.02235174447,-187500.02235174447,-187500.02235174447,1730654804.42593,1730654803.282301,4000
27669.71619960263,-87953.28741708845,26046.35370330259,-180060.71359642906,-187500.02235174447,-187500.02235174447,-187500.02235174447,-187500.02235174447,1730654804.4299736,1730654803.282301,4000
27690.59272892389,-87935.80835292439,26054.623848751053,-180048.1966195341,-187500.02235174447,-187500.02235174447,-187500.02235174447,-187500.02235174447,1730654804.4349384,1730654803.282301,4000
27688.04463005598,-87944.9055129177,26068.48193031334,-180061.89823888522,-187500.02235174447,-187500.02235174447,-187500.02235174447,-187500.02235174447,1730654804.437904,1730654803.282301,4000
27660.976667520605,-87958.22715261306,26061.463482554376,-180079.6008204938,-187500.02235174447,-187500.02235174447,-187500.02235174447,-187500.02235174447,1730654804.4418852,1730654803.282301,4000
27646.448033624656,-87969.35832135181,26053.238040594824,-180093.92828868967,-187500.02235174447,-187500.02235174447,-187500.02235174447,-187500.02235174447,1730654804.4459295,1730654803.282301,4000
27659.81437680893,-87972.08523417536,26034.14965082999,-180100.92438470418,-187500.02235174447,-187500.02235174447,-187500.02235174447,-187500.02235174447,1730654804.4499023,1730654803.282301,4000
27680.020353796524,-87991.57595534039,26032.92030488495,-180123.67846055966,-187500.02235174447,-187500.02235174447,-187500.02235174447,-187500.02235174447,1730654804.454072,1730654803.282301,4000
27684.200130009667,-87979.84128950135,26040.363435788568,-180114.24602439953,-187500.02235174447,-187500.02235174447,-187500.02235174447,-187500.02235174447,1730654804.457971,1730654803.282301,4000
27680.26622298553,-87960.4176235697,26046.554869002684,-180097.2139951246,-187500.02235174447,-187500.02235174447,-187500.02235174447,-187500.02235174447,1730654804.4630988,1730654803.282301,4000
27665.894051300773,-87972.17464115318,26043.2468108233,-180113.73193427705,-187500.02235174447,-187500.02235174447,-187500.02235174447,-187500.02235174447,1730654804.4659753,1730654803.282301,4000
27671.77256009252,-87963.63627477126,26040.38578753302,-180109.99919295302,-187500.02235174447,-187500.02235174447,-187500.02235174447,-187500.02235174447,1730654804.469102,1730654803.282301,4000
27681.42851369721,-87931.71798368907,26041.481023011333,-180082.260678084,-187500.02235174447,-187500.02235174447,-187500.02235174447,-187500.02235174447,1730654804.4741447,1730654803.282301,4000
27681.24969974157,-87928.16405632067,26050.64523823801,-180084.92053567417,-187500.02235174447,-187500.02235174447,-187500.02235174447,-187500.02235174447,1730654804.4781487,1730654803.282301,4000
27684.62481315432,-87953.3097688329,26061.57524127665,-180113.8660447438,-187500.02235174447,-187500.02235174447,-187500.02235174447,-187500.02235174447,1730654804.4819777,1730654803.282301,4000
27675.997039794573,-87947.94535016363,26067.565508790674,-180111.0720766869,-187500.02235174447,-187500.02235174447,-187500.02235174447,-187500.02235174447,1730654804.4861732,1730654803.282301,4000
27653.533536616986,-87943.81027743939,26051.852232438592,-180108.72514351908,-187500.02235174447,-187500.02235174447,-187500.02235174447,-187500.02235174447,1730654804.4901524,1730654803.282301,4000
27670.990249036586,-87966.67611201717,26035.848383408596,-180133.64733858674,-187500.02235174447,-187500.02235174447,-187500.02235174447,-187500.02235174447,1730654804.4942057,1730654803.282301,4000
27681.026182297013,-87956.99780666802,26041.905706155983,-180127.50060886153,-187500.02235174447,-187500.02235174447,-187500.02235174447,-187500.02235174447,1730654804.4971907,1730654803.282301,4000
27680.646202641277,-87920.40800099469,26040.13991834401,-180096.498739302,-187500.02235174447,-187500.02235174447,-187500.02235174447,-187500.02235174447,1730654804.5020251,1730654803.282301,4000
27684.40129570977,-87950.00171065351,26046.97955214733,-180129.91459726272,-187500.02235174447,-187500.02235174447,-187500.02235174447,-187500.02235174447,1730654804.5062628,1730654803.282301,4000
27675.147673505267,-87980.24362090154,26052.165156860967,-180162.90577207872,-187500.02235174447,-187500.02235174447,-187500.02235174447,-187500.02235174447,1730654804.5102382,1730654803.282301,4000
27672.443112426176,-87984.3116383924,26055.78613946273,-180169.65599890423,-187500.02235174447,-187500.02235174447,-187500.02235174447,-187500.02235174447,1730654804.514138,1730654803.282301,4000
27660.14965297576,-87994.66049607522,26072.952279204404,-180183.2235077886,-187500.02235174447,-187500.02235174447,-187500.02235174447,-187500.02235174447,1730654804.5170443,1730654803.282301,4000
27645.33044640189,-87981.69648429114,26048.499470770297,-180172.3829117278,-187500.02235174447,-187500.02235174447,-187500.02235174447,-187500.02235174447,1730654804.52123,1730654803.282301,4000
27658.36151341933,-87986.99384772705,26029.321674027644,-180179.2448972756,-187500.02235174447,-187500.02235174447,-187500.02235174447,-187500.02235174447,1730654804.5251136,1730654803.282301,4000
27670.4314554252,-87994.21346118611,26036.98832237581,-180191.47130149265,-187500.02235174447,-187500.02235174447,-187500.02235174447,-187500.02235174447,1730654804.5303092,1730654803.282301,4000
27675.90763281675,-87981.62942905778,26049.25943008178,-180183.4917287221,-187500.02235174447,-187500.02235174447,-187500.02235174447,-187500.02235174447,1730654804.5352795,1730654803.282301,4000
27683.99896430957,-87972.97930395357,26050.57818300464,-180178.39553098628,-187500.02235174447,-187500.02235174447,-187500.02235174447,-187500.02235174447,1730654804.538267,1730654803.282301,4000
27672.688981615185,-87998.63910658826,26036.161307830967,-180208.0562958785,-187500.02235174447,-187500.02235174447,-187500.02235174447,-187500.02235174447,1730654804.5420744,1730654803.282301,4000
27664.79881582246,-87989.18431868366,26032.026235106736,-180203.4965400096,-187500.02235174447,-187500.02235174447,-187500.02235174447,-187500.02235174447,1730654804.546126,1730654803.282301,4000
27668.799778079963,-87934.80252442391,26035.87073515305,-180153.8756673188,-187500.02235174447,-187500.02235174447,-187500.02235174447,-187500.02235174447,1730654804.550182,1730654803.282301,4000
27684.177778265213,-87936.99299538053,26047.136014358523,-180162.4140337007,-187500.02235174447,-187500.02235174447,-187500.02235174447,-187500.02235174447,1730654804.5531464,1730654803.282301,4000
27692.93966209169,-87941.79862043842,26065.307982600687,-180171.44413846068,-187500.02235174447,-187500.02235174447,-187500.02235174447,-187500.02235174447,1730654804.5571256,1730654803.282301,4000
27663.36830417732,-87931.85209415581,26056.277877840745,-180163.5763244124,-187500.02235174447,-187500.02235174447,-187500.02235174447,-187500.02235174447,1730654804.562122,1730654803.282301,4000
27646.33627490238,-87934.46724825707,26033.7473194298,-180168.7395773816,-187500.02235174447,-187500.02235174447,-187500.02235174447,-187500.02235174447,1730654804.5662851,1730654803.282301,4000
27675.57235664992,-87929.01342260998,26032.249752551288,-180164.8727255908,-187500.02235174447,-187500.02235174447,-187500.02235174447,-187500.02235174447,1730654804.570227,1730654803.282301,4000
27678.679249129207,-87944.41377453969,26046.95720040288,-180181.2565542765,-187500.02235174447,-187500.02235174447,-187500.02235174447,-187500.02235174447,1730654804.5731485,1730654803.282301,4000
27678.299269473468,-87924.81129465239,26054.646200495503,-180161.3187982224,-187500.02235174447,-187500.02235174447,-187500.02235174447,-187500.02235174447,1730654804.5771427,1730654803.282301,4000
27681.31675497493,-87931.78503892243,26054.98147666234,-180170.50536519356,-187500.02235174447,-187500.02235174447,-187500.02235174447,-187500.02235174447,1730654804.5811648,1730654803.282301,4000
27668.688019357687,-87913.45660846909,26056.233174351837,-180154.769737097,-187500.02235174447,-187500.02235174447,-187500.02235174447,-187500.02235174447,1730654804.5853364,1730654803.282301,4000
27652.259487183037,-87904.31474498687,26036.78715667572,-180148.3771381828,-187500.02235174447,-187500.02235174447,-187500.02235174447,-187500.02235174447,1730654804.589352,1730654803.282301,4000
27661.446054154167,-87927.89583538721,26030.260447294768,-180173.5004989505,-187500.02235174447,-187500.02235174447,-187500.02235174447,-187500.02235174447,1730654804.594308,1730654803.282301,4000
27673.694810115678,-87929.9074923882,26041.10104335559,-180174.90865885123,-187500.02235174447,-187500.02235174447,-187500.02235174447,-187500.02235174447,1730654804.5982945,1730654803.282301,4000
27671.973725792617,-87903.3983234642,26049.3488370596,-180147.75128933805,-187500.02235174447,-187500.02235174447,-187500.02235174447,-187500.02235174447,1730654804.6012568,1730654803.282301,4000
27676.24290898358,-87946.11250711829,26041.481023011333,-180191.56070847044,-187500.02235174447,-187500.02235174447,-187500.02235174447,-187500.02235174447,1730654804.605333,1730654803.282301,4000
27665.156443733747,-87983.19405116964,26042.88918291201,-180230.318633356,-187500.02235174447,-187500.02235174447,-187500.02235174447,-187500.02235174447,1730654804.6091998,1730654803.282301,4000
27640.90480099974,-87958.60713226881,26041.302209055688,-180207.98924064508,-187500.02235174447,-187500.02235174447,-187500.02235174447,-187500.02235174447,1730654804.6133573,1730654803.282301,4000
27662.89891754376,-87954.02502465546,26034.127299085536,-180205.66465922171,-187500.02235174447,-187500.02235174447,-187500.02235174447,-187500.02235174447,1730654804.6182933,1730654803.282301,4000
27686.74822887757,-87954.47205954458,26060.368247076065,-180207.78807494495,-187500.02235174447,-187500.02235174447,-187500.02235174447,-187500.02235174447,1730654804.6222496,1730654803.282301,4000
27670.74437984757,-87961.35639683681,26063.20691862189,-180214.51595002605,-187500.02235174447,-187500.02235174447,-187500.02235174447,-187500.02235174447,1730654804.6252463,1730654803.282301,4000
27649.86785052632,-87937.90941690319,26036.273066553244,-180192.2312608041,-187500.02235174447,-187500.02235174447,-187500.02235174447,-187500.02235174447,1730654804.6303253,1730654803.282301,4000
27677.20403399516,-87947.99005365254,26030.14868857249,-180203.8541679209,-187500.02235174447,-187500.02235174447,-187500.02235174447,-187500.02235174447,1730654804.633217,1730654803.282301,4000
27683.328411975912,-87965.35735909431,26036.34012178661,-180222.16024662976,-187500.02235174447,-187500.02235174447,-187500.02235174447,-187500.02235174447,1730654804.6373355,1730654803.282301,4000
27661.89308904327,-87983.4175686142,26033.38969151851,-180241.06982243893,-187500.02235174447,-187500.02235174447,-187500.02235174447,-187500.02235174447,1730654804.641323,1730654803.282301,4000
27659.836728553382,-88001.88010953428,26033.72496768534,-180260.51584011503,-187500.02235174447,-187500.02235174447,-187500.02235174447,-187500.02235174447,1730654804.645543,1730654803.282301,4000
27658.07094074141,-87998.05796123242,26039.692883454907,-180257.36424414683,-187500.02235174447,-187500.02235174447,-187500.02235174447,-187500.02235174447,1730654804.6502545,1730654803.282301,4000
27663.591821621874,-87989.65370531724,26052.72395047235,-180250.72577604363,-187500.02235174447,-187500.02235174447,-187500.02235174447,-187500.02235174447,1730654804.65334,1730654803.282301,4000
27670.297344958468,-88000.69546707816,26036.38482527552,-180262.05811048247,-187500.02235174447,-187500.02235174447,-187500.02235174447,-187500.02235174447,1730654804.657509,1730654803.282301,4000
27678.94747006267,-88007.17747297019,26045.325523057643,-180268.808337308,-187500.02235174447,-187500.02235174447,-187500.02235174447,-187500.02235174447,1730654804.6614788,1730654803.282301,4000
27670.610269380843,-88004.09293223536,26052.79100570572,-180266.3496454179,-187500.02235174447,-187500.02235174447,-187500.02235174447,-187500.02235174447,1730654804.6655176,1730654803.282301,4000
27670.789083336484,-88009.90438579374,26032.249752551288,-180272.049340254,-187500.02235174447,-187500.02235174447,-187500.02235174447,-187500.02235174447,1730654804.6695397,1730654803.282301,4000
27684.11072303185,-88013.7265340956,26029.142860072003,-180276.49733740065,-187500.02235174447,-187500.02235174447,-187500.02235174447,-187500.02235174447,1730654804.6746063,1730654803.282301,4000
27691.59855742437,-88046.36008100034,26042.68801721192,-180309.73438140564,-187500.02235174447,-187500.02235174447,-187500.02235174447,-187500.02235174447,1730654804.6784024,1730654803.282301,4000
27688.066981800435,-88016.9228335527,26040.96693288886,-180280.58770663597,-187500.02235174447,-187500.02235174447,-187500.02235174447,-187500.02235174447,1730654804.6814349,1730654803.282301,4000
27656.05928374044,-87990.1677954397,26044.05147362369,-180252.93859874472,-187500.02235174447,-187500.02235174447,-187500.02235174447,-187500.02235174447,1730654804.685594,1730654803.282301,4000
27642.6258853228,-88006.17164446971,26043.716197456863,-180269.65770359727,-187500.02235174447,-187500.02235174447,-187500.02235174447,-187500.02235174447,1730654804.6895792,1730654803.282301,4000
27658.830900052893,-88006.30575493643,26042.7997759342,-180270.32825593092,-187500.02235174447,-187500.02235174447,-187500.02235174447,-187500.02235174447,1730654804.6936052,1730654803.282301,4000
27680.690906130185,-88050.20458104665,26043.82795617914,-180315.7470006641,-187500.02235174447,-187500.02235174447,-187500.02235174447,-187500.02235174447,1730654804.6976168,1730654803.282301,4000
27675.080618271902,-88054.4290607487,26046.465462024866,-180324.28536704605,-187500.02235174447,-187500.02235174447,-187500.02235174447,-187500.02235174447,1730654804.7032962,1730654803.282301,4000
27646.47038536911,-88018.5768626424,26041.19045033341,-180290.71304687415,-187500.02235174447,-187500.02235174447,-187500.02235174447,-187500.02235174447,1730654804.7069528,1730654803.282301,4000
27660.41787390922,-88007.11041773683,26033.52380198524,-180279.24660196865,-187500.02235174447,-187500.02235174447,-187500.02235174447,-187500.02235174447,1730654804.71185,1730654803.282301,4000
27664.485891400087,-88014.53119689599,26047.873621925548,-180285.16981424927,-187500.02235174447,-187500.02235174447,-187500.02235174447,-187500.02235174447,1730654804.7123828,1730654803.282301,4000
27667.30221120145,-88005.09876073584,26052.43337779443,-180275.29034320003,-187500.02235174447,-187500.02235174447,-187500.02235174447,-187500.02235174447,1730654804.718093,1730654803.282301,4000
27664.1282634888,-88012.4748364061,26029.075804838634,-180284.0522270265,-187500.02235174447,-187500.02235174447,-187500.02235174447,-187500.02235174447,1730654804.7224684,1730654803.282301,4000
27680.37798170781,-88036.61472041783,26026.77357515974,-180308.68384941624,-187500.02235174447,-187500.02235174447,-187500.02235174447,-187500.02235174447,1730654804.7254207,1730654803.282301,4000
27685.608289910357,-88040.77214488652,26047.58304924763,-180312.8189221405,-187500.02235174447,-187500.02235174447,-187500.02235174447,-187500.02235174447,1730654804.7296193,1730654803.282301,4000
27662.09425474337,-88050.24928453557,26060.52470928725,-180323.39129726784,-187500.02235174447,-187500.02235174447,-187500.02235174447,-187500.02235174447,1730654804.733421,1730654803.282301,4000
27641.217725422117,-88065.02378762052,26044.386749790523,-180338.88105617536,-187500.02235174447,-187500.02235174447,-187500.02235174447,-187500.02235174447,1730654804.73666,1730654803.282301,4000
27654.04762673946,-88038.98400533009,26023.55492395817,-180312.43894248476,-187500.02235174447,-187500.02235174447,-187500.02235174447,-187500.02235174447,1730654804.741436,1730654803.282301,4000
27683.4848741871,-88054.49611598208,26031.512144984263,-180330.09682060443,-187500.02235174447,-187500.02235174447,-187500.02235174447,-187500.02235174447,1730654804.7455146,1730654803.282301,4000
27678.00869679555,-88059.99464511809,26032.495621740298,-180340.15510560933,-187500.02235174447,-187500.02235174447,-187500.02235174447,-187500.02235174447,1730654804.74965,1730654803.282301,4000
27660.015542509027,-88036.25709250655,26030.48396473932,-180318.9880036101,-187500.02235174447,-187500.02235174447,-187500.02235174447,-187500.02235174447,1730654804.7536757,1730654803.282301,4000
27665.894051300773,-88019.24741497605,26052.612191750075,-180305.1522737923,-187500.02235174447,-187500.02235174447,-187500.02235174447,-187500.02235174447,1730654804.7576573,1730654803.282301,4000
27673.985382793595,-88052.81973514793,26050.13114811553,-180341.4515067877,-187500.02235174447,-187500.02235174447,-187500.02235174447,-187500.02235174447,1730654804.7616012,1730654803.282301,4000
27656.3275046739,-88087.6884564982,26034.68609269692,-180379.89650725087,-187500.02235174447,-187500.02235174447,-187500.02235174447,-187500.02235174447,1730654804.764691,1730654803.282301,4000
27669.67149611372,-88107.04506719651,26030.372206017044,-180403.4775976512,-187500.02235174447,-187500.02235174447,-187500.02235174447,-187500.02235174447,1730654804.7685404,1730654803.282301,4000
27679.930946818706,-88069.15886034476,26034.417871763453,-180366.5748675555,-187500.02235174447,-187500.02235174447,-187500.02235174447,-187500.02235174447,1730654804.7736683,1730654803.282301,4000
27691.375039979823,-88036.79353437347,26046.89014516952,-180335.52829450704,-187500.02235174447,-187500.02235174447,-187500.02235174447,-187500.02235174447,1730654804.7776425,1730654803.282301,4000
27692.023240569026,-88058.36296777285,26059.2506598533,-180358.6176465294,-187500.02235174447,-187500.02235174447,-187500.02235174447,-187500.02235174447,1730654804.7816107,1730654803.282301,4000
27649.912554015227,-88076.64669473728,26043.179755589936,-180377.70603629423,-187500.02235174447,-187500.02235174447,-187500.02235174447,-187500.02235174447,1730654804.7854967,1730654803.282301,4000
27639.29547539896,-88057.80417416146,26035.4460520084,-180360.6740070193,-187500.02235174447,-187500.02235174447,-187500.02235174447,-187500.02235174447,1730654804.7907648,1730654803.282301,4000
27666.743417590074,-88080.5358982725,26039.692883454907,-180388.7701497996,-187500.02235174447,-187500.02235174447,-187500.02235174447,-187500.02235174447,1730654804.7936344,1730654803.282301,4000
27683.52957767601,-88084.46980529664,26033.76967117425,-180396.30268768105,-187500.02235174447,-187500.02235174447,-187500.02235174447,-187500.02235174447,1730654804.797768,1730654803.282301,4000
27689.63160391231,-88075.21618309214,26041.481023011333,-180388.1219492104,-187500.02235174447,-187500.02235174447,-187500.02235174447,-187500.02235174447,1730654804.8016436,1730654803.282301,4000
27668.397446679766,-88067.70599695516,26039.15644158798,-180383.40573113036,-187500.02235174447,-187500.02235174447,-187500.02235174447,-187500.02235174447,1730654804.8056846,1730654803.282301,4000
27656.103987229348,-88064.55440098696,26043.98441839033,-180383.85276601944,-187500.02235174447,-187500.02235174447,-187500.02235174447,-187500.02235174447,1730654804.8095329,1730654803.282301,4000
27667.86100481284,-88084.290991341,26046.53251725823,-180403.92463254032,-187500.02235174447,-187500.02235174447,-187500.02235174447,-187500.02235174447,1730654804.8126116,1730654803.282301,4000
27673.985382793595,-88079.77593896103,26041.257505566777,-180397.66614409283,-187500.02235174447,-187500.02235174447,-187500.02235174447,-187500.02235174447,1730654804.816528,1730654803.282301,4000
27678.411028195744,-88045.93539785569,26039.603476477085,-180364.9655419547,-187500.02235174447,-187500.02235174447,-187500.02235174447,-187500.02235174447,1730654804.8207183,1730654803.282301,4000
27675.505301416557,-88049.06464207944,26052.388674305523,-180370.28525713508,-187500.02235174447,-187500.02235174447,-187500.02235174447,-187500.02235174447,1730654804.82469,1730654803.282301,4000
27646.85036502485,-88080.22297385013,26050.13114811553,-180405.1316267409,-187500.02235174447,-187500.02235174447,-187500.02235174447,-187500.02235174447,1730654804.8296986,1730654803.282301,4000
27660.35081867585,-88074.72444471413,26046.398406791497,-180403.52230114007,-187500.02235174447,-187500.02235174447,-187500.02235174447,-187500.02235174447,1730654804.8335552,1730654803.282301,4000
27671.414932181237,-88052.6856246812,26052.388674305523,-180384.59037358648,-187500.02235174447,-187500.02235174447,-187500.02235174447,-187500.02235174447,1730654804.837686,1730654803.282301,4000
27671.4819874146,-88057.31243578345,26041.43631952242,-180392.324077168,-187500.02235174447,-187500.02235174447,-187500.02235174447,-187500.02235174447,1730654804.8407383,1730654803.282301,4000
27674.41006593825,-88053.9820258596,26048.566526003666,-180389.86538527792,-187500.02235174447,-187500.02235174447,-187500.02235174447,-187500.02235174447,1730654804.8447912,1730654803.282301,4000
27673.00190603756,-88052.81973514793,26057.23900285232,-180389.55246085557,-187500.02235174447,-187500.02235174447,-187500.02235174447,-187500.02235174447,1730654804.8487377,1730654803.282301,4000
27675.795874094478,-88044.54958969947,26055.85319469609,-180382.7351787967,-187500.02235174447,-187500.02235174447,-187500.02235174447,-187500.02235174447,1730654804.8527732,1730654803.282301,4000
27687.23996725559,-88060.44168000719,26043.93971490141,-180399.6330976049,-187500.02235174447,-187500.02235174447,-187500.02235174447,-187500.02235174447,1730654804.856778,1730654803.282301,4000
27691.196226024174,-88053.62439794831,26043.4479765234,-180394.9392312693,-187500.02235174447,-187500.02235174447,-187500.02235174447,-187500.02235174447,1730654804.8617196,1730654803.282301,4000
27653.48883312808,-88034.75952562803,26040.87752591104,-180377.6166293164,-187500.02235174447,-187500.02235174447,-187500.02235174447,-187500.02235174447,1730654804.865742,1730654803.282301,4000
27649.86785052632,-88041.21917977562,26034.95431363038,-180386.1326439539,-187500.02235174447,-187500.02235174447,-187500.02235174447,-187500.02235174447,1730654804.8688073,1730654803.282301,4000
27675.6841153722,-88056.35131077186,26037.591819476107,-180402.9858592732,-187500.02235174447,-187500.02235174447,-187500.02235174447,-187500.02235174447,1730654804.872677,1730654803.282301,4000
27681.71908637513,-88072.95865690216,26031.422738006444,-180420.39786820387,-187500.02235174447,-187500.02235174447,-187500.02235174447,-187500.02235174447,1730654804.8766992,1730654803.282301,4000
27667.928060046204,-88085.1403576303,26043.42562477894,-180433.47363871025,-187500.02235174447,-187500.02235174447,-187500.02235174447,-187500.02235174447,1730654804.8808112,1730654803.282301,4000
27664.26237395553,-88087.57669777593,26040.92222939995,-180438.5474847016,-187500.02235174447,-187500.02235174447,-187500.02235174447,-187500.02235174447,1730654804.8847413,1730654803.282301,4000
27676.198205494667,-88071.90812491276,26036.60834272008,-180427.0586880516,-187500.02235174447,-187500.02235174447,-187500.02235174447,-187500.02235174447,1730654804.8897295,1730654803.282301,4000
27676.51112991704,-88067.59423823288,26040.96693288886,-180425.27054849517,-187500.02235174447,-187500.02235174447,-187500.02235174447,-187500.02235174447,1730654804.8937726,1730654803.282301,4000
27668.308039701944,-88038.02288031852,26041.413967777964,-180398.04612374856,-187500.02235174447,-187500.02235174447,-187500.02235174447,-187500.02235174447,1730654804.8967888,1730654803.282301,4000
27670.654972869757,-88022.84604583336,26042.7997759342,-180384.2327456752,-187500.02235174447,-187500.02235174447,-187500.02235174447,-187500.02235174447,1730654804.9006653,1730654803.282301,4000
27675.43824618319,-88016.58755738588,26047.739511458814,-180380.835280518,-187500.02235174447,-187500.02235174447,-187500.02235174447,-187500.02235174447,1730654804.9047592,1730654803.282301,4000
27678.56749040693,-88017.45927541963,26049.05826438168,-180386.46792012072,-187500.02235174447,-187500.02235174447,-187500.02235174447,-187500.02235174447,1730654804.908674,1730654803.282301,4000
27685.541234676988,-88021.88492082179,26050.913459171472,-180392.12291146792,-187500.02235174447,-187500.02235174447,-187500.02235174447,-187500.02235174447,1730654804.912862,1730654803.282301,4000
27676.578185150407,-88013.43596141768,26049.102967870596,-180384.2998009085,-187500.02235174447,-187500.02235174447,-187500.02235174447,-187500.02235174447,1730654804.9177108,1730654803.282301,4000
27642.245905667056,-88025.41649644572,26043.537383501214,-180397.7331993262,-187500.02235174447,-187500.02235174447,-187500.02235174447,-187500.02235174447,1730654804.9208555,1730654803.282301,4000
27641.597705077853,-88026.46702843512,26054.512090028777,-180398.9848970157,-187500.02235174447,-187500.02235174447,-187500.02235174447,-187500.02235174447,1730654804.9246328,1730654803.282301,4000
27659.70261808665,-88034.84893260586,26058.960087175383,-180408.12676049792,-187500.02235174447,-187500.02235174447,-187500.02235174447,-187500.02235174447,1730654804.9289205,1730654803.282301,4000
27659.009714008535,-88060.19581081819,26036.2954182977,-180432.6913276543,-187500.02235174447,-187500.02235174447,-187500.02235174447,-187500.02235174447,1730654804.932968,1730654803.282301,4000
27675.929984561204,-88084.24628785209,26026.97474085984,-180457.23354306625,-187500.02235174447,-187500.02235174447,-187500.02235174447,-187500.02235174447,1730654804.9368854,1730654803.282301,4000
27686.412952710743,-88075.17147960323,26042.352741045088,-180449.96922611824,-187500.02235174447,-187500.02235174447,-187500.02235174447,-187500.02235174447,1730654804.9408696,1730654803.282301,4000
27666.743417590074,-88083.8886599408,26052.12045337206,-180460.22867682323,-187500.02235174447,-187500.02235174447,-187500.02235174447,-187500.02235174447,1730654804.9459467,1730654803.282301,4000
27671.4819874146,-88105.94983171819,26065.62090702306,-180483.1615666344,-187500.02235174447,-187500.02235174447,-187500.02235174447,-187500.02235174447,1730654804.9489288,1730654803.282301,4000
27674.767693849528,-88095.75743624657,26041.59278173361,-180475.18199386384,-187500.02235174447,-187500.02235174447,-187500.02235174447,-187500.02235174447,1730654804.9537923,1730654803.282301,4000
27690.70448764616,-88067.70599695516,26036.563639231164,-180450.5056679852,-187500.02235174447,-187500.02235174447,-187500.02235174447,-187500.02235174447,1730654804.9568577,1730654803.282301,4000
27670.878490314302,-88064.57675273142,26037.413005520462,-180448.71752842877,-187500.02235174447,-187500.02235174447,-187500.02235174447,-187500.02235174447,1730654804.9608536,1730654803.282301,4000
27649.06318772593,-88065.24730506507,26036.943618886904,-180449.5445429736,-187500.02235174447,-187500.02235174447,-187500.02235174447,-187500.02235174447,1730654804.9648335,1730654803.282301,4000
27660.90961228724,-88084.84978495238,26042.7997759342,-180470.62223799492,-187500.02235174447,-187500.02235174447,-187500.02235174447,-187500.02235174447,1730654804.9691565,1730654803.282301,4000
27667.52572864601,-88062.11806084134,26034.172002574447,-180450.61742670744,-187500.02235174447,-187500.02235174447,-187500.02235174447,-187500.02235174447,1730654804.9740057,1730654803.282301,4000
27675.505301416557,-88050.65161593576,26032.38386301802,-180441.9449498588,-187500.02235174447,-187500.02235174447,-187500.02235174447,-187500.02235174447,1730654804.9769404,1730654803.282301,4000
27676.44407468368,-88035.16185702823,26044.0961771126,-180428.7797723746,-187500.02235174447,-187500.02235174447,-187500.02235174447,-187500.02235174447,1730654804.979941,1730654803.282301,4000
27669.626792624807,-88017.86160681983,26054.28857258422,-180413.2006064893,-187500.02235174447,-187500.02235174447,-187500.02235174447,-187500.02235174447,1730654804.9850025,1730654803.282301,4000
27669.3809234358,-88049.9810636021,26055.182642362437,-180448.2034383063,-187500.02235174447,-187500.02235174447,-187500.02235174447,-187500.02235174447,1730654804.9889832,1730654803.282301,4000
27676.801702594963,-88033.39606921627,26044.4985085128,-180434.8147433776,-187500.02235174447,-187500.02235174447,-187500.02235174447,-187500.02235174447,1730654804.9928174,1730654803.282301,4000
27691.39739172428,-88030.8256186039,26049.3488370596,-180430.97024333125,-187500.02235174447,-187500.02235174447,-187500.02235174447,-187500.02235174447,1730654804.9969783,1730654803.282301,4000
27670.16323449173,-88066.1860783322,26055.92024992946,-180467.8953251714,-187500.02235174447,-187500.02235174447,-187500.02235174447,-187500.02235174447,1730654805.00087,1730654803.282301,4000
27636.479155597583,-88077.02667439303,26039.804642177183,-180481.75340673368,-187500.02235174447,-187500.02235174447,-187500.02235174447,-187500.02235174447,1730654805.0039732,1730654803.282301,4000
27652.594763349865,-88082.41344480675,26029.79106066121,-180488.43657832584,-187500.02235174447,-187500.02235174447,-187500.02235174447,-187500.02235174447,1730654805.0079896,1730654803.282301,4000
27680.087409029893,-88060.50873524055,26038.86586891006,-180469.1470228609,-187500.02235174447,-187500.02235174447,-187500.02235174447,-187500.02235174447,1730654805.0129514,1730654803.282301,4000
27678.209862495645,-88072.77984294652,26042.598610234098,-180482.78158697864,-187500.02235174447,-187500.02235174447,-187500.02235174447,-187500.02235174447,1730654805.016954,1730654803.282301,4000
27663.94944953316,-88088.2919535985,26030.372206017044,-180500.88649998745,-187500.02235174447,-187500.02235174447,-187500.02235174447,-187500.02235174447,1730654805.021063,1730654803.282301,4000
27672.688981615185,-88082.1899273622,26035.893086897504,-180496.2596888852,-187500.02235174447,-187500.02235174447,-187500.02235174447,-187500.02235174447,1730654805.025041,1730654803.282301,4000
27670.632621125296,-88089.16367163225,26063.38573257753,-180506.38502912343,-187500.02235174447,-187500.02235174447,-187500.02235174447,-187500.02235174447,1730654805.029101,1730654803.282301,4000
27653.04179823897,-88086.50381404208,26053.90859292848,-180506.2509186567,-187500.02235174447,-187500.02235174447,-187500.02235174447,-187500.02235174447,1730654805.032042,1730654803.282301,4000
27664.75411233355,-88078.54659301598,26033.21087756287,-180501.110017432,-187500.02235174447,-187500.02235174447,-187500.02235174447,-187500.02235174447,1730654805.0360937,1730654803.282301,4000
27663.81533906643,-88074.29976156948,26034.663740952463,-180499.590098809,-187500.02235174447,-187500.02235174447,-187500.02235174447,-187500.02235174447,1730654805.0409656,1730654803.282301,4000
27675.929984561204,-88076.08790112591,26042.86683116756,-180503.61341281096,-187500.02235174447,-187500.02235174447,-187500.02235174447,-187500.02235174447,1730654805.0460804,1730654803.282301,4000
27687.79876086697,-88075.35029355888,26067.140825646024,-180506.7650087792,-187500.02235174447,-187500.02235174447,-187500.02235174447,-187500.02235174447,1730654805.0489,1730654803.282301,4000
27669.91736530273,-88067.34836904387,26075.23215713885,-180502.1605494214,-187500.02235174447,-187500.02235174447,-187500.02235174447,-187500.02235174447,1730654805.0550697,1730654803.282301,4000
27638.46846085411,-88081.96640991764,26044.587915490614,-180516.5327211061,-187500.02235174447,-187500.02235174447,-187500.02235174447,-187500.02235174447,1730654805.0579257,1730654803.282301,4000
27652.86298428333,-88061.91689514124,26021.78913614621,-180499.34422962,-187500.02235174447,-187500.02235174447,-187500.02235174447,-187500.02235174447,1730654805.0609746,1730654803.282301,4000
27673.918327560223,-88054.8313921489,26030.193392061403,-180496.81848249657,-187500.02235174447,-187500.02235174447,-187500.02235174447,-187500.02235174447,1730654805.0648909,1730654803.282301,4000
27676.309964216944,-88079.97710466113,26040.94458114441,-180526.4568956443,-187500.02235174447,-187500.02235174447,-187500.02235174447,-187500.02235174447,1730654805.0679636,1730654803.282301,4000
27676.377019450312,-88082.86047969585,26038.5976479766,-180534.0117852702,-187500.02235174447,-187500.02235174447,-187500.02235174447,-187500.02235174447,1730654805.073068,1730654803.282301,4000
27679.036877040493,-88071.50579351257,26058.69186624192,-180523.6182240985,-187500.02235174447,-187500.02235174447,-187500.02235174447,-187500.02235174447,1730654805.077122,1730654803.282301,4000
27658.07094074141,-88064.35323528686,26056.97078191886,-180517.4491426288,-187500.02235174447,-187500.02235174447,-187500.02235174447,-187500.02235174447,1730654805.0809193,1730654803.282301,4000
27670.54321414748,-88062.9897788751,26044.78908119072,-180518.0749914736,-187500.02235174447,-187500.02235174447,-187500.02235174447,-187500.02235174447,1730654805.084064,1730654803.282301,4000
27680.087409029893,-88061.06752885194,26035.714272941863,-180517.09151471755,-187500.02235174447,-187500.02235174447,-187500.02235174447,-187500.02235174447,1730654805.088086,1730654803.282301,4000
27669.582089135896,-88076.51258427056,26040.6987119554,-180533.02830851416,-187500.02235174447,-187500.02235174447,-187500.02235174447,-187500.02235174447,1730654805.091936,1730654803.282301,4000
27660.306115186944,-88083.66514249625,26043.716197456863,-180543.131297008,-187500.02235174447,-187500.02235174447,-187500.02235174447,-187500.02235174447,1730654805.0961523,1730654803.282301,4000
27665.31290594493,-88077.20548834867,26043.4479765234,-180541.96900629628,-187500.02235174447,-187500.02235174447,-187500.02235174447,-187500.02235174447,1730654805.1009288,1730654803.282301,4000
27671.034952525493,-88070.87994466782,26043.42562477894,-180537.0292707717,-187500.02235174447,-187500.02235174447,-187500.02235174447,-187500.02235174447,1730654805.105121,1730654803.282301,4000
27675.639411883287,-88076.53493601501,26037.569467731653,-180542.30428246316,-187500.02235174447,-187500.02235174447,-187500.02235174447,-187500.02235174447,1730654805.1079917,1730654803.282301,4000
27679.66272588524,-88101.90416597178,26053.148633617,-180568.47817522028,-187500.02235174447,-187500.02235174447,-187500.02235174447,-187500.02235174447,1730654805.112056,1730654803.282301,4000
27663.882394299795,-88078.41248254925,26049.95233415989,-180547.60164589903,-187500.02235174447,-187500.02235174447,-187500.02235174447,-187500.02235174447,1730654805.1162384,1730654803.282301,4000
27658.04858899696,-88069.18121208921,26052.0981016276,-180538.43743067235,-187500.02235174447,-187500.02235174447,-187500.02235174447,-187500.02235174447,1730654805.1202545,1730654803.282301,4000
27675.728818861106,-88070.52231675653,26048.991209148317,-180540.94082605132,-187500.02235174447,-187500.02235174447,-187500.02235174447,-187500.02235174447,1730654805.1242528,1730654803.282301,4000
27693.69962140317,-88083.12870062933,26041.525726500244,-180555.9611983253,-187500.02235174447,-187500.02235174447,-187500.02235174447,-187500.02235174447,1730654805.1292388,1730654803.282301,4000
27684.66951664323,-88069.49413651158,26045.616095735564,-180544.114773764,-187500.02235174447,-187500.02235174447,-187500.02235174447,-187500.02235174447,1730654805.1330335,1730654803.282301,4000
27648.482042370088,-88080.02180815004,26049.907630670983,-180553.56956166856,-187500.02235174447,-187500.02235174447,-187500.02235174447,-187500.02235174447,1730654805.136239,1730654803.282301,4000
27646.04570222446,-88107.64856429679,26042.01746487826,-180581.5092422377,-187500.02235174447,-187500.02235174447,-187500.02235174447,-187500.02235174447,1730654805.1402173,1730654803.282301,4000
27675.147673505267,-88097.03148568052,26033.367339774053,-180573.64142818947,-187500.02235174447,-187500.02235174447,-187500.02235174447,-187500.02235174447,1730654805.1440823,1730654803.282301,4000
27673.1807199932,-88086.72733148663,26041.92805790044,-180567.5617536976,-187500.02235174447,-187500.02235174447,-187500.02235174447,-187500.02235174447,1730654805.1482425,1730654803.282301,4000
27664.24002221108,-88054.1831915597,26044.0961771126,-180538.48213416128,-187500.02235174447,-187500.02235174447,-187500.02235174447,-187500.02235174447,1730654805.1520977,1730654803.282301,4000
27669.40327518025,-88047.50001996757,26052.20986034988,-180532.33540443605,-187500.02235174447,-187500.02235174447,-187500.02235174447,-187500.02235174447,1730654805.1572385,1730654803.282301,4000
27664.687057100185,-88062.00630211906,26061.77640697675,-180548.6968813773,-187500.02235174447,-187500.02235174447,-187500.02235174447,-187500.02235174447,1730654805.161289,1730654803.282301,4000
27661.580164620897,-88093.38815133431,26054.266220839767,-180582.04568410467,-187500.02235174447,-187500.02235174447,-187500.02235174447,-187500.02235174447,1730654805.164382,1730654803.282301,4000
27676.51112991704,-88085.31917158594,26040.76576718876,-180577.03889334667,-187500.02235174447,-187500.02235174447,-187500.02235174447,-187500.02235174447,1730654805.1682644,1730654803.282301,4000
27673.40423743776,-88072.84689817988,26045.52668875774,-180566.2430007748,-187500.02235174447,-187500.02235174447,-187500.02235174447,-187500.02235174447,1730654805.1721916,1730654803.282301,4000
27660.03789425348,-88056.91010438325,26044.386749790523,-180552.9660645683,-187500.02235174447,-187500.02235174447,-187500.02235174447,-187500.02235174447,1730654805.1762369,1730654803.282301,4000
27658.65208609725,-88063.034482364,26052.99217140581,-180560.09627104955,-187500.02235174447,-187500.02235174447,-187500.02235174447,-187500.02235174447,1730654805.1803732,1730654803.282301,4000
27674.968859549623,-88076.02084589253,26055.607325507084,-180574.2225735453,-187500.02235174447,-187500.02235174447,-187500.02235174447,-187500.02235174447,1730654805.1853087,1730654803.282301,4000
27681.540272419486,-88066.52135449903,26038.374130532044,-180565.75126239675,-187500.02235174447,-187500.02235174447,-187500.02235174447,-187500.02235174447,1730654805.188289,1730654803.282301,4000
27661.870737298817,-88095.042180424,26036.183659575425,-180598.8318441906,-187500.02235174447,-187500.02235174447,-187500.02235174447,-187500.02235174447,1730654805.1912076,1730654803.282301,4000
27645.576315590897,-88081.76524421755,26034.70844444137,-180589.5335184972,-187500.02235174447,-187500.02235174447,-187500.02235174447,-187500.02235174447,1730654805.1963456,1730654803.282301,4000
27658.33916167488,-88082.23463085112,26035.602514219587,-180592.19337608732,-187500.02235174447,-187500.02235174447,-187500.02235174447,-187500.02235174447,1730654805.2001233,1730654803.282301,4000
27668.75507459105,-88083.93336342972,26046.91249691397,-180597.4907395233,-187500.02235174447,-187500.02235174447,-187500.02235174447,-187500.02235174447,1730654805.20436,1730654803.282301,4000
27676.89110957278,-88067.01309287705,26059.47417729785,-180584.63848646148,-187500.02235174447,-187500.02235174447,-187500.02235174447,-187500.02235174447,1730654805.2081456,1730654803.282301,4000
27666.18462397869,-88084.38039831883,26044.230287579336,-180604.71035298237,-187500.02235174447,-187500.02235174447,-187500.02235174447,-187500.02235174447,1730654805.2131348,1730654803.282301,4000
27686.591766666388,-88101.65829678277,26039.625828221546,-180625.36336485905,-187500.02235174447,-187500.02235174447,-187500.02235174447,-187500.02235174447,1730654805.2162929,1730654803.282301,4000
27689.072810300924,-88092.62819202284,26044.163232345967,-180619.6636700229,-187500.02235174447,-187500.02235174447,-187500.02235174447,-187500.02235174447,1730654805.2193289,1730654803.282301,4000
27652.41594939422,-88080.15591861677,26044.900839912996,-180609.6277367625,-187500.02235174447,-187500.02235174447,-187500.02235174447,-187500.02235174447,1730654805.2243788,1730654803.282301,4000
27648.794966792462,-88078.3901308048,26042.15157534499,-180609.04659140663,-187500.02235174447,-187500.02235174447,-187500.02235174447,-187500.02235174447,1730654805.2283697,1730654803.282301,4000
27663.36830417732,-88113.77294227754,26040.855174166583,-180645.5469901022,-187500.02235174447,-187500.02235174447,-187500.02235174447,-187500.02235174447,1730654805.2323012,1730654803.282301,4000
27676.064095027938,-88128.61450059587,26047.91832541446,-180661.6849495989,-187500.02235174447,-187500.02235174447,-187500.02235174447,-187500.02235174447,1730654805.236408,1730654803.282301,4000
27669.89501355827,-88108.67674454174,26042.263334067266,-180643.82590577911,-187500.02235174447,-187500.02235174447,-187500.02235174447,-187500.02235174447,1730654805.241202,1730654803.282301,4000
27655.00875175104,-88124.9041110163,26036.518935742253,-180663.406033922,-187500.02235174447,-187500.02235174447,-187500.02235174447,-187500.02235174447,1730654805.244412,1730654803.282301,4000
27651.96891450512,-88114.97993647814,26035.334293286123,-180655.20294370688,-187500.02235174447,-187500.02235174447,-187500.02235174447,-187500.02235174447,1730654805.247396,1730654803.282301,4000
27665.737589089586,-88116.96924173465,26043.693845712405,-180659.8521065536,-187500.02235174447,-187500.02235174447,-187500.02235174447,-187500.02235174447,1730654805.2523668,1730654803.282301,4000
27668.75507459105,-88126.75930580609,26045.325523057643,-180674.78307184973,-187500.02235174447,-187500.02235174447,-187500.02235174447,-187500.02235174447,1730654805.2565727,1730654803.282301,4000
27665.62583036731,-88119.6961545582,26040.58695323312,-180670.0892055141,-187500.02235174447,-187500.02235174447,-187500.02235174447,-187500.02235174447,1730654805.260902,1730654803.282301,4000
27675.550004905464,-88089.29778209899,26037.122432842545,-180643.7141470569,-187500.02235174447,-187500.02235174447,-187500.02235174447,-187500.02235174447,1730654805.264789,1730654803.282301,4000
27672.15253974826,-88087.93432568721,26047.11366261407,-180645.56934184665,-187500.02235174447,-187500.02235174447,-187500.02235174447,-187500.02235174447,1730654805.2694557,1730654803.282301,4000
27664.30707744445,-88084.44745355219,26048.812395192672,-180642.41774587845,-187500.02235174447,-187500.02235174447,-187500.02235174447,-187500.02235174447,1730654805.2723572,1730654803.282301,4000
27671.861967070337,-88109.88373874233,26051.15932836048,-180668.9716182913,-187500.02235174447,-187500.02235174447,-187500.02235174447,-187500.02235174447,1730654805.2752495,1730654803.282301,4000
27665.894051300773,-88099.31136361496,26058.848328453107,-180662.0202257657,-187500.02235174447,-187500.02235174447,-187500.02235174447,-187500.02235174447,1730654805.2804873,1730654803.282301,4000
27658.65208609725,-88091.10827339986,26058.401293564,-180659.136850731,-187500.02235174447,-187500.02235174447,-187500.02235174447,-187500.02235174447,1730654805.2844796,1730654803.282301,4000
27658.67443784171,-88147.00998628259,26033.032063607225,-180720.157113094,-187500.02235174447,-187500.02235174447,-187500.02235174447,-187500.02235174447,1730654805.2884924,1730654803.282301,4000
27665.3799611783,-88123.51830286006,26025.38776700351,-180699.25823202828,-187500.02235174447,-187500.02235174447,-187500.02235174447,-187500.02235174447,1730654805.2922652,1730654803.282301,4000
27656.685132585186,-88109.39200036431,26035.334293286123,-180690.20577552388,-187500.02235174447,-187500.02235174447,-187500.02235174447,-187500.02235174447,1730654805.2955344,1730654803.282301,4000
27656.14869071826,-88112.23067191013,26041.279857311238,-180698.36416225007,-187500.02235174447,-187500.02235174447,-187500.02235174447,-187500.02235174447,1730654805.2995648,1730654803.282301,4000
27654.606420350843,-88092.67289551174,26061.038799409725,-180682.9638103204,-187500.02235174447,-187500.02235174447,-187500.02235174447,-187500.02235174447,1730654805.3034818,1730654803.282301,4000
27667.95041179066,-88112.9459277327,26052.142805116517,-180706.63430769852,-187500.02235174447,-187500.02235174447,-187500.02235174447,-187500.02235174447,1730654805.3075645,1730654803.282301,4000
27681.830845097407,-88116.298689401,26027.421775748942,-180713.0939618461,-187500.02235174447,-187500.02235174447,-187500.02235174447,-187500.02235174447,1730654805.3126917,1730654803.282301,4000
27689.273976001023,-88122.8030470375,26036.00484561978,-180723.4428195289,-187500.02235174447,-187500.02235174447,-187500.02235174447,-187500.02235174447,1730654805.3163452,1730654803.282301,4000
27660.46257739813,-88116.18693067873,26042.44214802291,-180721.09588636112,-187500.02235174447,-187500.02235174447,-187500.02235174447,-187500.02235174447,1730654805.3206136,1730654803.282301,4000
27652.818280794418,-88106.46392184067,26036.764804931263,-180715.01621186928,-187500.02235174447,-187500.02235174447,-187500.02235174447,-187500.02235174447,1730654805.3236115,1730654803.282301,4000
27654.181737206192,-88087.35318033138,26040.251677066288,-180698.16299655,-187500.02235174447,-187500.02235174447,-187500.02235174447,-187500.02235174447,1730654805.3275545,1730654803.282301,4000
27662.228365210103,-88102.26179388307,26041.704540455885,-180715.6644124585,-187500.02235174447,-187500.02235174447,-187500.02235174447,-187500.02235174447,1730654805.3315213,1730654803.282301,4000
27674.16419674924,-88093.52226180104,26037.30124679819,-180710.4788077449,-187500.02235174447,-187500.02235174447,-187500.02235174447,-187500.02235174447,1730654805.3355868,1730654803.282301,4000
27679.707429374157,-88097.0985409139,26044.72202595735,-180719.911243905,-187500.02235174447,-187500.02235174447,-187500.02235174447,-187500.02235174447,1730654805.3405724,1730654803.282301,4000
27665.447016411665,-88094.75160774609,26041.078691611136,-180719.3524502936,-187500.02235174447,-187500.02235174447,-187500.02235174447,-187500.02235174447,1730654805.344653,1730654803.282301,4000
27661.80368206545,-88059.50290674006,26034.61903746355,-180684.23785975436,-187500.02235174447,-187500.02235174447,-187500.02235174447,-187500.02235174447,1730654805.3485768,1730654803.282301,4000
27672.42076068172,-88074.03154063602,26049.88527892653,-180699.81702563967,-187500.02235174447,-187500.02235174447,-187500.02235174447,-187500.02235174447,1730654805.3515792,1730654803.282301,4000
27664.105911744347,-88079.038331394,26046.44311028041,-180707.8413018991,-187500.02235174447,-187500.02235174447,-187500.02235174447,-187500.02235174447,1730654805.3556151,1730654803.282301,4000
27665.42466466721,-88096.6962095137,26043.42562477894,-180725.65564223,-187500.02235174447,-187500.02235174447,-187500.02235174447,-187500.02235174447,1730654805.3621807,1730654803.282301,4000
27662.742455332573,-88093.63402052331,26038.977627632332,-180722.77226719528,-187500.02235174447,-187500.02235174447,-187500.02235174447,-187500.02235174447,1730654805.3646295,1730654803.282301,4000
27666.2293274676,-88099.42312233725,26037.50241249829,-180730.32715682115,-187500.02235174447,-187500.02235174447,-187500.02235174447,-187500.02235174447,1730654805.3685627,1730654803.282301,4000
27670.587917636385,-88138.91865478977,26054.78031096224,-180772.2590294193,-187500.02235174447,-187500.02235174447,-187500.02235174447,-187500.02235174447,1730654805.37249,1730654803.282301,4000
27660.3284669314,-88145.98180603764,26049.88527892653,-180779.7692155563,-187500.02235174447,-187500.02235174447,-187500.02235174447,-187500.02235174447,1730654805.3765435,1730654803.282301,4000
27671.25846997005,-88144.73010834814,26046.174889346945,-180779.23277368935,-187500.02235174447,-187500.02235174447,-187500.02235174447,-187500.02235174447,1730654805.3796186,1730654803.282301,4000
27689.139865534293,-88123.56300634898,26048.00773239228,-180758.64681704604,-187500.02235174447,-187500.02235174447,-187500.02235174447,-187500.02235174447,1730654805.3834033,1730654803.282301,4000
27675.66176362774,-88111.62717480984,26046.82308993615,-180747.87327621857,-187500.02235174447,-187500.02235174447,-187500.02235174447,-187500.02235174447,1730654805.3876858,1730654803.282301,4000
27641.08361495538,-88114.28703240003,26036.38482527552,-180752.0307006873,-187500.02235174447,-187500.02235174447,-187500.02235174447,-187500.02235174447,1730654805.3914113,1730654803.282301,4000
27650.963086004627,-88101.77005550505,26036.04954910869,-180743.89466570556,-187500.02235174447,-187500.02235174447,-187500.02235174447,-187500.02235174447,1730654805.395693,1730654803.282301,4000
27669.51503390253,-88105.03341019552,26043.805604434685,-180751.78483149823,-187500.02235174447,-187500.02235174447,-187500.02235174447,-187500.02235174447,1730654805.4004648,1730654803.282301,4000
27665.33525768939,-88093.63402052331,26042.419796278453,-180743.69350000544,-187500.02235174447,-187500.02235174447,-187500.02235174447,-187500.02235174447,1730654805.4046128,1730654803.282301,4000
27669.51503390253,-88107.93913697472,26045.77255794675,-180761.64195080305,-187500.02235174447,-187500.02235174447,-187500.02235174447,-187500.02235174447,1730654805.4076674,1730654803.282301,4000
27682.36728696433,-88086.30264834198,26054.89206968452,-180746.0180814288,-187500.02235174447,-187500.02235174447,-187500.02235174447,-187500.02235174447,1730654805.4118187,1730654803.282301,4000
27679.79683635197,-88116.16457893427,26052.366322561065,-180780.1715469565,-187500.02235174447,-187500.02235174447,-187500.02235174447,-187500.02235174447,1730654805.4157045,1730654803.282301,4000
27652.304190671945,-88116.18693067873,26043.179755589936,-180783.3454946692,-187500.02235174447,-187500.02235174447,-187500.02235174447,-187500.02235174447,1730654805.4196477,1730654803.282301,4000
27655.52284187351,-88102.68647702772,26043.4479765234,-180772.75076779732,-187500.02235174447,-187500.02235174447,-187500.02235174447,-187500.02235174447,1730654805.423506,1730654803.282301,4000
27666.698714101163,-88103.02175319455,26044.565563746164,-180774.33774165367,-187500.02235174447,-187500.02235174447,-187500.02235174447,-187500.02235174447,1730654805.4287589,1730654803.282301,4000
27666.832824567897,-88113.12474168834,26038.53059274323,-180785.3571516701,-187500.02235174447,-187500.02235174447,-187500.02235174447,-187500.02235174447,1730654805.4319105,1730654803.282301,4000
27663.882394299795,-88110.48723584262,26045.05730212418,-180784.5748406142,-187500.02235174447,-187500.02235174447,-187500.02235174447,-187500.02235174447,1730654805.435628,1730654803.282301,4000
27679.75213286306,-88122.46777087066,26063.83276746664,-180796.0859890087,-187500.02235174447,-187500.02235174447,-187500.02235174447,-187500.02235174447,1730654805.4397292,1730654803.282301,4000
27677.069923528423,-88134.73887857662,26050.13114811553,-180808.4688554369,-187500.02235174447,-187500.02235174447,-187500.02235174447,-187500.02235174447,1730654805.4436028,1730654803.282301,4000
27672.3313537039,-88122.11014295938,26052.20986034988,-180798.14234949852,-187500.02235174447,-187500.02235174447,-187500.02235174447,-187500.02235174447,1730654805.4476633,1730654803.282301,4000
27673.04660952647,-88109.39200036431,26064.63743026703,-180787.2794016933,-187500.02235174447,-187500.02235174447,-187500.02235174447,-187500.02235174447,1730654805.4516568,1730654803.282301,4000
27647.409158636237,-88121.9983842371,26034.417871763453,-180802.05390477824,-187500.02235174447,-187500.02235174447,-187500.02235174447,-187500.02235174447,1730654805.4567907,1730654803.282301,4000
27653.444129639167,-88129.21799769616,26037.25654330928,-180811.1287130271,-187500.02235174447,-187500.02235174447,-187500.02235174447,-187500.02235174447,1730654805.459667,1730654803.282301,4000
27674.275955471512,-88132.79427680901,26044.99024689081,-180815.08497179567,-187500.02235174447,-187500.02235174447,-187500.02235174447,-187500.02235174447,1730654805.463663,1730654803.282301,4000
27670.96789729213,-88116.23163416763,26045.638447480014,-180799.9751925439,-187500.02235174447,-187500.02235174447,-187500.02235174447,-187500.02235174447,1730654805.4676225,1730654803.282301,4000
27657.087463985383,-88114.35408763339,26036.2954182977,-180799.05877102123,-187500.02235174447,-187500.02235174447,-187500.02235174447,-187500.02235174447,1730654805.4715884,1730654803.282301,4000
27669.80560658045,-88128.9050732738,26036.518935742253,-180816.40372471852,-187500.02235174447,-187500.02235174447,-187500.02235174447,-187500.02235174447,1730654805.4755862,1730654803.282301,4000
27671.32552520341,-88131.4531721417,26046.10783411358,-180822.66221316604,-187500.02235174447,-187500.02235174447,-187500.02235174447,-187500.02235174447,1730654805.4798424,1730654803.282301,4000
27663.77063557752,-88129.64268084081,26043.358569545577,-180822.6398614216,-187500.02235174447,-187500.02235174447,-187500.02235174447,-187500.02235174447,1730654805.48463,1730654803.282301,4000
27661.982496021094,-88109.21318640867,26046.577220747145,-180803.6855821235,-187500.02235174447,-187500.02235174447,-187500.02235174447,-187500.02235174447,1730654805.4876745,1730654803.282301,4000
27668.62096412432,-88109.90609048678,26042.82212767865,-180804.51259666836,-187500.02235174447,-187500.02235174447,-187500.02235174447,-187500.02235174447,1730654805.491891,1730654803.282301,4000
27665.894051300773,-88118.48916035763,26044.811432935174,-180814.3920677176,-187500.02235174447,-187500.02235174447,-187500.02235174447,-187500.02235174447,1730654805.4957345,1730654803.282301,4000
27667.749246090563,-88116.96924173465,26051.092273127117,-180815.28613749577,-187500.02235174447,-187500.02235174447,-187500.02235174447,-187500.02235174447,1730654805.4996767,1730654803.282301,4000
27655.455786640145,-88115.62813706734,26053.48390978383,-180814.63793690657,-187500.02235174447,-187500.02235174447,-187500.02235174447,-187500.02235174447,1730654805.5039606,1730654803.282301,4000
27670.878490314302,-88117.61744232387,26065.12916864505,-180817.18603577447,-187500.02235174447,-187500.02235174447,-187500.02235174447,-187500.02235174447,1730654805.5077624,1730654803.282301,4000
27677.94164156218,-88108.83320675293,26050.600534749097,-180808.69237288143,-187500.02235174447,-187500.02235174447,-187500.02235174447,-187500.02235174447,1730654805.512015,1730654803.282301,4000
27666.296382700966,-88118.75738129109,26031.15451707298,-180818.90712009757,-187500.02235174447,-187500.02235174447,-187500.02235174447,-187500.02235174447,1730654805.514951,1730654803.282301,4000
27664.038856510982,-88150.49685841762,26031.33333102862,-180851.5853704912,-187500.02235174447,-187500.02235174447,-187500.02235174447,-187500.02235174447,1730654805.5187604,1730654803.282301,4000
27660.641391353776,-88142.29376820252,26039.514069499262,-180844.4328122655,-187500.02235174447,-187500.02235174447,-187500.02235174447,-187500.02235174447,1730654805.523948,1730654803.282301,4000
27657.445091896665,-88125.90993951679,26048.097139370104,-180826.88669286808,-187500.02235174447,-187500.02235174447,-187500.02235174447,-187500.02235174447,1730654805.5279589,1730654803.282301,4000
27663.234193710592,-88135.9011692883,26042.173927089447,-180836.3861842616,-187500.02235174447,-187500.02235174447,-187500.02235174447,-187500.02235174447,1730654805.5327375,1730654803.282301,4000
27667.86100481284,-88117.77390453505,26054.176813861945,-180820.0470590648,-187500.02235174447,-187500.02235174447,-187500.02235174447,-187500.02235174447,1730654805.5359805,1730654803.282301,4000
27673.448940926664,-88141.71262284668,26064.570375033665,-180846.46682101092,-187500.02235174447,-187500.02235174447,-187500.02235174447,-187500.02235174447,1730654805.539889,1730654803.282301,4000
27676.24290898358,-88153.96137880819,26056.099063885104,-180859.8331641952,-187500.02235174447,-187500.02235174447,-187500.02235174447,-187500.02235174447,1730654805.5439537,1730654803.282301,4000
27679.349801462868,-88167.95357083721,26040.430491021933,-180871.81369922325,-187500.02235174447,-187500.02235174447,-187500.02235174447,-187500.02235174447,1730654805.547863,1730654803.282301,4000
27685.04949629897,-88169.07115805997,26041.59278173361,-180875.07705391373,-187500.02235174447,-187500.02235174447,-187500.02235174447,-187500.02235174447,1730654805.5520678,1730654803.282301,4000
27678.031048540004,-88167.6629981593,26049.237078337323,-180875.9487719475,-187500.02235174447,-187500.02235174447,-187500.02235174447,-187500.02235174447,1730654805.5549245,1730654803.282301,4000
27655.03110349549,-88158.14115502134,26042.956238145383,-180867.186888121,-187500.02235174447,-187500.02235174447,-187500.02235174447,-187500.02235174447,1730654805.5587528,1730654803.282301,4000
27655.388731406776,-88163.2597045016,26037.07772935364,-180873.1995073795,-187500.02235174447,-187500.02235174447,-187500.02235174447,-187500.02235174447,1730654805.5638433,1730654803.282301,4000
27674.16419674924,-88164.80197486901,26042.375092789545,-180876.6416760256,-187500.02235174447,-187500.02235174447,-187500.02235174447,-187500.02235174447,1730654805.567848,1730654803.282301,4000
27673.33718220439,-88159.6610736443,26050.086444626624,-180874.1382806466,-187500.02235174447,-187500.02235174447,-187500.02235174447,-187500.02235174447,1730654805.572063,1730654803.282301,4000
27659.97083902012,-88139.43274491224,26042.48685151182,-180857.26271358287,-187500.02235174447,-187500.02235174447,-187500.02235174447,-187500.02235174447,1730654805.5758216,1730654803.282301,4000
27671.77256009252,-88158.83405909945,26046.97955214733,-180879.1450714046,-187500.02235174447,-187500.02235174447,-187500.02235174447,-187500.02235174447,1730654805.5793197,1730654803.282301,4000
27671.169062992223,-88157.7611753656,26056.054360396192,-180878.4521673265,-187500.02235174447,-187500.02235174447,-187500.02235174447,-187500.02235174447,1730654805.5827756,1730654803.282301,4000
27663.971801277617,-88144.88657055933,26056.07671214065,-180865.8681351981,-187500.02235174447,-187500.02235174447,-187500.02235174447,-187500.02235174447,1730654805.5870433,1730654803.282301,4000
27654.85228953985,-88151.68150087375,26037.90474389848,-180876.9993039369,-187500.02235174447,-187500.02235174447,-187500.02235174447,-187500.02235174447,1730654805.591926,1730654803.282301,4000
27662.988324521582,-88176.98367559716,26030.416909505955,-180906.16833045107,-187500.02235174447,-187500.02235174447,-187500.02235174447,-187500.02235174447,1730654805.596054,1730654803.282301,4000
27679.707429374157,-88170.30050400502,26044.520860257253,-180902.05560947128,-187500.02235174447,-187500.02235174447,-187500.02235174447,-187500.02235174447,1730654805.5998998,1730654803.282301,4000
27664.26237395553,-88166.1654312808,26047.627752736546,-180899.57456583675,-187500.02235174447,-187500.02235174447,-187500.02235174447,-187500.02235174447,1730654805.603933,1730654803.282301,4000
27656.483966885087,-88180.314085521,26038.083557854126,-180914.0361444993,-187500.02235174447,-187500.02235174447,-187500.02235174447,-187500.02235174447,1730654805.6069572,1730654803.282301,4000
27666.47519665661,-88161.71743413419,26049.19237484841,-180895.73006579044,-187500.02235174447,-187500.02235174447,-187500.02235174447,-187500.02235174447,1730654805.6109233,1730654803.282301,4000
27664.888222800284,-88149.71454736168,26059.988267420325,-180884.9118214741,-187500.02235174447,-187500.02235174447,-187500.02235174447,-187500.02235174447,1730654805.6149757,1730654803.282301,4000
27666.89987980126,-88159.057576544,26050.10879637108,-180896.5794320797,-187500.02235174447,-187500.02235174447,-187500.02235174447,-187500.02235174447,1730654805.6189864,1730654803.282301,4000
27683.03783929799,-88143.97014903667,26034.86490665256,-180883.12368191764,-187500.02235174447,-187500.02235174447,-187500.02235174447,-187500.02235174447,1730654805.6240172,1730654803.282301,4000
27668.933888546693,-88161.78448936755,26038.66470320996,-180903.06143797177,-187500.02235174447,-187500.02235174447,-187500.02235174447,-187500.02235174447,1730654805.628018,1730654803.282301,4000
27637.775556776,-88167.79710862602,26038.195316576403,-180909.6552025861,-187500.02235174447,-187500.02235174447,-187500.02235174447,-187500.02235174447,1730654805.6310115,1730654803.282301,4000
27650.76192030453,-88157.18003000975,26036.541287486707,-180897.71937104696,-187500.02235174447,-187500.02235174447,-187500.02235174447,-187500.02235174447,1730654805.635038,1730654803.282301,4000
27665.514071645037,-88121.7525150481,26042.21863057836,-180861.46484154044,-187500.02235174447,-187500.02235174447,-187500.02235174447,-187500.02235174447,1730654805.639065,1730654803.282301,4000
27674.946507805173,-88130.89437853031,26048.745339959307,-180870.36083583365,-187500.02235174447,-187500.02235174447,-187500.02235174447,-187500.02235174447,1730654805.6430254,1730654803.282301,4000
27678.589842151385,-88141.77967808006,26059.720046486866,-180882.02844643933,-187500.02235174447,-187500.02235174447,-187500.02235174447,-187500.02235174447,1730654805.6470468,1730654803.282301,4000
27667.726894346102,-88134.53771287652,26051.315790571665,-180877.8933737151,-187500.02235174447,-187500.02235174447,-187500.02235174447,-187500.02235174447,1730654805.652024,1730654803.282301,4000
27665.67053385622,-88162.56680042349,26044.07382536815,-180908.91759501907,-187500.02235174447,-187500.02235174447,-187500.02235174447,-187500.02235174447,1730654805.656073,1730654803.282301,4000
27675.013563038538,-88164.98078882466,26044.587915490614,-180911.30923167575,-187500.02235174447,-187500.02235174447,-187500.02235174447,-187500.02235174447,1730654805.658867,1730654803.282301,4000
27682.411990453245,-88151.39092819583,26048.521822514755,-180897.45115011348,-187500.02235174447,-187500.02235174447,-187500.02235174447,-187500.02235174447,1730654805.6630409,1730654803.282301,4000
27672.62192638182,-88153.93902706374,26055.316752829167,-180901.76503679337,-187500.02235174447,-187500.02235174447,-187500.02235174447,-187500.02235174447,1730654805.6680791,1730654803.282301,4000
27654.27114418401,-88139.76802107907,26046.241944580317,-180891.77380702185,-187500.02235174447,-187500.02235174447,-187500.02235174447,-187500.02235174447,1730654805.671926,1730654803.282301,4000
27666.6316588678,-88132.79427680901,26059.69769474241,-180887.6610860421,-187500.02235174447,-187500.02235174447,-187500.02235174447,-187500.02235174447,1730654805.6749072,1730654803.282301,4000
27667.45867341264,-88141.60086412441,26051.382845805038,-180898.3005164028,-187500.02235174447,-187500.02235174447,-187500.02235174447,-187500.02235174447,1730654805.6789837,1730654803.282301,4000
27657.690961085675,-88129.57562560745,26042.82212767865,-180887.43756859752,-187500.02235174447,-187500.02235174447,-187500.02235174447,-187500.02235174447,1730654805.6840827,1730654803.282301,4000
27664.75411233355,-88129.97795700765,26039.022331121247,-180887.90695523107,-187500.02235174447,-187500.02235174447,-187500.02235174447,-187500.02235174447,1730654805.6872048,1730654803.282301,4000
27671.21376648113,-88124.92646276075,26038.84351716561,-180883.92834471804,-187500.02235174447,-187500.02235174447,-187500.02235174447,-187500.02235174447,1730654805.6910913,1730654803.282301,4000
27670.09617925837,-88140.95266353521,26044.163232345967,-180901.206243182,-187500.02235174447,-187500.02235174447,-187500.02235174447,-187500.02235174447,1730654805.6949253,1730654803.282301,4000
27663.34595243287,-88147.27820721605,26038.15061308749,-180907.1741589516,-187500.02235174447,-187500.02235174447,-187500.02235174447,-187500.02235174447,1730654805.6992636,1730654803.282301,4000
27666.721065845617,-88138.2033989672,26040.855174166583,-180900.15571119255,-187500.02235174447,-187500.02235174447,-187500.02235174447,-187500.02235174447,1730654805.703128,1730654803.282301,4000
27672.82309208192,-88136.07998324395,26044.78908119072,-180900.0663042148,-187500.02235174447,-187500.02235174447,-187500.02235174447,-187500.02235174447,1730654805.7071283,1730654803.282301,4000
27673.091313015382,-88134.1577332208,26047.448938780897,-180900.8486152707,-187500.02235174447,-187500.02235174447,-187500.02235174447,-187500.02235174447,1730654805.7120628,1730654803.282301,4000
