Fp1,Fp2,C3,C4,P7,P8,O1,O2,time_board,time_marker,marker
-6556.928939453237,-187500.02235174447,8580.968806859113,-187500.02235174447,-187500.02235174447,-187500.02235174447,-187500.02235174447,-187500.02235174447,1731452001.2953646,1731452001.2928247,5000
-6527.469340261143,-187500.02235174447,8595.832716921892,-187500.02235174447,-187500.02235174447,-187500.02235174447,-187500.02235174447,-187500.02235174447,1731452001.2995312,1731452001.2928247,5000
-6478.51901990402,-187500.02235174447,8612.37300781882,-187500.02235174447,-187500.02235174447,-187500.02235174447,-187500.02235174447,-187500.02235174447,1731452001.3023298,1731452001.2928247,5000
-6501.80953762645,-187500.02235174447,8597.218525078122,-187500.02235174447,-187500.02235174447,-187500.02235174447,-187500.02235174447,-187500.02235174447,1731452001.306363,1731452001.2928247,5000
-6554.023212674048,-187500.02235174447,8577.526638212996,-187500.02235174447,-187500.02235174447,-187500.02235174447,-187500.02235174447,-187500.02235174447,1731452001.311314,1731452001.2928247,5000
-6532.319668807944,-187500.02235174447,8589.775394174505,-187500.02235174447,-187500.02235174447,-187500.02235174447,-187500.02235174447,-187500.02235174447,1731452001.3153129,1731452001.2928247,5000
-6482.229409483602,-187500.02235174447,8606.114519371333,-187500.02235174447,-187500.02235174447,-187500.02235174447,-187500.02235174447,-187500.02235174447,1731452001.319327,1731452001.2928247,5000
-6495.081662545403,-187500.02235174447,8596.793841933471,-187500.02235174447,-187500.02235174447,-187500.02235174447,-187500.02235174447,-187500.02235174447,1731452001.322364,1731452001.2928247,5000
-6547.630613759829,-187500.02235174447,8572.050460821445,-187500.02235174447,-187500.02235174447,-187500.02235174447,-187500.02235174447,-187500.02235174447,1731452001.3263786,1731452001.2928247,5000
-6546.244805603601,-187500.02235174447,8577.280769023988,-187500.02235174447,-187500.02235174447,-187500.02235174447,-187500.02235174447,-187500.02235174447,1731452001.3303485,1731452001.2928247,5000
-6497.495650946576,-187500.02235174447,8601.1300803578,-187500.02235174447,-187500.02235174447,-187500.02235174447,-187500.02235174447,-187500.02235174447,1731452001.3344092,1731452001.2928247,5000
-6492.935895077693,-187500.02235174447,8598.89490591227,-187500.02235174447,-187500.02235174447,-187500.02235174447,-187500.02235174447,-187500.02235174447,1731452001.339376,1731452001.2928247,5000
-6545.015459658559,-187500.02235174447,8578.420707991208,-187500.02235174447,-187500.02235174447,-187500.02235174447,-187500.02235174447,-187500.02235174447,1731452001.3434076,1731452001.2928247,5000
-6549.776381227539,-187500.02235174447,8577.45958297963,-187500.02235174447,-187500.02235174447,-187500.02235174447,-187500.02235174447,-187500.02235174447,1731452001.3473935,1731452001.2928247,5000
-6503.329456249411,-187500.02235174447,8598.246705323065,-187500.02235174447,-187500.02235174447,-187500.02235174447,-187500.02235174447,-187500.02235174447,1731452001.350424,1731452001.2928247,5000
-6495.774566623517,-187500.02235174447,8598.000836134057,-187500.02235174447,-187500.02235174447,-187500.02235174447,-187500.02235174447,-187500.02235174447,1731452001.3544276,1731452001.2928247,5000
-6532.587889741408,-187500.02235174447,8573.972710844602,-187500.02235174447,-187500.02235174447,-187500.02235174447,-187500.02235174447,-187500.02235174447,1731452001.35856,1731452001.2928247,5000
-6561.041660433014,-187500.02235174447,8571.916350354713,-187500.02235174447,-187500.02235174447,-187500.02235174447,-187500.02235174447,-187500.02235174447,1731452001.362435,1731452001.2928247,5000
-6514.14770056578,-187500.02235174447,8596.257400066543,-187500.02235174447,-187500.02235174447,-187500.02235174447,-187500.02235174447,-187500.02235174447,1731452001.366502,1731452001.2928247,5000
-6482.8776100728055,-187500.02235174447,8607.65678973875,-187500.02235174447,-187500.02235174447,-187500.02235174447,-187500.02235174447,-187500.02235174447,1731452001.3714287,1731452001.2928247,5000
-6520.026209357526,-187500.02235174447,8586.93672262868,-187500.02235174447,-187500.02235174447,-187500.02235174447,-187500.02235174447,-187500.02235174447,1731452001.37543,1731452001.2928247,5000
-6554.805523729983,-187500.02235174447,8578.510114969029,-187500.02235174447,-187500.02235174447,-187500.02235174447,-187500.02235174447,-187500.02235174447,1731452001.3785217,1731452001.2928247,5000
-6526.865843160849,-187500.02235174447,8597.777318689505,-187500.02235174447,-187500.02235174447,-187500.02235174447,-187500.02235174447,-187500.02235174447,1731452001.3825145,1731452001.2928247,5000
-6481.42474668321,-187500.02235174447,8612.216545607633,-187500.02235174447,-187500.02235174447,-187500.02235174447,-187500.02235174447,-187500.02235174447,1731452001.3884385,1731452001.2928247,5000
-6512.024284842526,-187500.02235174447,8598.626684978806,-187500.02235174447,-187500.02235174447,-187500.02235174447,-187500.02235174447,-187500.02235174447,1731452001.3915412,1731452001.2928247,5000
-6553.129142895836,-187500.02235174447,8584.992120861069,-187500.02235174447,-187500.02235174447,-187500.02235174447,-187500.02235174447,-187500.02235174447,1731452001.3944857,1731452001.2928247,5000
-6524.943593137693,-187500.02235174447,8598.134946600789,-187500.02235174447,-187500.02235174447,-187500.02235174447,-187500.02235174447,-187500.02235174447,1731452001.3994553,1731452001.2928247,5000
-6479.301330959956,-187500.02235174447,8612.820042707926,-187500.02235174447,-187500.02235174447,-187500.02235174447,-187500.02235174447,-187500.02235174447,1731452001.4035456,1731452001.2928247,5000
-6502.8377178713945,-187500.02235174447,8599.69956871266,-187500.02235174447,-187500.02235174447,-187500.02235174447,-187500.02235174447,-187500.02235174447,1731452001.4064505,1731452001.2928247,5000
-6551.542169039509,-187500.02235174447,8582.578132459896,-187500.02235174447,-187500.02235174447,-187500.02235174447,-187500.02235174447,-187500.02235174447,1731452001.4105165,1731452001.2928247,5000
-6542.489712535109,-187500.02235174447,8589.350711029854,-187500.02235174447,-187500.02235174447,-187500.02235174447,-187500.02235174447,-187500.02235174447,1731452001.4144883,1731452001.2928247,5000
-6487.347958963866,-187500.02235174447,8615.681065998206,-187500.02235174447,-187500.02235174447,-187500.02235174447,-187500.02235174447,-187500.02235174447,1731452001.41863,1731452001.2928247,5000
-6489.449022942666,-187500.02235174447,8607.902658927758,-187500.02235174447,-187500.02235174447,-187500.02235174447,-187500.02235174447,-187500.02235174447,1731452001.4227114,1731452001.2928247,5000
-6544.188445113712,-187500.02235174447,8583.025167349002,-187500.02235174447,-187500.02235174447,-187500.02235174447,-187500.02235174447,-187500.02235174447,1731452001.4276671,1731452001.2928247,5000
-6542.735581724118,-187500.02235174447,8584.32156852741,-187500.02235174447,-187500.02235174447,-187500.02235174447,-187500.02235174447,-187500.02235174447,1731452001.4305208,1731452001.2928247,5000
-6494.52286893402,-187500.02235174447,8602.247667580565,-187500.02235174447,-187500.02235174447,-187500.02235174447,-187500.02235174447,-187500.02235174447,1731452001.4345908,1731452001.2928247,5000
-6491.818307854928,-187500.02235174447,8603.588772247884,-187500.02235174447,-187500.02235174447,-187500.02235174447,-187500.02235174447,-187500.02235174447,1731452001.4385269,1731452001.2928247,5000
-6552.436238817721,-187500.02235174447,8583.516905727018,-187500.02235174447,-187500.02235174447,-187500.02235174447,-187500.02235174447,-187500.02235174447,1731452001.4426017,1731452001.2928247,5000
-6559.253520876589,-187500.02235174447,8582.801649904448,-187500.02235174447,-187500.02235174447,-187500.02235174447,-187500.02235174447,-187500.02235174447,1731452001.4467342,1731452001.2928247,5000
-6501.474261459621,-187500.02235174447,8601.84533618037,-187500.02235174447,-187500.02235174447,-187500.02235174447,-187500.02235174447,-187500.02235174447,1731452001.450784,1731452001.2928247,5000
-6485.492764174076,-187500.02235174447,8607.679141483206,-187500.02235174447,-187500.02235174447,-187500.02235174447,-187500.02235174447,-187500.02235174447,1731452001.45572,1731452001.2928247,5000
-6535.895947920793,-187500.02235174447,8585.193286561167,-187500.02235174447,-187500.02235174447,-187500.02235174447,-187500.02235174447,-187500.02235174447,1731452001.458816,1731452001.2928247,5000
-6556.638366775319,-187500.02235174447,8580.722937670105,-187500.02235174447,-187500.02235174447,-187500.02235174447,-187500.02235174447,-187500.02235174447,1731452001.4628386,1731452001.2928247,5000
-6509.364427252344,-187500.02235174447,8601.08537686889,-187500.02235174447,-187500.02235174447,-187500.02235174447,-187500.02235174447,-187500.02235174447,1731452001.4668384,1731452001.2928247,5000
-6479.636607126786,-187500.02235174447,8609.824908950915,-187500.02235174447,-187500.02235174447,-187500.02235174447,-187500.02235174447,-187500.02235174447,1731452001.4708233,1731452001.2928247,5000
-6521.143796580291,-187500.02235174447,8593.306969798443,-187500.02235174447,-187500.02235174447,-187500.02235174447,-187500.02235174447,-187500.02235174447,1731452001.476848,1731452001.2928247,5000
-6558.381802842832,-187500.02235174447,8579.962978358624,-187500.02235174447,-187500.02235174447,-187500.02235174447,-187500.02235174447,-187500.02235174447,1731452001.47976,1731452001.2928247,5000
-6520.763816924551,-187500.02235174447,8597.173821589211,-187500.02235174447,-187500.02235174447,-187500.02235174447,-187500.02235174447,-187500.02235174447,1731452001.4837406,1731452001.2928247,5000
-6474.786278579984,-187500.02235174447,8613.334132830398,-187500.02235174447,-187500.02235174447,-187500.02235174447,-187500.02235174447,-187500.02235174447,1731452001.486844,1731452001.2928247,5000
-6508.850337129872,-187500.02235174447,8596.726786700105,-187500.02235174447,-187500.02235174447,-187500.02235174447,-187500.02235174447,-187500.02235174447,1731452001.489898,1731452001.2928247,5000
-6559.141762154313,-187500.02235174447,8582.354615015342,-187500.02235174447,-187500.02235174447,-187500.02235174447,-187500.02235174447,-187500.02235174447,1731452001.4949267,1731452001.2928247,5000
-6538.712267722162,-187500.02235174447,8597.598504733862,-187500.02235174447,-187500.02235174447,-187500.02235174447,-187500.02235174447,-187500.02235174447,1731452001.498865,1731452001.2928247,5000
-6477.915522803727,-187500.02235174447,8612.529470030007,-187500.02235174447,-187500.02235174447,-187500.02235174447,-187500.02235174447,-187500.02235174447,1731452001.5028925,1731452001.2928247,5000
-6486.409185696743,-187500.02235174447,8604.505193770552,-187500.02235174447,-187500.02235174447,-187500.02235174447,-187500.02235174447,-187500.02235174447,1731452001.506931,1731452001.2928247,5000
-6544.411962558265,-187500.02235174447,8591.98821687558,-187500.02235174447,-187500.02235174447,-187500.02235174447,-187500.02235174447,-187500.02235174447,1731452001.511938,1731452001.2928247,5000
-6536.253575832078,-187500.02235174447,8601.711225713638,-187500.02235174447,-187500.02235174447,-187500.02235174447,-187500.02235174447,-187500.02235174447,1731452001.5148487,1731452001.2928247,5000
-6479.033110026492,-187500.02235174447,8620.598449778372,-187500.02235174447,-187500.02235174447,-187500.02235174447,-187500.02235174447,-187500.02235174447,1731452001.5178225,1731452001.2928247,5000
-6482.542333905975,-187500.02235174447,8611.166013618233,-187500.02235174447,-187500.02235174447,-187500.02235174447,-187500.02235174447,-187500.02235174447,1731452001.5226896,1731452001.2928247,5000
-6540.8133317009615,-187500.02235174447,8589.84244940787,-187500.02235174447,-187500.02235174447,-187500.02235174447,-187500.02235174447,-187500.02235174447,1731452001.526809,1731452001.2928247,5000
-6547.697668993195,-187500.02235174447,8593.977522132102,-187500.02235174447,-187500.02235174447,-187500.02235174447,-187500.02235174447,-187500.02235174447,1731452001.53064,1731452001.2928247,5000
-6490.812479354439,-187500.02235174447,8615.815176464937,-187500.02235174447,-187500.02235174447,-187500.02235174447,-187500.02235174447,-187500.02235174447,1731452001.534698,1731452001.2928247,5000
-6480.754194349551,-187500.02235174447,8614.675237497717,-187500.02235174447,-187500.02235174447,-187500.02235174447,-187500.02235174447,-187500.02235174447,1731452001.5396965,1731452001.2928247,5000
-6533.05727637497,-187500.02235174447,8592.41290002023,-187500.02235174447,-187500.02235174447,-187500.02235174447,-187500.02235174447,-187500.02235174447,1731452001.5427904,1731452001.2928247,5000
-6546.647137003796,-187500.02235174447,8591.407071519741,-187500.02235174447,-187500.02235174447,-187500.02235174447,-187500.02235174447,-187500.02235174447,1731452001.5457923,1731452001.2928247,5000
-6497.070967801925,-187500.02235174447,8606.650961238262,-187500.02235174447,-187500.02235174447,-187500.02235174447,-187500.02235174447,-187500.02235174447,1731452001.550792,1731452001.2928247,5000
-6466.627891853797,-187500.02235174447,8603.879344925803,-187500.02235174447,-187500.02235174447,-187500.02235174447,-187500.02235174447,-187500.02235174447,1731452001.554752,1731452001.2928247,5000
-6520.160319824257,-187500.02235174447,8583.60631270484,-187500.02235174447,-187500.02235174447,-187500.02235174447,-187500.02235174447,-187500.02235174447,1731452001.5588124,1731452001.2928247,5000
-6558.515913309564,-187500.02235174447,8586.109708083834,-187500.02235174447,-187500.02235174447,-187500.02235174447,-187500.02235174447,-187500.02235174447,1731452001.5632057,1731452001.2928247,5000
-6519.579174468419,-187500.02235174447,8610.651923495761,-187500.02235174447,-187500.02235174447,-187500.02235174447,-187500.02235174447,-187500.02235174447,1731452001.5667205,1731452001.2928247,5000
-6483.145831006269,-187500.02235174447,8618.989124177591,-187500.02235174447,-187500.02235174447,-187500.02235174447,-187500.02235174447,-187500.02235174447,1731452001.5697167,1731452001.2928247,5000
-6516.896965133783,-187500.02235174447,8596.771490189016,-187500.02235174447,-187500.02235174447,-187500.02235174447,-187500.02235174447,-187500.02235174447,1731452001.5737188,1731452001.2928247,5000
-6554.291433607511,-187500.02235174447,8582.89105688227,-187500.02235174447,-187500.02235174447,-187500.02235174447,-187500.02235174447,-187500.02235174447,1731452001.5787735,1731452001.2928247,5000
-6521.657886702763,-187500.02235174447,8599.006664634546,-187500.02235174447,-187500.02235174447,-187500.02235174447,-187500.02235174447,-187500.02235174447,1731452001.5827851,1731452001.2928247,5000
-6474.830982068895,-187500.02235174447,8611.993028163079,-187500.02235174447,-187500.02235174447,-187500.02235174447,-187500.02235174447,-187500.02235174447,1731452001.5868356,1731452001.2928247,5000
-6501.04957831497,-187500.02235174447,8589.864801152326,-187500.02235174447,-187500.02235174447,-187500.02235174447,-187500.02235174447,-187500.02235174447,1731452001.5907676,1731452001.2928247,5000
-6561.421640088754,-187500.02235174447,8564.048536306445,-187500.02235174447,-187500.02235174447,-187500.02235174447,-187500.02235174447,-187500.02235174447,1731452001.593722,1731452001.2928247,5000
-6533.0125728860585,-187500.02235174447,8585.573266216907,-187500.02235174447,-187500.02235174447,-187500.02235174447,-187500.02235174447,-187500.02235174447,1731452001.5978026,1731452001.2928247,5000
-6476.395604180766,-187500.02235174447,8627.639249281794,-187500.02235174447,-187500.02235174447,-187500.02235174447,-187500.02235174447,-187500.02235174447,1731452001.601864,1731452001.2928247,5000
-6492.824136355417,-187500.02235174447,8616.128100887312,-187500.02235174447,-187500.02235174447,-187500.02235174447,-187500.02235174447,-187500.02235174447,1731452001.6058352,1731452001.2928247,5000
-6536.231224087624,-187500.02235174447,8587.853144151348,-187500.02235174447,-187500.02235174447,-187500.02235174447,-187500.02235174447,-187500.02235174447,1731452001.6108932,1731452001.2928247,5000
-6475.926217547205,-187500.02235174447,8577.83956263537,-187500.02235174447,-187500.02235174447,-187500.02235174447,-187500.02235174447,-187500.02235174447,1731452001.614865,1731452001.2928247,5000
-6412.402559805222,-187500.02235174447,8572.877475366293,-187500.02235174447,-187500.02235174447,-187500.02235174447,-187500.02235174447,-187500.02235174447,1731452001.618846,1731452001.2928247,5000
-6507.799805140473,-187500.02235174447,8599.788975690482,-187500.02235174447,-187500.02235174447,-187500.02235174447,-187500.02235174447,-187500.02235174447,1731452001.6218407,1731452001.2928247,5000
-6592.132936970346,-187500.02235174447,8629.695609771683,-187500.02235174447,-187500.02235174447,-187500.02235174447,-187500.02235174447,-187500.02235174447,1731452001.6258433,1731452001.2928247,5000
-6571.189352415723,-187500.02235174447,8619.57026953343,-187500.02235174447,-187500.02235174447,-187500.02235174447,-187500.02235174447,-187500.02235174447,1731452001.629872,1731452001.2928247,5000
-6487.750290364063,-187500.02235174447,8631.550804561473,-187500.02235174447,-187500.02235174447,-187500.02235174447,-187500.02235174447,-187500.02235174447,1731452001.63387,1731452001.2928247,5000
-6458.424801638699,-187500.02235174447,8625.873461469826,-187500.02235174447,-187500.02235174447,-187500.02235174447,-187500.02235174447,-187500.02235174447,1731452001.6388729,1731452001.2928247,5000
-6476.060328013937,-187500.02235174447,8595.229219821598,-187500.02235174447,-187500.02235174447,-187500.02235174447,-187500.02235174447,-187500.02235174447,1731452001.642932,1731452001.2928247,5000
-6493.76290962254,-187500.02235174447,8572.497495710551,-187500.02235174447,-187500.02235174447,-187500.02235174447,-187500.02235174447,-187500.02235174447,1731452001.6469276,1731452001.2928247,5000
-6446.444266610654,-187500.02235174447,8603.208792592144,-187500.02235174447,-187500.02235174447,-187500.02235174447,-187500.02235174447,-187500.02235174447,1731452001.6498256,1731452001.2928247,5000
-6485.3810054518,-187500.02235174447,8596.346807044365,-187500.02235174447,-187500.02235174447,-187500.02235174447,-187500.02235174447,-187500.02235174447,1731452001.6539843,1731452001.2928247,5000
-6502.815366126939,-187500.02235174447,8607.857955438847,-187500.02235174447,-187500.02235174447,-187500.02235174447,-187500.02235174447,-187500.02235174447,1731452001.6578643,1731452001.2928247,5000
-6567.546018069508,-187500.02235174447,8573.257455022032,-187500.02235174447,-187500.02235174447,-187500.02235174447,-187500.02235174447,-187500.02235174447,1731452001.6618505,1731452001.2928247,5000
-6612.808300591505,-187500.02235174447,8624.75587424706,-187500.02235174447,-187500.02235174447,-187500.02235174447,-187500.02235174447,-187500.02235174447,1731452001.666901,1731452001.2928247,5000
-6489.851354342861,-187500.02235174447,8681.261084230076,-187500.02235174447,-187500.02235174447,-187500.02235174447,-187500.02235174447,-187500.02235174447,1731452001.670892,1731452001.2928247,5000
-6467.052574998448,-187500.02235174447,8649.85688327037,-187500.02235174447,-187500.02235174447,-187500.02235174447,-187500.02235174447,-187500.02235174447,1731452001.6740148,1731452001.2928247,5000
-6474.071022757415,-187500.02235174447,8571.625777676794,-187500.02235174447,-187500.02235174447,-187500.02235174447,-187500.02235174447,-187500.02235174447,1731452001.677902,1731452001.2928247,5000
-6532.543186252497,-187500.02235174447,8552.582091400873,-187500.02235174447,-187500.02235174447,-187500.02235174447,-187500.02235174447,-187500.02235174447,1731452001.6818843,1731452001.2928247,5000
-6548.859959704872,-187500.02235174447,8629.203871393665,-187500.02235174447,-187500.02235174447,-187500.02235174447,-187500.02235174447,-187500.02235174447,1731452001.6859715,1731452001.2928247,5000
-6551.273948106044,-187500.02235174447,8632.109598172856,-187500.02235174447,-187500.02235174447,-187500.02235174447,-187500.02235174447,-187500.02235174447,1731452001.6900337,1731452001.2928247,5000
-6557.15245689779,-187500.02235174447,8606.338036815887,-187500.02235174447,-187500.02235174447,-187500.02235174447,-187500.02235174447,-187500.02235174447,1731452001.6939642,1731452001.2928247,5000
-6456.904883015738,-187500.02235174447,8630.969659205635,-187500.02235174447,-187500.02235174447,-187500.02235174447,-187500.02235174447,-187500.02235174447,1731452001.6989949,1731452001.2928247,5000
-6379.16551580018,-187500.02235174447,8589.820097663414,-187500.02235174447,-187500.02235174447,-187500.02235174447,-187500.02235174447,-187500.02235174447,1731452001.703098,1731452001.2928247,5000
-6441.281013641479,-187500.02235174447,8535.862986548304,-187500.02235174447,-187500.02235174447,-187500.02235174447,-187500.02235174447,-187500.02235174447,1731452001.7060933,1731452001.2928247,5000
-6526.642325716296,-187500.02235174447,8589.954208130146,-187500.02235174447,-187500.02235174447,-187500.02235174447,-187500.02235174447,-187500.02235174447,1731452001.7100444,1731452001.2928247,5000
-6561.533398811031,-187500.02235174447,8665.391345666809,-187500.02235174447,-187500.02235174447,-187500.02235174447,-187500.02235174447,-187500.02235174447,1731452001.7139597,1731452001.2928247,5000
-6481.201229238657,-187500.02235174447,8659.781057808526,-187500.02235174447,-187500.02235174447,-187500.02235174447,-187500.02235174447,-187500.02235174447,1731452001.7180817,1731452001.2928247,5000
-6509.118558063336,-187500.02235174447,8634.188310407199,-187500.02235174447,-187500.02235174447,-187500.02235174447,-187500.02235174447,-187500.02235174447,1731452001.7219844,1731452001.2928247,5000
-6579.615960075375,-187500.02235174447,8636.669354041738,-187500.02235174447,-187500.02235174447,-187500.02235174447,-187500.02235174447,-187500.02235174447,1731452001.7271838,1731452001.2928247,5000
-6492.66767414423,-187500.02235174447,8607.388568805287,-187500.02235174447,-187500.02235174447,-187500.02235174447,-187500.02235174447,-187500.02235174447,1731452001.7302425,1731452001.2928247,5000
-6373.845800619817,-187500.02235174447,8547.999983787535,-187500.02235174447,-187500.02235174447,-187500.02235174447,-187500.02235174447,-187500.02235174447,1731452001.733217,1731452001.2928247,5000
-6500.826060870417,-187500.02235174447,8532.979611513569,-187500.02235174447,-187500.02235174447,-187500.02235174447,-187500.02235174447,-187500.02235174447,1731452001.738129,1731452001.2928247,5000
-6577.224323418656,-187500.02235174447,8612.529470030007,-187500.02235174447,-187500.02235174447,-187500.02235174447,-187500.02235174447,-187500.02235174447,1731452001.742134,1731452001.2928247,5000
-6568.216570403168,-187500.02235174447,8676.231941727632,-187500.02235174447,-187500.02235174447,-187500.02235174447,-187500.02235174447,-187500.02235174447,1731452001.7460942,1731452001.2928247,5000
-6518.52864247902,-187500.02235174447,8681.283435974532,-187500.02235174447,-187500.02235174447,-187500.02235174447,-187500.02235174447,-187500.02235174447,1731452001.7501323,1731452001.2928247,5000
-6460.972900506605,-187500.02235174447,8657.255310685076,-187500.02235174447,-187500.02235174447,-187500.02235174447,-187500.02235174447,-187500.02235174447,1731452001.7550633,1731452001.2928247,5000
-6454.982632992582,-187500.02235174447,8602.828812936403,-187500.02235174447,-187500.02235174447,-187500.02235174447,-187500.02235174447,-187500.02235174447,1731452001.7581444,1731452001.2928247,5000
-6432.98851644856,-187500.02235174447,8575.716146912117,-187500.02235174447,-187500.02235174447,-187500.02235174447,-187500.02235174447,-187500.02235174447,1731452001.7621293,1731452001.2928247,5000
-6497.719168391129,-187500.02235174447,8600.973618146612,-187500.02235174447,-187500.02235174447,-187500.02235174447,-187500.02235174447,-187500.02235174447,1731452001.7661035,1731452001.2928247,5000
-6446.556025332931,-187500.02235174447,8677.662453372772,-187500.02235174447,-187500.02235174447,-187500.02235174447,-187500.02235174447,-187500.02235174447,1731452001.7701373,1731452001.2928247,5000
-6498.367368980333,-187500.02235174447,8598.313760556432,-187500.02235174447,-187500.02235174447,-187500.02235174447,-187500.02235174447,-187500.02235174447,1731452001.7741382,1731452001.2928247,5000
-6683.193943881267,-187500.02235174447,8575.514981212018,-187500.02235174447,-187500.02235174447,-187500.02235174447,-187500.02235174447,-187500.02235174447,1731452001.778154,1731452001.2928247,5000
-6580.375919386855,-187500.02235174447,8629.1368161603,-187500.02235174447,-187500.02235174447,-187500.02235174447,-187500.02235174447,-187500.02235174447,1731452001.782172,1731452001.2928247,5000
-6466.896112787261,-187500.02235174447,8615.770472976026,-187500.02235174447,-187500.02235174447,-187500.02235174447,-187500.02235174447,-187500.02235174447,1731452001.785148,1731452001.2928247,5000
-6335.847835045795,-187500.02235174447,8555.398411202243,-187500.02235174447,-187500.02235174447,-187500.02235174447,-187500.02235174447,-187500.02235174447,1731452001.790117,1731452001.2928247,5000
-6466.046746497959,-187500.02235174447,8531.906727779715,-187500.02235174447,-187500.02235174447,-187500.02235174447,-187500.02235174447,-187500.02235174447,1731452001.7940805,1731452001.2928247,5000
-6638.021068337092,-187500.02235174447,8670.71106084717,-187500.02235174447,-187500.02235174447,-187500.02235174447,-187500.02235174447,-187500.02235174447,1731452001.798079,1731452001.2928247,5000
-6596.715044583684,-187500.02235174447,8704.126918807855,-187500.02235174447,-187500.02235174447,-187500.02235174447,-187500.02235174447,-187500.02235174447,1731452001.802112,1731452001.2928247,5000
-6505.229354528112,-187500.02235174447,8634.389476107297,-187500.02235174447,-187500.02235174447,-187500.02235174447,-187500.02235174447,-187500.02235174447,1731452001.8061764,1731452001.2928247,5000
-6421.007981420516,-187500.02235174447,8514.360608382298,-187500.02235174447,-187500.02235174447,-187500.02235174447,-187500.02235174447,-187500.02235174447,1731452001.8101685,1731452001.2928247,5000
-6444.589071820864,-187500.02235174447,8454.301471030889,-187500.02235174447,-187500.02235174447,-187500.02235174447,-187500.02235174447,-187500.02235174447,1731452001.8131263,1731452001.2928247,5000
-6481.804726338951,-187500.02235174447,8589.50717324104,-187500.02235174447,-187500.02235174447,-187500.02235174447,-187500.02235174447,-187500.02235174447,1731452001.8173752,1731452001.2928247,5000
-6579.101869952902,-187500.02235174447,8742.281346593065,-187500.02235174447,-187500.02235174447,-187500.02235174447,-187500.02235174447,-187500.02235174447,1731452001.8220928,1731452001.2928247,5000
-6601.7441870861285,-187500.02235174447,8718.119110836877,-187500.02235174447,-187500.02235174447,-187500.02235174447,-187500.02235174447,-187500.02235174447,1731452001.826174,1731452001.2928247,5000
-6605.745149343628,-187500.02235174447,8674.510857404573,-187500.02235174447,-187500.02235174447,-187500.02235174447,-187500.02235174447,-187500.02235174447,1731452001.8301573,1731452001.2928247,5000
-6532.766703697051,-187500.02235174447,8680.121145262856,-187500.02235174447,-187500.02235174447,-187500.02235174447,-187500.02235174447,-187500.02235174447,1731452001.8341634,1731452001.2928247,5000
-6494.612275911842,-187500.02235174447,8651.354450148876,-187500.02235174447,-187500.02235174447,-187500.02235174447,-187500.02235174447,-187500.02235174447,1731452001.838198,1731452001.2928247,5000
-6548.882311449327,-187500.02235174447,8613.602353763861,-187500.02235174447,-187500.02235174447,-187500.02235174447,-187500.02235174447,-187500.02235174447,1731452001.8411674,1731452001.2928247,5000
-6587.036739234536,-187500.02235174447,8632.936612717702,-187500.02235174447,-187500.02235174447,-187500.02235174447,-187500.02235174447,-187500.02235174447,1731452001.8451643,1731452001.2928247,5000
-6509.923220863727,-187500.02235174447,8671.67218585875,-187500.02235174447,-187500.02235174447,-187500.02235174447,-187500.02235174447,-187500.02235174447,1731452001.8501585,1731452001.2928247,5000
-6453.172141691702,-187500.02235174447,8658.752877563582,-187500.02235174447,-187500.02235174447,-187500.02235174447,-187500.02235174447,-187500.02235174447,1731452001.8541932,1731452001.2928247,5000
-6486.073909529914,-187500.02235174447,8614.988161920091,-187500.02235174447,-187500.02235174447,-187500.02235174447,-187500.02235174447,-187500.02235174447,1731452001.8582332,1731452001.2928247,5000
-6454.535598103475,-187500.02235174447,8536.891166793248,-187500.02235174447,-187500.02235174447,-187500.02235174447,-187500.02235174447,-187500.02235174447,1731452001.8622663,1731452001.2928247,5000
-6490.030168298504,-187500.02235174447,8561.679251394184,-187500.02235174447,-187500.02235174447,-187500.02235174447,-187500.02235174447,-187500.02235174447,1731452001.8652284,1731452001.2928247,5000
-6526.955250138671,-187500.02235174447,8733.810035444503,-187500.02235174447,-187500.02235174447,-187500.02235174447,-187500.02235174447,-187500.02235174447,1731452001.8692155,1731452001.2928247,5000
-6440.096371185347,-187500.02235174447,8664.251406699588,-187500.02235174447,-187500.02235174447,-187500.02235174447,-187500.02235174447,-187500.02235174447,1731452001.875287,1731452001.2928247,5000
-6503.485918460598,-187500.02235174447,8546.25654772002,-187500.02235174447,-187500.02235174447,-187500.02235174447,-187500.02235174447,-187500.02235174447,1731452001.878168,1731452001.2928247,5000
-6541.193311356701,-187500.02235174447,8592.658769209238,-187500.02235174447,-187500.02235174447,-187500.02235174447,-187500.02235174447,-187500.02235174447,1731452001.8822303,1731452001.2928247,5000
-6581.9628932431815,-187500.02235174447,8700.774157139558,-187500.02235174447,-187500.02235174447,-187500.02235174447,-187500.02235174447,-187500.02235174447,1731452001.8863006,1731452001.2928247,5000
-6537.684087477218,-187500.02235174447,8720.510747493596,-187500.02235174447,-187500.02235174447,-187500.02235174447,-187500.02235174447,-187500.02235174447,1731452001.8902705,1731452001.2928247,5000
-6565.802582001995,-187500.02235174447,8668.788810824015,-187500.02235174447,-187500.02235174447,-187500.02235174447,-187500.02235174447,-187500.02235174447,1731452001.8932765,1731452001.2928247,5000
-6538.332288066422,-187500.02235174447,8662.060935742968,-187500.02235174447,-187500.02235174447,-187500.02235174447,-187500.02235174447,-187500.02235174447,1731452001.8974023,1731452001.2928247,5000
-6442.018621208504,-187500.02235174447,8707.457328731696,-187500.02235174447,-187500.02235174447,-187500.02235174447,-187500.02235174447,-187500.02235174447,1731452001.901293,1731452001.2928247,5000
-6491.572438665919,-187500.02235174447,8703.72458740766,-187500.02235174447,-187500.02235174447,-187500.02235174447,-187500.02235174447,-187500.02235174447,1731452001.9053133,1731452001.2928247,5000
-6561.443991833209,-187500.02235174447,8662.463267143163,-187500.02235174447,-187500.02235174447,-187500.02235174447,-187500.02235174447,-187500.02235174447,1731452001.9103384,1731452001.2928247,5000
-6540.746276467595,-187500.02235174447,8666.732450334126,-187500.02235174447,-187500.02235174447,-187500.02235174447,-187500.02235174447,-187500.02235174447,1731452001.9142897,1731452001.2928247,5000
-6504.514098705542,-187500.02235174447,8644.738333790105,-187500.02235174447,-187500.02235174447,-187500.02235174447,-187500.02235174447,-187500.02235174447,1731452001.9183052,1731452001.2928247,5000
-6435.670725783197,-187500.02235174447,8574.039766077967,-187500.02235174447,-187500.02235174447,-187500.02235174447,-187500.02235174447,-187500.02235174447,1731452001.921296,1731452001.2928247,5000
-6536.812369443461,-187500.02235174447,8571.581074187885,-187500.02235174447,-187500.02235174447,-187500.02235174447,-187500.02235174447,-187500.02235174447,1731452001.9252837,1731452001.2928247,5000
-6676.220199611212,-187500.02235174447,8694.873296603359,-187500.02235174447,-187500.02235174447,-187500.02235174447,-187500.02235174447,-187500.02235174447,1731452001.929376,1731452001.2928247,5000
-6560.035831932525,-187500.02235174447,8741.811959959503,-187500.02235174447,-187500.02235174447,-187500.02235174447,-187500.02235174447,-187500.02235174447,1731452001.9333646,1731452001.2928247,5000
-6495.126366034314,-187500.02235174447,8698.024892571557,-187500.02235174447,-187500.02235174447,-187500.02235174447,-187500.02235174447,-187500.02235174447,1731452001.9383276,1731452001.2928247,5000
-6506.682217917707,-187500.02235174447,8617.424502065718,-187500.02235174447,-187500.02235174447,-187500.02235174447,-187500.02235174447,-187500.02235174447,1731452001.942422,1731452001.2928247,5000
-6353.192788743114,-187500.02235174447,8758.39695434534,-187500.02235174447,-187500.02235174447,-187500.02235174447,-187500.02235174447,-187500.02235174447,1731452001.9453037,1731452001.2928247,5000
-6351.069373019859,-187500.02235174447,8826.0333330671,-187500.02235174447,-187500.02235174447,-187500.02235174447,-187500.02235174447,-187500.02235174447,1731452001.949355,1731452001.2928247,5000
-6454.84852252585,-187500.02235174447,8717.672075947772,-187500.02235174447,-187500.02235174447,-187500.02235174447,-187500.02235174447,-187500.02235174447,1731452001.953621,1731452001.2928247,5000
-6493.539392177987,-187500.02235174447,8684.166811009265,-187500.02235174447,-187500.02235174447,-187500.02235174447,-187500.02235174447,-187500.02235174447,1731452001.9573784,1731452001.2928247,5000
-6566.271968635556,-187500.02235174447,8660.47396188664,-187500.02235174447,-187500.02235174447,-187500.02235174447,-187500.02235174447,-187500.02235174447,1731452001.96134,1731452001.2928247,5000
-6613.456501180709,-187500.02235174447,8663.893778788302,-187500.02235174447,-187500.02235174447,-187500.02235174447,-187500.02235174447,-187500.02235174447,1731452001.96636,1731452001.2928247,5000
-6533.660773475262,-187500.02235174447,8708.329046765453,-187500.02235174447,-187500.02235174447,-187500.02235174447,-187500.02235174447,-187500.02235174447,1731452001.9704423,1731452001.2928247,5000
-6468.840714554873,-187500.02235174447,8694.694482647716,-187500.02235174447,-187500.02235174447,-187500.02235174447,-187500.02235174447,-187500.02235174447,1731452001.9733937,1731452001.2928247,5000
-6512.225450542624,-187500.02235174447,8699.81303212798,-187500.02235174447,-187500.02235174447,-187500.02235174447,-187500.02235174447,-187500.02235174447,1731452001.9774425,1731452001.2928247,5000
-6364.614530159775,-187500.02235174447,8903.549182838105,-187500.02235174447,-187500.02235174447,-187500.02235174447,-187500.02235174447,-187500.02235174447,1731452001.981552,1731452001.2928247,5000
-6349.169474741158,-187500.02235174447,8855.448228770283,-187500.02235174447,-187500.02235174447,-187500.02235174447,-187500.02235174447,-187500.02235174447,1731452001.9856336,1731452001.2928247,5000
-6490.633665398796,-187500.02235174447,8661.703307831682,-187500.02235174447,-187500.02235174447,-187500.02235174447,-187500.02235174447,-187500.02235174447,1731452001.989576,1731452001.2928247,5000
-6510.079683074914,-187500.02235174447,8605.712187971138,-187500.02235174447,-187500.02235174447,-187500.02235174447,-187500.02235174447,-187500.02235174447,1731452001.9936528,1731452001.2928247,5000
-6514.52768022152,-187500.02235174447,8650.438028626208,-187500.02235174447,-187500.02235174447,-187500.02235174447,-187500.02235174447,-187500.02235174447,1731452001.998653,1731452001.2928247,5000
-6527.1340640943135,-187500.02235174447,8682.66924413076,-187500.02235174447,-187500.02235174447,-187500.02235174447,-187500.02235174447,-187500.02235174447,1731452002.0016477,1731452001.2928247,5000
-6523.155453581268,-187500.02235174447,8679.204723740188,-187500.02235174447,-187500.02235174447,-187500.02235174447,-187500.02235174447,-187500.02235174447,1731452002.0055735,1731452001.2928247,5000
-6565.154381412791,-187500.02235174447,8643.643098311793,-187500.02235174447,-187500.02235174447,-187500.02235174447,-187500.02235174447,-187500.02235174447,1731452002.0095625,1731452001.2928247,5000
-6517.3887035118,-187500.02235174447,8640.782075021514,-187500.02235174447,-187500.02235174447,-187500.02235174447,-187500.02235174447,-187500.02235174447,1731452002.0136876,1731452001.2928247,5000
-6406.389940546745,-187500.02235174447,8694.33685473643,-187500.02235174447,-187500.02235174447,-187500.02235174447,-187500.02235174447,-187500.02235174447,1731452002.0176225,1731452001.2928247,5000
-6443.113856686814,-187500.02235174447,8726.501015007618,-187500.02235174447,-187500.02235174447,-187500.02235174447,-187500.02235174447,-187500.02235174447,1731452002.022624,1731452001.2928247,5000
-6572.619864060863,-187500.02235174447,8654.483694372619,-187500.02235174447,-187500.02235174447,-187500.02235174447,-187500.02235174447,-187500.02235174447,1731452002.0255368,1731452001.2928247,5000
-6569.937654726226,-187500.02235174447,8665.637214855817,-187500.02235174447,-187500.02235174447,-187500.02235174447,-187500.02235174447,-187500.02235174447,1731452002.0287013,1731452001.2928247,5000
-6480.418918182721,-187500.02235174447,8677.483639417129,-187500.02235174447,-187500.02235174447,-187500.02235174447,-187500.02235174447,-187500.02235174447,1731452002.0336154,1731452001.2928247,5000
-6361.798210358407,-187500.02235174447,8614.317609586431,-187500.02235174447,-187500.02235174447,-187500.02235174447,-187500.02235174447,-187500.02235174447,1731452002.0375333,1731452001.2928247,5000
-6543.741410224607,-187500.02235174447,8623.32536260192,-187500.02235174447,-187500.02235174447,-187500.02235174447,-187500.02235174447,-187500.02235174447,1731452002.0417173,1731452001.2928247,5000
-6659.054059869535,-187500.02235174447,8704.663360674782,-187500.02235174447,-187500.02235174447,-187500.02235174447,-187500.02235174447,-187500.02235174447,1731452002.0455403,1731452001.2928247,5000
-6558.650023776296,-187500.02235174447,8732.1113028659,-187500.02235174447,-187500.02235174447,-187500.02235174447,-187500.02235174447,-187500.02235174447,1731452002.0507317,1731452001.2928247,5000
-6498.210906769145,-187500.02235174447,8708.820785143469,-187500.02235174447,-187500.02235174447,-187500.02235174447,-187500.02235174447,-187500.02235174447,1731452002.0537963,1731452001.2928247,5000
-6493.785261366995,-187500.02235174447,8627.236917881599,-187500.02235174447,-187500.02235174447,-187500.02235174447,-187500.02235174447,-187500.02235174447,1731452002.056744,1731452001.2928247,5000
-6491.706549132651,-187500.02235174447,8646.772342535538,-187500.02235174447,-187500.02235174447,-187500.02235174447,-187500.02235174447,-187500.02235174447,1731452002.0615053,1731452001.2928247,5000
-6562.2486546336,-187500.02235174447,8696.14734603731,-187500.02235174447,-187500.02235174447,-187500.02235174447,-187500.02235174447,-187500.02235174447,1731452002.0654995,1731452001.2928247,5000
-6567.233093647134,-187500.02235174447,8655.690688573204,-187500.02235174447,-187500.02235174447,-187500.02235174447,-187500.02235174447,-187500.02235174447,1731452002.069597,1731452001.2928247,5000
-6557.040698175514,-187500.02235174447,8618.22916486611,-187500.02235174447,-187500.02235174447,-187500.02235174447,-187500.02235174447,-187500.02235174447,1731452002.07358,1731452001.2928247,5000
-6528.743389695095,-187500.02235174447,8650.37097339284,-187500.02235174447,-187500.02235174447,-187500.02235174447,-187500.02235174447,-187500.02235174447,1731452002.0775208,1731452001.2928247,5000
-6450.624042823797,-187500.02235174447,8690.805279112492,-187500.02235174447,-187500.02235174447,-187500.02235174447,-187500.02235174447,-187500.02235174447,1731452002.0815408,1731452001.2928247,5000
-6369.576617428854,-187500.02235174447,8700.43888097273,-187500.02235174447,-187500.02235174447,-187500.02235174447,-187500.02235174447,-187500.02235174447,1731452002.084543,1731452001.2928247,5000
-6562.673337778251,-187500.02235174447,8665.838380555913,-187500.02235174447,-187500.02235174447,-187500.02235174447,-187500.02235174447,-187500.02235174447,1731452002.0885737,1731452001.2928247,5000
-6542.333250323922,-187500.02235174447,8550.101047766335,-187500.02235174447,-187500.02235174447,-187500.02235174447,-187500.02235174447,-187500.02235174447,1731452002.093558,1731452001.2928247,5000
-6570.451744848699,-187500.02235174447,8586.377929017297,-187500.02235174447,-187500.02235174447,-187500.02235174447,-187500.02235174447,-187500.02235174447,1731452002.0975547,1731452001.2928247,5000
-6483.928142062205,-187500.02235174447,8780.391070889364,-187500.02235174447,-187500.02235174447,-187500.02235174447,-187500.02235174447,-187500.02235174447,1731452002.101627,1731452001.2928247,5000
-6482.385871694788,-187500.02235174447,8731.39604704333,-187500.02235174447,-187500.02235174447,-187500.02235174447,-187500.02235174447,-187500.02235174447,1731452002.1055727,1731452001.2928247,5000
-6522.216680314145,-187500.02235174447,8669.10173524639,-187500.02235174447,-187500.02235174447,-187500.02235174447,-187500.02235174447,-187500.02235174447,1731452002.1096523,1731452001.2928247,5000
-6528.519872250542,-187500.02235174447,8643.397229122786,-187500.02235174447,-187500.02235174447,-187500.02235174447,-187500.02235174447,-187500.02235174447,1731452002.114584,1731452001.2928247,5000
-6474.428650668699,-187500.02235174447,8605.421615293219,-187500.02235174447,-187500.02235174447,-187500.02235174447,-187500.02235174447,-187500.02235174447,1731452002.1176686,1731452001.2928247,5000
-6516.405226755765,-187500.02235174447,8602.694702469671,-187500.02235174447,-187500.02235174447,-187500.02235174447,-187500.02235174447,-187500.02235174447,1731452002.121606,1731452001.2928247,5000
-6491.550086921464,-187500.02235174447,8692.079328546444,-187500.02235174447,-187500.02235174447,-187500.02235174447,-187500.02235174447,-187500.02235174447,1731452002.1256013,1731452001.2928247,5000
-6576.39730887381,-187500.02235174447,8681.305787718986,-187500.02235174447,-187500.02235174447,-187500.02235174447,-187500.02235174447,-187500.02235174447,1731452002.129589,1731452001.2928247,5000
-6510.012627841548,-187500.02235174447,8673.773249837548,-187500.02235174447,-187500.02235174447,-187500.02235174447,-187500.02235174447,-187500.02235174447,1731452002.132608,1731452001.2928247,5000
-6446.153693932735,-187500.02235174447,8678.802392339992,-187500.02235174447,-187500.02235174447,-187500.02235174447,-187500.02235174447,-187500.02235174447,1731452002.1365936,1731452001.2928247,5000
-6512.1136918203465,-187500.02235174447,8636.557595319462,-187500.02235174447,-187500.02235174447,-187500.02235174447,-187500.02235174447,-187500.02235174447,1731452002.1407237,1731452001.2928247,5000
-6536.633555487819,-187500.02235174447,8550.279861721976,-187500.02235174447,-187500.02235174447,-187500.02235174447,-187500.02235174447,-187500.02235174447,1731452002.1446197,1731452001.2928247,5000
-6401.740777700041,-187500.02235174447,8571.849295121348,-187500.02235174447,-187500.02235174447,-187500.02235174447,-187500.02235174447,-187500.02235174447,1731452002.1497648,1731452001.2928247,5000
-6460.257644684034,-187500.02235174447,8676.254293472088,-187500.02235174447,-187500.02235174447,-187500.02235174447,-187500.02235174447,-187500.02235174447,1731452002.1538544,1731452001.2928247,5000
-6534.733657209117,-187500.02235174447,8669.81699106896,-187500.02235174447,-187500.02235174447,-187500.02235174447,-187500.02235174447,-187500.02235174447,1731452002.1576931,1731452001.2928247,5000
-6593.362282915388,-187500.02235174447,8622.006609679058,-187500.02235174447,-187500.02235174447,-187500.02235174447,-187500.02235174447,-187500.02235174447,1731452002.160754,1731452001.2928247,5000
-6534.644250231297,-187500.02235174447,8640.983240721613,-187500.02235174447,-187500.02235174447,-187500.02235174447,-187500.02235174447,-187500.02235174447,1731452002.1647043,1731452001.2928247,5000
-6469.891246544272,-187500.02235174447,8675.919017305258,-187500.02235174447,-187500.02235174447,-187500.02235174447,-187500.02235174447,-187500.02235174447,1731452002.1686747,1731452001.2928247,5000
-6479.61425538233,-187500.02235174447,8633.160130162256,-187500.02235174447,-187500.02235174447,-187500.02235174447,-187500.02235174447,-187500.02235174447,1731452002.1727335,1731452001.2928247,5000
-6568.551846569997,-187500.02235174447,8589.708338941138,-187500.02235174447,-187500.02235174447,-187500.02235174447,-187500.02235174447,-187500.02235174447,1731452002.1777132,1731452001.2928247,5000
-6515.24293604409,-187500.02235174447,8601.286542568987,-187500.02235174447,-187500.02235174447,-187500.02235174447,-187500.02235174447,-187500.02235174447,1731452002.1817153,1731452001.2928247,5000
-6488.107918275347,-187500.02235174447,8642.860787255859,-187500.02235174447,-187500.02235174447,-187500.02235174447,-187500.02235174447,-187500.02235174447,1731452002.185794,1731452001.2928247,5000
-6520.964982624649,-187500.02235174447,8640.647964554782,-187500.02235174447,-187500.02235174447,-187500.02235174447,-187500.02235174447,-187500.02235174447,1731452002.1887271,1731452001.2928247,5000
-6621.458425695709,-187500.02235174447,8566.976614830091,-187500.02235174447,-187500.02235174447,-187500.02235174447,-187500.02235174447,-187500.02235174447,1731452002.1928318,1731452001.2928247,5000
-6590.568314858475,-187500.02235174447,8550.861007077814,-187500.02235174447,-187500.02235174447,-187500.02235174447,-187500.02235174447,-187500.02235174447,1731452002.19673,1731452001.2928247,5000
-6432.832054237373,-187500.02235174447,8665.592511366905,-187500.02235174447,-187500.02235174447,-187500.02235174447,-187500.02235174447,-187500.02235174447,1731452002.2007844,1731452001.2928247,5000
-6473.3110634459335,-187500.02235174447,8648.538130347506,-187500.02235174447,-187500.02235174447,-187500.02235174447,-187500.02235174447,-187500.02235174447,1731452002.2058024,1731452001.2928247,5000
-6543.182616613223,-187500.02235174447,8623.772397491026,-187500.02235174447,-187500.02235174447,-187500.02235174447,-187500.02235174447,-187500.02235174447,1731452002.2097487,1731452001.2928247,5000
-6525.010648371059,-187500.02235174447,8605.37691180431,-187500.02235174447,-187500.02235174447,-187500.02235174447,-187500.02235174447,-187500.02235174447,1731452002.2138584,1731452001.2928247,5000
-6485.448060685166,-187500.02235174447,8600.794804190971,-187500.02235174447,-187500.02235174447,-187500.02235174447,-187500.02235174447,-187500.02235174447,1731452002.2167635,1731452001.2928247,5000
-6441.683345041674,-187500.02235174447,8583.494553982562,-187500.02235174447,-187500.02235174447,-187500.02235174447,-187500.02235174447,-187500.02235174447,1731452002.2207713,1731452001.2928247,5000
-6513.119520320835,-187500.02235174447,8572.966882344113,-187500.02235174447,-187500.02235174447,-187500.02235174447,-187500.02235174447,-187500.02235174447,1731452002.2251108,1731452001.2928247,5000
-6586.679111323251,-187500.02235174447,8560.248739749044,-187500.02235174447,-187500.02235174447,-187500.02235174447,-187500.02235174447,-187500.02235174447,1731452002.2291756,1731452001.2928247,5000
-6505.76579639504,-187500.02235174447,8612.529470030007,-187500.02235174447,-187500.02235174447,-187500.02235174447,-187500.02235174447,-187500.02235174447,1731452002.2330472,1731452001.2928247,5000
-6454.423839381199,-187500.02235174447,8666.061898000467,-187500.02235174447,-187500.02235174447,-187500.02235174447,-187500.02235174447,-187500.02235174447,1731452002.237841,1731452001.2928247,5000
-6520.808520413461,-187500.02235174447,8621.783092234504,-187500.02235174447,-187500.02235174447,-187500.02235174447,-187500.02235174447,-187500.02235174447,1731452002.2418172,1731452001.2928247,5000
-6536.678258976729,-187500.02235174447,8576.565513201418,-187500.02235174447,-187500.02235174447,-187500.02235174447,-187500.02235174447,-187500.02235174447,1731452002.2450066,1731452001.2928247,5000
-6483.145831006269,-187500.02235174447,8621.492519556585,-187500.02235174447,-187500.02235174447,-187500.02235174447,-187500.02235174447,-187500.02235174447,1731452002.24893,1731452001.2928247,5000
-6455.161446948225,-187500.02235174447,8613.401188063764,-187500.02235174447,-187500.02235174447,-187500.02235174447,-187500.02235174447,-187500.02235174447,1731452002.253022,1731452001.2928247,5000
-6516.360523266855,-187500.02235174447,8584.835658649881,-187500.02235174447,-187500.02235174447,-187500.02235174447,-187500.02235174447,-187500.02235174447,1731452002.2570715,1731452001.2928247,5000
-6573.111602438879,-187500.02235174447,8575.716146912117,-187500.02235174447,-187500.02235174447,-187500.02235174447,-187500.02235174447,-187500.02235174447,1731452002.2612717,1731452001.2928247,5000
-6543.316727079956,-187500.02235174447,8581.102917325845,-187500.02235174447,-187500.02235174447,-187500.02235174447,-187500.02235174447,-187500.02235174447,1731452002.2660725,1731452001.2928247,5000
-6472.037014011981,-187500.02235174447,8576.297292267955,-187500.02235174447,-187500.02235174447,-187500.02235174447,-187500.02235174447,-187500.02235174447,1731452002.2690215,1731452001.2928247,5000
-6485.403357196255,-187500.02235174447,8552.492684423052,-187500.02235174447,-187500.02235174447,-187500.02235174447,-187500.02235174447,-187500.02235174447,1731452002.27323,1731452001.2928247,5000
-6568.887122736826,-187500.02235174447,8577.79485914646,-187500.02235174447,-187500.02235174447,-187500.02235174447,-187500.02235174447,-187500.02235174447,1731452002.277088,1731452001.2928247,5000
-6534.800712442483,-187500.02235174447,8601.934743158192,-187500.02235174447,-187500.02235174447,-187500.02235174447,-187500.02235174447,-187500.02235174447,1731452002.2810824,1731452001.2928247,5000
-6468.125458732303,-187500.02235174447,8599.27488556801,-187500.02235174447,-187500.02235174447,-187500.02235174447,-187500.02235174447,-187500.02235174447,1731452002.285088,1731452001.2928247,5000
-6439.336411873867,-187500.02235174447,8576.207885290132,-187500.02235174447,-187500.02235174447,-187500.02235174447,-187500.02235174447,-187500.02235174447,1731452002.2891345,1731452001.2928247,5000
-6577.470192607665,-187500.02235174447,8542.143826740245,-187500.02235174447,-187500.02235174447,-187500.02235174447,-187500.02235174447,-187500.02235174447,1731452002.294082,1731452001.2928247,5000
-6546.133046881324,-187500.02235174447,8575.850257378848,-187500.02235174447,-187500.02235174447,-187500.02235174447,-187500.02235174447,-187500.02235174447,1731452002.2969315,1731452001.2928247,5000
-6465.912636031228,-187500.02235174447,8633.987144707102,-187500.02235174447,-187500.02235174447,-187500.02235174447,-187500.02235174447,-187500.02235174447,1731452002.3011644,1731452001.2928247,5000
-6499.082624802903,-187500.02235174447,8607.2321065941,-187500.02235174447,-187500.02235174447,-187500.02235174447,-187500.02235174447,-187500.02235174447,1731452002.3048532,1731452001.2928247,5000
-6547.697668993195,-187500.02235174447,8555.823094346893,-187500.02235174447,-187500.02235174447,-187500.02235174447,-187500.02235174447,-187500.02235174447,1731452002.3089776,1731452001.2928247,5000
-6600.648951607818,-187500.02235174447,8517.601611328319,-187500.02235174447,-187500.02235174447,-187500.02235174447,-187500.02235174447,-187500.02235174447,1731452002.3130343,1731452001.2928247,5000
-6469.7347843330845,-187500.02235174447,8597.240876822576,-187500.02235174447,-187500.02235174447,-187500.02235174447,-187500.02235174447,-187500.02235174447,1731452002.3170965,1731452001.2928247,5000
-6469.220694210612,-187500.02235174447,8591.205905819645,-187500.02235174447,-187500.02235174447,-187500.02235174447,-187500.02235174447,-187500.02235174447,1731452002.3220296,1731452001.2928247,5000
-6512.918354620738,-187500.02235174447,8585.170934816711,-187500.02235174447,-187500.02235174447,-187500.02235174447,-187500.02235174447,-187500.02235174447,1731452002.325019,1731452001.2928247,5000
-6538.15347411078,-187500.02235174447,8571.402260232242,-187500.02235174447,-187500.02235174447,-187500.02235174447,-187500.02235174447,-187500.02235174447,1731452002.3289132,1731452001.2928247,5000
-6492.511211933042,-187500.02235174447,8569.45765846463,-187500.02235174447,-187500.02235174447,-187500.02235174447,-187500.02235174447,-187500.02235174447,1731452002.333018,1731452001.2928247,5000
-6493.449985200165,-187500.02235174447,8538.344030182843,-187500.02235174447,-187500.02235174447,-187500.02235174447,-187500.02235174447,-187500.02235174447,1731452002.3369534,1731452001.2928247,5000
-6552.771514984551,-187500.02235174447,8495.49573606202,-187500.02235174447,-187500.02235174447,-187500.02235174447,-187500.02235174447,-187500.02235174447,1731452002.341013,1731452001.2928247,5000
-6541.215663101157,-187500.02235174447,8582.667539437716,-187500.02235174447,-187500.02235174447,-187500.02235174447,-187500.02235174447,-187500.02235174447,1731452002.344998,1731452001.2928247,5000
-6484.263418229034,-187500.02235174447,8588.523696485006,-187500.02235174447,-187500.02235174447,-187500.02235174447,-187500.02235174447,-187500.02235174447,1731452002.3501005,1731452001.2928247,5000
-6453.730935303085,-187500.02235174447,8590.311836041432,-187500.02235174447,-187500.02235174447,-187500.02235174447,-187500.02235174447,-187500.02235174447,1731452002.3529432,1731452001.2928247,5000
-6507.464528973643,-187500.02235174447,8564.674385151195,-187500.02235174447,-187500.02235174447,-187500.02235174447,-187500.02235174447,-187500.02235174447,1731452002.3560195,1731452001.2928247,5000
-6499.149680036268,-187500.02235174447,8545.921271553192,-187500.02235174447,-187500.02235174447,-187500.02235174447,-187500.02235174447,-187500.02235174447,1731452002.3610268,1731452001.2928247,5000
-6494.098185789369,-187500.02235174447,8553.02912628998,-187500.02235174447,-187500.02235174447,-187500.02235174447,-187500.02235174447,-187500.02235174447,1731452002.3651235,1731452001.2928247,5000
-6518.886270390305,-187500.02235174447,8557.343012969854,-187500.02235174447,-187500.02235174447,-187500.02235174447,-187500.02235174447,-187500.02235174447,1731452002.3690188,1731452001.2928247,5000
-6494.791089867484,-187500.02235174447,8536.868815048792,-187500.02235174447,-187500.02235174447,-187500.02235174447,-187500.02235174447,-187500.02235174447,1731452002.3730912,1731452001.2928247,5000
-6562.226302889145,-187500.02235174447,8537.226442960076,-187500.02235174447,-187500.02235174447,-187500.02235174447,-187500.02235174447,-187500.02235174447,1731452002.3761697,1731452001.2928247,5000
-6571.099945437903,-187500.02235174447,8527.212861444099,-187500.02235174447,-187500.02235174447,-187500.02235174447,-187500.02235174447,-187500.02235174447,1731452002.3801577,1731452001.2928247,5000
-6488.398490953266,-187500.02235174447,8538.88047204977,-187500.02235174447,-187500.02235174447,-187500.02235174447,-187500.02235174447,-187500.02235174447,1731452002.384081,1731452001.2928247,5000
-6455.921406259705,-187500.02235174447,8568.2730160085,-187500.02235174447,-187500.02235174447,-187500.02235174447,-187500.02235174447,-187500.02235174447,1731452002.3890448,1731452001.2928247,5000
-6543.272023591045,-187500.02235174447,8574.866780622815,-187500.02235174447,-187500.02235174447,-187500.02235174447,-187500.02235174447,-187500.02235174447,1731452002.393057,1731452001.2928247,5000
-6512.71718892064,-187500.02235174447,8566.663690407717,-187500.02235174447,-187500.02235174447,-187500.02235174447,-187500.02235174447,-187500.02235174447,1731452002.397086,1731452001.2928247,5000
-6473.534580890487,-187500.02235174447,8557.343012969854,-187500.02235174447,-187500.02235174447,-187500.02235174447,-187500.02235174447,-187500.02235174447,1731452002.4010968,1731452001.2928247,5000
-6440.588109563364,-187500.02235174447,8540.73566683956,-187500.02235174447,-187500.02235174447,-187500.02235174447,-187500.02235174447,-187500.02235174447,1731452002.4052863,1731452001.2928247,5000
-6549.843436460905,-187500.02235174447,8521.960201497102,-187500.02235174447,-187500.02235174447,-187500.02235174447,-187500.02235174447,-187500.02235174447,1731452002.4081385,1731452001.2928247,5000
-6572.3963466163095,-187500.02235174447,8527.011695744002,-187500.02235174447,-187500.02235174447,-187500.02235174447,-187500.02235174447,-187500.02235174447,1731452002.412217,1731452001.2928247,5000
-6495.841621856884,-187500.02235174447,8560.02522230449,-187500.02235174447,-187500.02235174447,-187500.02235174447,-187500.02235174447,-187500.02235174447,1731452002.417116,1731452001.2928247,5000
-6471.209999467135,-187500.02235174447,8565.657861907228,-187500.02235174447,-187500.02235174447,-187500.02235174447,-187500.02235174447,-187500.02235174447,1731452002.4211576,1731452001.2928247,5000
-6536.3429828099,-187500.02235174447,8531.951431268624,-187500.02235174447,-187500.02235174447,-187500.02235174447,-187500.02235174447,-187500.02235174447,1731452002.4252372,1731452001.2928247,5000
-6570.20587565969,-187500.02235174447,8505.77753851146,-187500.02235174447,-187500.02235174447,-187500.02235174447,-187500.02235174447,-187500.02235174447,1731452002.4291408,1731452001.2928247,5000
-6501.76483413754,-187500.02235174447,8501.01661694248,-187500.02235174447,-187500.02235174447,-187500.02235174447,-187500.02235174447,-187500.02235174447,1731452002.4321127,1731452001.2928247,5000
-6423.51137679951,-187500.02235174447,8457.833046654827,-187500.02235174447,-187500.02235174447,-187500.02235174447,-187500.02235174447,-187500.02235174447,1731452002.4361112,1731452001.2928247,5000
-6477.401432681255,-187500.02235174447,8593.441080265175,-187500.02235174447,-187500.02235174447,-187500.02235174447,-187500.02235174447,-187500.02235174447,1731452002.4401336,1731452001.2928247,5000
-6565.333195368433,-187500.02235174447,8599.408996034741,-187500.02235174447,-187500.02235174447,-187500.02235174447,-187500.02235174447,-187500.02235174447,1731452002.4453895,1731452001.2928247,5000
-6522.171976825235,-187500.02235174447,8560.069925793401,-187500.02235174447,-187500.02235174447,-187500.02235174447,-187500.02235174447,-187500.02235174447,1731452002.4491467,1731452001.2928247,5000
-6472.126420989803,-187500.02235174447,8555.890149580258,-187500.02235174447,-187500.02235174447,-187500.02235174447,-187500.02235174447,-187500.02235174447,1731452002.4531257,1731452001.2928247,5000
-6432.429722837177,-187500.02235174447,8523.480120120063,-187500.02235174447,-187500.02235174447,-187500.02235174447,-187500.02235174447,-187500.02235174447,1731452002.4572208,1731452001.2928247,5000
-6545.8648259478605,-187500.02235174447,8533.627812102774,-187500.02235174447,-187500.02235174447,-187500.02235174447,-187500.02235174447,-187500.02235174447,1731452002.4602368,1731452001.2928247,5000
-6530.106846106869,-187500.02235174447,8566.529579940985,-187500.02235174447,-187500.02235174447,-187500.02235174447,-187500.02235174447,-187500.02235174447,1731452002.4641757,1731452001.2928247,5000
-6476.708528603141,-187500.02235174447,8569.50236195354,-187500.02235174447,-187500.02235174447,-187500.02235174447,-187500.02235174447,-187500.02235174447,1731452002.468198,1731452001.2928247,5000
-6477.0661565144255,-187500.02235174447,8555.756039113527,-187500.02235174447,-187500.02235174447,-187500.02235174447,-187500.02235174447,-187500.02235174447,1731452002.4721975,1731452001.2928247,5000
-6538.91343342226,-187500.02235174447,8516.484024105552,-187500.02235174447,-187500.02235174447,-187500.02235174447,-187500.02235174447,-187500.02235174447,1731452002.477157,1731452001.2928247,5000
-6544.72488698064,-187500.02235174447,8471.512314261474,-187500.02235174447,-187500.02235174447,-187500.02235174447,-187500.02235174447,-187500.02235174447,1731452002.4812376,1731452001.2928247,5000
-6468.348976176855,-187500.02235174447,8535.840634803848,-187500.02235174447,-187500.02235174447,-187500.02235174447,-187500.02235174447,-187500.02235174447,1731452002.4841952,1731452001.2928247,5000
-6484.531639162498,-187500.02235174447,8573.995062589058,-187500.02235174447,-187500.02235174447,-187500.02235174447,-187500.02235174447,-187500.02235174447,1731452002.4881847,1731452001.2928247,5000
-6544.479017791631,-187500.02235174447,8514.11473919329,-187500.02235174447,-187500.02235174447,-187500.02235174447,-187500.02235174447,-187500.02235174447,1731452002.4922273,1731452001.2928247,5000
-6526.172939082735,-187500.02235174447,8527.324620166377,-187500.02235174447,-187500.02235174447,-187500.02235174447,-187500.02235174447,-187500.02235174447,1731452002.4961703,1731452001.2928247,5000
-6471.94760703416,-187500.02235174447,8540.959184284113,-187500.02235174447,-187500.02235174447,-187500.02235174447,-187500.02235174447,-187500.02235174447,1731452002.5003128,1731452001.2928247,5000
-6457.910711516227,-187500.02235174447,8514.427663615665,-187500.02235174447,-187500.02235174447,-187500.02235174447,-187500.02235174447,-187500.02235174447,1731452002.505381,1731452001.2928247,5000
-6493.718206133629,-187500.02235174447,8472.853418928793,-187500.02235174447,-187500.02235174447,-187500.02235174447,-187500.02235174447,-187500.02235174447,1731452002.5093088,1731452001.2928247,5000
-6578.230151919145,-187500.02235174447,8507.319808878876,-187500.02235174447,-187500.02235174447,-187500.02235174447,-187500.02235174447,-187500.02235174447,1731452002.5122488,1731452001.2928247,5000
-6471.835848311884,-187500.02235174447,8558.348841470342,-187500.02235174447,-187500.02235174447,-187500.02235174447,-187500.02235174447,-187500.02235174447,1731452002.5163045,1731452001.2928247,5000
-6457.217807438113,-187500.02235174447,8546.211844231111,-187500.02235174447,-187500.02235174447,-187500.02235174447,-187500.02235174447,-187500.02235174447,1731452002.5212631,1731452001.2928247,5000
-6529.81627342895,-187500.02235174447,8505.106986177801,-187500.02235174447,-187500.02235174447,-187500.02235174447,-187500.02235174447,-187500.02235174447,1731452002.5252004,1731452001.2928247,5000
-6549.351698082888,-187500.02235174447,8474.082764873834,-187500.02235174447,-187500.02235174447,-187500.02235174447,-187500.02235174447,-187500.02235174447,1731452002.5282135,1731452001.2928247,5000
-6500.535488192498,-187500.02235174447,8482.1517446222,-187500.02235174447,-187500.02235174447,-187500.02235174447,-187500.02235174447,-187500.02235174447,1731452002.5324993,1731452001.2928247,5000
-6449.394696878755,-187500.02235174447,8563.914425839714,-187500.02235174447,-187500.02235174447,-187500.02235174447,-187500.02235174447,-187500.02235174447,1731452002.5372903,1731452001.2928247,5000
-6501.675427159718,-187500.02235174447,8534.477178392075,-187500.02235174447,-187500.02235174447,-187500.02235174447,-187500.02235174447,-187500.02235174447,1731452002.5404315,1731452001.2928247,5000
-6513.857127887861,-187500.02235174447,8488.253770858499,-187500.02235174447,-187500.02235174447,-187500.02235174447,-187500.02235174447,-187500.02235174447,1731452002.5444355,1731452001.2928247,5000
-6505.654037672764,-187500.02235174447,8454.457933242074,-187500.02235174447,-187500.02235174447,-187500.02235174447,-187500.02235174447,-187500.02235174447,1731452002.5483296,1731452001.2928247,5000
-6463.23042669659,-187500.02235174447,8485.77272722396,-187500.02235174447,-187500.02235174447,-187500.02235174447,-187500.02235174447,-187500.02235174447,1731452002.5523896,1731452001.2928247,5000
-6453.730935303085,-187500.02235174447,8530.677381834672,-187500.02235174447,-187500.02235174447,-187500.02235174447,-187500.02235174447,-187500.02235174447,1731452002.556376,1731452001.2928247,5000
-6569.088288436925,-187500.02235174447,8510.024369957968,-187500.02235174447,-187500.02235174447,-187500.02235174447,-187500.02235174447,-187500.02235174447,1731452002.5604036,1731452001.2928247,5000
-6523.088398347903,-187500.02235174447,8538.835768560859,-187500.02235174447,-187500.02235174447,-187500.02235174447,-187500.02235174447,-187500.02235174447,1731452002.5653436,1731452001.2928247,5000
-6452.479237613587,-187500.02235174447,8568.116553797312,-187500.02235174447,-187500.02235174447,-187500.02235174447,-187500.02235174447,-187500.02235174447,1731452002.5685084,1731452001.2928247,5000
-6496.66863640173,-187500.02235174447,8531.079713234867,-187500.02235174447,-187500.02235174447,-187500.02235174447,-187500.02235174447,-187500.02235174447,1731452002.5724592,1731452001.2928247,5000
-6551.743334739606,-187500.02235174447,8488.589047025329,-187500.02235174447,-187500.02235174447,-187500.02235174447,-187500.02235174447,-187500.02235174447,1731452002.5763483,1731452001.2928247,5000
-6564.975567457148,-187500.02235174447,8474.686261974128,-187500.02235174447,-187500.02235174447,-187500.02235174447,-187500.02235174447,-187500.02235174447,1731452002.5805671,1731452001.2928247,5000
-6473.892208801772,-187500.02235174447,8514.852346760315,-187500.02235174447,-187500.02235174447,-187500.02235174447,-187500.02235174447,-187500.02235174447,1731452002.5843797,1731452001.2928247,5000
-6446.757191033029,-187500.02235174447,8526.341143410342,-187500.02235174447,-187500.02235174447,-187500.02235174447,-187500.02235174447,-187500.02235174447,1731452002.5884569,1731452001.2928247,5000
-6541.841511945905,-187500.02235174447,8508.236230401544,-187500.02235174447,-187500.02235174447,-187500.02235174447,-187500.02235174447,-187500.02235174447,1731452002.59344,1731452001.2928247,5000
-6546.356564325877,-187500.02235174447,8512.192489170133,-187500.02235174447,-187500.02235174447,-187500.02235174447,-187500.02235174447,-187500.02235174447,1731452002.5964477,1731452001.2928247,5000
-6490.544258420976,-187500.02235174447,8531.16912021269,-187500.02235174447,-187500.02235174447,-187500.02235174447,-187500.02235174447,-187500.02235174447,1731452002.600415,1731452001.2928247,5000
-6483.145831006269,-187500.02235174447,8498.893201219225,-187500.02235174447,-187500.02235174447,-187500.02235174447,-187500.02235174447,-187500.02235174447,1731452002.6044216,1731452001.2928247,5000
-6527.983430383615,-187500.02235174447,8490.801869726405,-187500.02235174447,-187500.02235174447,-187500.02235174447,-187500.02235174447,-187500.02235174447,1731452002.6104105,1731452001.2928247,5000
-6528.877500161827,-187500.02235174447,8517.668666561683,-187500.02235174447,-187500.02235174447,-187500.02235174447,-187500.02235174447,-187500.02235174447,1731452002.6134434,1731452001.2928247,5000
-6458.693022572163,-187500.02235174447,8510.20318391361,-187500.02235174447,-187500.02235174447,-187500.02235174447,-187500.02235174447,-187500.02235174447,1731452002.616537,1731452001.2928247,5000
-6424.248984366534,-187500.02235174447,8467.86897991526,-187500.02235174447,-187500.02235174447,-187500.02235174447,-187500.02235174447,-187500.02235174447,1731452002.6204677,1731452001.2928247,5000
-6548.547035282498,-187500.02235174447,8478.039023642425,-187500.02235174447,-187500.02235174447,-187500.02235174447,-187500.02235174447,-187500.02235174447,1731452002.623502,1731452001.2928247,5000
-6579.705367053195,-187500.02235174447,8518.674495062172,-187500.02235174447,-187500.02235174447,-187500.02235174447,-187500.02235174447,-187500.02235174447,1731452002.6284628,1731452001.2928247,5000
-6495.506345690053,-187500.02235174447,8548.514073910008,-187500.02235174447,-187500.02235174447,-187500.02235174447,-187500.02235174447,-187500.02235174447,1731452002.632552,1731452001.2928247,5000
-6473.646339612764,-187500.02235174447,8536.444131904142,-187500.02235174447,-187500.02235174447,-187500.02235174447,-187500.02235174447,-187500.02235174447,1731452002.636495,1731452001.2928247,5000
-6540.366296811855,-187500.02235174447,8491.047738915413,-187500.02235174447,-187500.02235174447,-187500.02235174447,-187500.02235174447,-187500.02235174447,1731452002.6404345,1731452001.2928247,5000
-6555.029041174536,-187500.02235174447,8476.58616025283,-187500.02235174447,-187500.02235174447,-187500.02235174447,-187500.02235174447,-187500.02235174447,1731452002.644554,1731452001.2928247,5000
-6471.366461678322,-187500.02235174447,8537.382905171264,-187500.02235174447,-187500.02235174447,-187500.02235174447,-187500.02235174447,-187500.02235174447,1731452002.6485035,1731452001.2928247,5000
-6450.981670735082,-187500.02235174447,8528.956297511613,-187500.02235174447,-187500.02235174447,-187500.02235174447,-187500.02235174447,-187500.02235174447,1731452002.6515777,1731452001.2928247,5000
-6453.976804492093,-187500.02235174447,8484.811602212381,-187500.02235174447,-187500.02235174447,-187500.02235174447,-187500.02235174447,-187500.02235174447,1731452002.6565983,1731452001.2928247,5000
-6487.683235130696,-187500.02235174447,8485.079823145847,-187500.02235174447,-187500.02235174447,-187500.02235174447,-187500.02235174447,-187500.02235174447,1731452002.660488,1731452001.2928247,5000
-6423.17610063268,-187500.02235174447,8513.243021159533,-187500.02235174447,-187500.02235174447,-187500.02235174447,-187500.02235174447,-187500.02235174447,1731452002.6644845,1731452001.2928247,5000
-6462.872798785305,-187500.02235174447,8513.667704304184,-187500.02235174447,-187500.02235174447,-187500.02235174447,-187500.02235174447,-187500.02235174447,1731452002.668566,1731452001.2928247,5000
-6549.217587616156,-187500.02235174447,8532.465521391097,-187500.02235174447,-187500.02235174447,-187500.02235174447,-187500.02235174447,-187500.02235174447,1731452002.672542,1731452001.2928247,5000
-6589.048396235514,-187500.02235174447,8509.510279835496,-187500.02235174447,-187500.02235174447,-187500.02235174447,-187500.02235174447,-187500.02235174447,1731452002.6764843,1731452001.2928247,5000
-6537.952308410681,-187500.02235174447,8517.758073539504,-187500.02235174447,-187500.02235174447,-187500.02235174447,-187500.02235174447,-187500.02235174447,1731452002.6815095,1731452001.2928247,5000
-6424.964240189104,-187500.02235174447,8537.651126104729,-187500.02235174447,-187500.02235174447,-187500.02235174447,-187500.02235174447,-187500.02235174447,1731452002.6845531,1731452001.2928247,5000
-6473.065194256926,-187500.02235174447,8531.124416723778,-187500.02235174447,-187500.02235174447,-187500.02235174447,-187500.02235174447,-187500.02235174447,1731452002.6886437,1731452001.2928247,5000
-6560.929901710738,-187500.02235174447,8503.743529766027,-187500.02235174447,-187500.02235174447,-187500.02235174447,-187500.02235174447,-187500.02235174447,1731452002.6926093,1731452001.2928247,5000
-6558.605320287385,-187500.02235174447,8524.910631765202,-187500.02235174447,-187500.02235174447,-187500.02235174447,-187500.02235174447,-187500.02235174447,1731452002.6965227,1731452001.2928247,5000
-6483.414051939732,-187500.02235174447,8544.423704674686,-187500.02235174447,-187500.02235174447,-187500.02235174447,-187500.02235174447,-187500.02235174447,1731452002.7007368,1731452001.2928247,5000
-6478.071985014914,-187500.02235174447,8523.122492208779,-187500.02235174447,-187500.02235174447,-187500.02235174447,-187500.02235174447,-187500.02235174447,1731452002.7035391,1731452001.2928247,5000
-6529.10101760638,-187500.02235174447,8500.122547164268,-187500.02235174447,-187500.02235174447,-187500.02235174447,-187500.02235174447,-187500.02235174447,1731452002.707571,1731452001.2928247,5000
-6517.947497123182,-187500.02235174447,8508.437396101643,-187500.02235174447,-187500.02235174447,-187500.02235174447,-187500.02235174447,-187500.02235174447,1731452002.7118914,1731452001.2928247,5000
-6507.643342929286,-187500.02235174447,8515.098215949323,-187500.02235174447,-187500.02235174447,-187500.02235174447,-187500.02235174447,-187500.02235174447,1731452002.716574,1731452001.2928247,5000
-6485.805688596451,-187500.02235174447,8492.366491838276,-187500.02235174447,-187500.02235174447,-187500.02235174447,-187500.02235174447,-187500.02235174447,1731452002.7205772,1731452001.2928247,5000
-6533.593718241897,-187500.02235174447,8479.089555631823,-187500.02235174447,-187500.02235174447,-187500.02235174447,-187500.02235174447,-187500.02235174447,1731452002.724631,1731452001.2928247,5000
-6576.933750740737,-187500.02235174447,8505.017579199979,-187500.02235174447,-187500.02235174447,-187500.02235174447,-187500.02235174447,-187500.02235174447,1731452002.727577,1731452001.2928247,5000
-6527.715209450151,-187500.02235174447,8484.856305701293,-187500.02235174447,-187500.02235174447,-187500.02235174447,-187500.02235174447,-187500.02235174447,1731452002.7316096,1731452001.2928247,5000
-6434.486083327065,-187500.02235174447,8509.622038557773,-187500.02235174447,-187500.02235174447,-187500.02235174447,-187500.02235174447,-187500.02235174447,1731452002.7356648,1731452001.2928247,5000
-6468.863066299327,-187500.02235174447,8531.705562079616,-187500.02235174447,-187500.02235174447,-187500.02235174447,-187500.02235174447,-187500.02235174447,1731452002.7397175,1731452001.2928247,5000
-6537.237052588112,-187500.02235174447,8503.63177104375,-187500.02235174447,-187500.02235174447,-187500.02235174447,-187500.02235174447,-187500.02235174447,1731452002.743755,1731452001.2928247,5000
-6478.451964670654,-187500.02235174447,8521.669628819183,-187500.02235174447,-187500.02235174447,-187500.02235174447,-187500.02235174447,-187500.02235174447,1731452002.7487829,1731452001.2928247,5000
-6459.900016772749,-187500.02235174447,8526.676419577172,-187500.02235174447,-187500.02235174447,-187500.02235174447,-187500.02235174447,-187500.02235174447,1731452002.752912,1731452001.2928247,5000
-6538.19817759969,-187500.02235174447,8528.39750390023,-187500.02235174447,-187500.02235174447,-187500.02235174447,-187500.02235174447,-187500.02235174447,1731452002.7568388,1731452001.2928247,5000
-6536.901776421282,-187500.02235174447,8532.778445813472,-187500.02235174447,-187500.02235174447,-187500.02235174447,-187500.02235174447,-187500.02235174447,1731452002.7596223,1731452001.2928247,5000
-6477.513191403532,-187500.02235174447,8530.655030090216,-187500.02235174447,-187500.02235174447,-187500.02235174447,-187500.02235174447,-187500.02235174447,1731452002.7638583,1731452001.2928247,5000
-6444.99140322106,-187500.02235174447,8531.616155101796,-187500.02235174447,-187500.02235174447,-187500.02235174447,-187500.02235174447,-187500.02235174447,1731452002.7698665,1731452001.2928247,5000
-6488.510249675543,-187500.02235174447,8516.573431083374,-187500.02235174447,-187500.02235174447,-187500.02235174447,-187500.02235174447,-187500.02235174447,1731452002.7728837,1731452001.2928247,5000
-6566.540189569019,-187500.02235174447,8525.044742231936,-187500.02235174447,-187500.02235174447,-187500.02235174447,-187500.02235174447,-187500.02235174447,1731452002.77691,1731452001.2928247,5000
-6555.587834785919,-187500.02235174447,8511.454881603107,-187500.02235174447,-187500.02235174447,-187500.02235174447,-187500.02235174447,-187500.02235174447,1731452002.7808912,1731452001.2928247,5000
-6481.782374594495,-187500.02235174447,8535.773579570483,-187500.02235174447,-187500.02235174447,-187500.02235174447,-187500.02235174447,-187500.02235174447,1731452002.7838798,1731452001.2928247,5000
-6495.774566623517,-187500.02235174447,8559.198207759644,-187500.02235174447,-187500.02235174447,-187500.02235174447,-187500.02235174447,-187500.02235174447,1731452002.7879124,1731452001.2928247,5000
-6546.378916070333,-187500.02235174447,8523.2118991866,-187500.02235174447,-187500.02235174447,-187500.02235174447,-187500.02235174447,-187500.02235174447,1731452002.7919064,1731452001.2928247,5000
-6548.859959704872,-187500.02235174447,8515.768768282982,-187500.02235174447,-187500.02235174447,-187500.02235174447,-187500.02235174447,-187500.02235174447,1731452002.7958052,1731452001.2928247,5000
-6489.940761320682,-187500.02235174447,8496.054529673402,-187500.02235174447,-187500.02235174447,-187500.02235174447,-187500.02235174447,-187500.02235174447,1731452002.7999172,1731452001.2928247,5000
-6413.207222605613,-187500.02235174447,8509.06324494639,-187500.02235174447,-187500.02235174447,-187500.02235174447,-187500.02235174447,-187500.02235174447,1731452002.8047063,1731452001.2928247,5000
-6489.225505498112,-187500.02235174447,8577.437231235175,-187500.02235174447,-187500.02235174447,-187500.02235174447,-187500.02235174447,-187500.02235174447,1731452002.8088365,1731452001.2928247,5000
-6552.235073117623,-187500.02235174447,8552.64914663424,-187500.02235174447,-187500.02235174447,-187500.02235174447,-187500.02235174447,-187500.02235174447,1731452002.8117783,1731452001.2928247,5000
-6469.310101188434,-187500.02235174447,8559.175856015188,-187500.02235174447,-187500.02235174447,-187500.02235174447,-187500.02235174447,-187500.02235174447,1731452002.815693,1731452001.2928247,5000
-6463.006909252037,-187500.02235174447,8549.07286752139,-187500.02235174447,-187500.02235174447,-187500.02235174447,-187500.02235174447,-187500.02235174447,1731452002.8198168,1731452001.2928247,5000
-6505.564630694942,-187500.02235174447,8533.605460358318,-187500.02235174447,-187500.02235174447,-187500.02235174447,-187500.02235174447,-187500.02235174447,1731452002.8238387,1731452001.2928247,5000
-6551.899796950794,-187500.02235174447,8533.426646402675,-187500.02235174447,-187500.02235174447,-187500.02235174447,-187500.02235174447,-187500.02235174447,1731452002.8278325,1731452001.2928247,5000
-6508.135081307302,-187500.02235174447,8548.379963443276,-187500.02235174447,-187500.02235174447,-187500.02235174447,-187500.02235174447,-187500.02235174447,1731452002.831834,1731452001.2928247,5000
-6477.133211747791,-187500.02235174447,8552.73855361206,-187500.02235174447,-187500.02235174447,-187500.02235174447,-187500.02235174447,-187500.02235174447,1731452002.8368473,1731452001.2928247,5000
-6518.595697712386,-187500.02235174447,8520.216765429588,-187500.02235174447,-187500.02235174447,-187500.02235174447,-187500.02235174447,-187500.02235174447,1731452002.840472,1731452001.2928247,5000
-6577.805468774494,-187500.02235174447,8505.218744900078,-187500.02235174447,-187500.02235174447,-187500.02235174447,-187500.02235174447,-187500.02235174447,1731452002.8437924,1731452001.2928247,5000
-6515.019418599537,-187500.02235174447,8514.651181060217,-187500.02235174447,-187500.02235174447,-187500.02235174447,-187500.02235174447,-187500.02235174447,1731452002.8478189,1731452001.2928247,5000
-6499.686121903196,-187500.02235174447,8508.951486224114,-187500.02235174447,-187500.02235174447,-187500.02235174447,-187500.02235174447,-187500.02235174447,1731452002.8519256,1731452001.2928247,5000
-6504.804671383461,-187500.02235174447,8579.203019047143,-187500.02235174447,-187500.02235174447,-187500.02235174447,-187500.02235174447,-187500.02235174447,1731452002.8558657,1731452001.2928247,5000
-6504.29058126099,-187500.02235174447,8584.925065627702,-187500.02235174447,-187500.02235174447,-187500.02235174447,-187500.02235174447,-187500.02235174447,1731452002.8609104,1731452001.2928247,5000
-6499.082624802903,-187500.02235174447,8563.26622525051,-187500.02235174447,-187500.02235174447,-187500.02235174447,-187500.02235174447,-187500.02235174447,1731452002.8639388,1731452001.2928247,5000
-6465.04091799747,-187500.02235174447,8560.963995571614,-187500.02235174447,-187500.02235174447,-187500.02235174447,-187500.02235174447,-187500.02235174447,1731452002.866905,1731452001.2928247,5000
-6466.47142964261,-187500.02235174447,8555.93485306917,-187500.02235174447,-187500.02235174447,-187500.02235174447,-187500.02235174447,-187500.02235174447,1731452002.87194,1731452001.2928247,5000
-6509.81146214145,-187500.02235174447,8532.242003946543,-187500.02235174447,-187500.02235174447,-187500.02235174447,-187500.02235174447,-187500.02235174447,1731452002.8758547,1731452001.2928247,5000
-6540.880386934327,-187500.02235174447,8544.244890719043,-187500.02235174447,-187500.02235174447,-187500.02235174447,-187500.02235174447,-187500.02235174447,1731452002.8798933,1731452001.2928247,5000
-6492.421804955221,-187500.02235174447,8559.2205595041,-187500.02235174447,-187500.02235174447,-187500.02235174447,-187500.02235174447,-187500.02235174447,1731452002.883891,1731452001.2928247,5000
-6484.375176951311,-187500.02235174447,8561.768658372004,-187500.02235174447,-187500.02235174447,-187500.02235174447,-187500.02235174447,-187500.02235174447,1731452002.8879044,1731452001.2928247,5000
-6536.790017699006,-187500.02235174447,8529.984477756558,-187500.02235174447,-187500.02235174447,-187500.02235174447,-187500.02235174447,-187500.02235174447,1731452002.8919585,1731452001.2928247,5000
-6554.738468496617,-187500.02235174447,8511.343122880831,-187500.02235174447,-187500.02235174447,-187500.02235174447,-187500.02235174447,-187500.02235174447,1731452002.89496,1731452001.2928247,5000
-6509.789110396995,-187500.02235174447,8530.722085323583,-187500.02235174447,-187500.02235174447,-187500.02235174447,-187500.02235174447,-187500.02235174447,1731452002.899986,1731452001.2928247,5000
-6460.302348172945,-187500.02235174447,8559.354669970831,-187500.02235174447,-187500.02235174447,-187500.02235174447,-187500.02235174447,-187500.02235174447,1731452002.9039,1731452001.2928247,5000
-6481.558857149942,-187500.02235174447,8536.757056326516,-187500.02235174447,-187500.02235174447,-187500.02235174447,-187500.02235174447,-187500.02235174447,1731452002.9081,1731452001.2928247,5000
-6522.104921591869,-187500.02235174447,8542.121474995789,-187500.02235174447,-187500.02235174447,-187500.02235174447,-187500.02235174447,-187500.02235174447,1731452002.9119718,1731452001.2928247,5000
-6525.748255938084,-187500.02235174447,8556.873626336292,-187500.02235174447,-187500.02235174447,-187500.02235174447,-187500.02235174447,-187500.02235174447,1731452002.9159017,1731452001.2928247,5000
-6512.180747053712,-187500.02235174447,8566.618986918806,-187500.02235174447,-187500.02235174447,-187500.02235174447,-187500.02235174447,-187500.02235174447,1731452002.9210255,1731452001.2928247,5000
-6509.342075507889,-187500.02235174447,8563.109763039323,-187500.02235174447,-187500.02235174447,-187500.02235174447,-187500.02235174447,-187500.02235174447,1731452002.924023,1731452001.2928247,5000
-6542.601471257386,-187500.02235174447,8547.374134942787,-187500.02235174447,-187500.02235174447,-187500.02235174447,-187500.02235174447,-187500.02235174447,1731452002.9280288,1731452001.2928247,5000
-6514.795901154984,-187500.02235174447,8559.533483926474,-187500.02235174447,-187500.02235174447,-187500.02235174447,-187500.02235174447,-187500.02235174447,1731452002.9329247,1731452001.2928247,5000
-6472.573455878909,-187500.02235174447,8556.158370513722,-187500.02235174447,-187500.02235174447,-187500.02235174447,-187500.02235174447,-187500.02235174447,1731452002.9370303,1731452001.2928247,5000
-6489.3819677093,-187500.02235174447,8544.155483741222,-187500.02235174447,-187500.02235174447,-187500.02235174447,-187500.02235174447,-187500.02235174447,1731452002.9410372,1731452001.2928247,5000
-6516.271116289034,-187500.02235174447,8550.481027422074,-187500.02235174447,-187500.02235174447,-187500.02235174447,-187500.02235174447,-187500.02235174447,1731452002.9440403,1731452001.2928247,5000
-6484.8222118404165,-187500.02235174447,8538.902823794226,-187500.02235174447,-187500.02235174447,-187500.02235174447,-187500.02235174447,-187500.02235174447,1731452002.9479835,1731452001.2928247,5000
-6434.441379838155,-187500.02235174447,8536.913518537704,-187500.02235174447,-187500.02235174447,-187500.02235174447,-187500.02235174447,-187500.02235174447,1731452002.9510744,1731452001.2928247,5000
-6485.269246729523,-187500.02235174447,8531.88437603526,-187500.02235174447,-187500.02235174447,-187500.02235174447,-187500.02235174447,-187500.02235174447,1731452002.9550152,1731452001.2928247,5000
-6534.510139764565,-187500.02235174447,8578.688928924672,-187500.02235174447,-187500.02235174447,-187500.02235174447,-187500.02235174447,-187500.02235174447,1731452002.9600651,1731452001.2928247,5000
-6561.443991833209,-187500.02235174447,8575.224408534099,-187500.02235174447,-187500.02235174447,-187500.02235174447,-187500.02235174447,-187500.02235174447,1731452002.964094,1731452001.2928247,5000
-6499.909639347749,-187500.02235174447,8568.720050897606,-187500.02235174447,-187500.02235174447,-187500.02235174447,-187500.02235174447,-187500.02235174447,1731452002.9680622,1731452001.2928247,5000
-6454.781467292484,-187500.02235174447,8568.563588686418,-187500.02235174447,-187500.02235174447,-187500.02235174447,-187500.02235174447,-187500.02235174447,1731452002.971166,1731452001.2928247,5000
-6540.165131111758,-187500.02235174447,8543.127303496278,-187500.02235174447,-187500.02235174447,-187500.02235174447,-187500.02235174447,-187500.02235174447,1731452002.9752877,1731452001.2928247,5000
-6560.9522534551925,-187500.02235174447,8542.143826740245,-187500.02235174447,-187500.02235174447,-187500.02235174447,-187500.02235174447,-187500.02235174447,1731452002.9791255,1731452001.2928247,5000
-6500.826060870417,-187500.02235174447,8573.570379444407,-187500.02235174447,-187500.02235174447,-187500.02235174447,-187500.02235174447,-187500.02235174447,1731452002.9831407,1731452001.2928247,5000
-6479.010758282037,-187500.02235174447,8572.78806838847,-187500.02235174447,-187500.02235174447,-187500.02235174447,-187500.02235174447,-187500.02235174447,1731452002.9881473,1731452001.2928247,5000
-6538.712267722162,-187500.02235174447,8547.754114598527,-187500.02235174447,-187500.02235174447,-187500.02235174447,-187500.02235174447,-187500.02235174447,1731452002.9921062,1731452001.2928247,5000
-6550.357526583377,-187500.02235174447,8530.498567879029,-187500.02235174447,-187500.02235174447,-187500.02235174447,-187500.02235174447,-187500.02235174447,1731452002.9960911,1731452001.2928247,5000
-6497.026264313015,-187500.02235174447,8537.271146448988,-187500.02235174447,-187500.02235174447,-187500.02235174447,-187500.02235174447,-187500.02235174447,1731452002.999244,1731452001.2928247,5000
-6492.1535840217575,-187500.02235174447,8565.613158418317,-187500.02235174447,-187500.02235174447,-187500.02235174447,-187500.02235174447,-187500.02235174447,1731452003.003175,1731452001.2928247,5000
-6532.677296719229,-187500.02235174447,8555.30900422442,-187500.02235174447,-187500.02235174447,-187500.02235174447,-187500.02235174447,-187500.02235174447,1731452003.0074863,1731452001.2928247,5000
-6553.665584762763,-187500.02235174447,8548.849350076836,-187500.02235174447,-187500.02235174447,-187500.02235174447,-187500.02235174447,-187500.02235174447,1731452003.0114288,1731452001.2928247,5000
-6514.393569754788,-187500.02235174447,8529.760960312005,-187500.02235174447,-187500.02235174447,-187500.02235174447,-187500.02235174447,-187500.02235174447,1731452003.0161884,1731452001.2928247,5000
-6478.362557692833,-187500.02235174447,8539.551024383429,-187500.02235174447,-187500.02235174447,-187500.02235174447,-187500.02235174447,-187500.02235174447,1731452003.020364,1731452001.2928247,5000
-6542.981450913126,-187500.02235174447,8541.205053473122,-187500.02235174447,-187500.02235174447,-187500.02235174447,-187500.02235174447,-187500.02235174447,1731452003.024403,1731452001.2928247,5000
-6518.506290734565,-187500.02235174447,8556.046611791446,-187500.02235174447,-187500.02235174447,-187500.02235174447,-187500.02235174447,-187500.02235174447,1731452003.027527,1731452001.2928247,5000
-6488.420842697721,-187500.02235174447,8558.1700275147,-187500.02235174447,-187500.02235174447,-187500.02235174447,-187500.02235174447,-187500.02235174447,1731452003.031361,1731452001.2928247,5000
-6372.907027352694,-187500.02235174447,8564.808495617926,-187500.02235174447,-187500.02235174447,-187500.02235174447,-187500.02235174447,-187500.02235174447,1731452003.035568,1731452001.2928247,5000
-6495.6181044123305,-187500.02235174447,8575.827905634393,-187500.02235174447,-187500.02235174447,-187500.02235174447,-187500.02235174447,-187500.02235174447,1731452003.0392475,1731452001.2928247,5000
-6556.370145841855,-187500.02235174447,8569.658824164728,-187500.02235174447,-187500.02235174447,-187500.02235174447,-187500.02235174447,-187500.02235174447,1731452003.0444255,1731452001.2928247,5000
-6556.973642942148,-187500.02235174447,8571.737536399072,-187500.02235174447,-187500.02235174447,-187500.02235174447,-187500.02235174447,-187500.02235174447,1731452003.0488403,1731452001.2928247,5000
-6478.47431641511,-187500.02235174447,8566.55193168544,-187500.02235174447,-187500.02235174447,-187500.02235174447,-187500.02235174447,-187500.02235174447,1731452003.0528293,1731452001.2928247,5000
-6498.233258513601,-187500.02235174447,8543.59669012984,-187500.02235174447,-187500.02235174447,-187500.02235174447,-187500.02235174447,-187500.02235174447,1731452003.0554955,1731452001.2928247,5000
-6550.648099261296,-187500.02235174447,8553.722030368093,-187500.02235174447,-187500.02235174447,-187500.02235174447,-187500.02235174447,-187500.02235174447,1731452003.0598187,1731452001.2928247,5000
-6554.693765007707,-187500.02235174447,8544.244890719043,-187500.02235174447,-187500.02235174447,-187500.02235174447,-187500.02235174447,-187500.02235174447,1731452003.063314,1731452001.2928247,5000
-6466.85140929835,-187500.02235174447,8573.302158510944,-187500.02235174447,-187500.02235174447,-187500.02235174447,-187500.02235174447,-187500.02235174447,1731452003.0673623,1731452001.2928247,5000
-6468.393679665766,-187500.02235174447,8579.292426024966,-187500.02235174447,-187500.02235174447,-187500.02235174447,-187500.02235174447,-187500.02235174447,1731452003.0713544,1731452001.2928247,5000
-6540.232186345123,-187500.02235174447,8551.196283244644,-187500.02235174447,-187500.02235174447,-187500.02235174447,-187500.02235174447,-187500.02235174447,1731452003.0763412,1731452001.2928247,5000
-6534.443084531198,-187500.02235174447,8554.973728057592,-187500.02235174447,-187500.02235174447,-187500.02235174447,-187500.02235174447,-187500.02235174447,1731452003.0793788,1731452001.2928247,5000
-6482.85525832835,-187500.02235174447,8560.248739749044,-187500.02235174447,-187500.02235174447,-187500.02235174447,-187500.02235174447,-187500.02235174447,1731452003.0833805,1731452001.2928247,5000
-6470.181819222191,-187500.02235174447,8539.50632089452,-187500.02235174447,-187500.02235174447,-187500.02235174447,-187500.02235174447,-187500.02235174447,1731452003.0873845,1731452001.2928247,5000
-6505.341113250389,-187500.02235174447,8526.49760562153,-187500.02235174447,-187500.02235174447,-187500.02235174447,-187500.02235174447,-187500.02235174447,1731452003.0913854,1731452001.2928247,5000
-6569.267102392567,-187500.02235174447,8532.063189990902,-187500.02235174447,-187500.02235174447,-187500.02235174447,-187500.02235174447,-187500.02235174447,1731452003.095461,1731452001.2928247,5000
-6495.841621856884,-187500.02235174447,8546.748286098038,-187500.02235174447,-187500.02235174447,-187500.02235174447,-187500.02235174447,-187500.02235174447,1731452003.0992675,1731452001.2928247,5000
-6462.492819129565,-187500.02235174447,8580.78999290347,-187500.02235174447,-187500.02235174447,-187500.02235174447,-187500.02235174447,-187500.02235174447,1731452003.1043248,1731452001.2928247,5000
-6507.062197573448,-187500.02235174447,8572.475143966096,-187500.02235174447,-187500.02235174447,-187500.02235174447,-187500.02235174447,-187500.02235174447,1731452003.1072187,1731452001.2928247,5000
-6574.273893150556,-187500.02235174447,8516.148747938723,-187500.02235174447,-187500.02235174447,-187500.02235174447,-187500.02235174447,-187500.02235174447,1731452003.1112752,1731452001.2928247,5000
-6515.332343021911,-187500.02235174447,8526.944640510636,-187500.02235174447,-187500.02235174447,-187500.02235174447,-187500.02235174447,-187500.02235174447,1731452003.1153903,1731452001.2928247,5000
-6438.598804306842,-187500.02235174447,8582.421670248708,-187500.02235174447,-187500.02235174447,-187500.02235174447,-187500.02235174447,-187500.02235174447,1731452003.119352,1731452001.2928247,5000
-6492.399453210766,-187500.02235174447,8579.89592312526,-187500.02235174447,-187500.02235174447,-187500.02235174447,-187500.02235174447,-187500.02235174447,1731452003.123306,1731452001.2928247,5000
-6517.947497123182,-187500.02235174447,8544.893091308248,-187500.02235174447,-187500.02235174447,-187500.02235174447,-187500.02235174447,-187500.02235174447,1731452003.1272545,1731452001.2928247,5000
-6470.785316322484,-187500.02235174447,8536.287669692954,-187500.02235174447,-187500.02235174447,-187500.02235174447,-187500.02235174447,-187500.02235174447,1731452003.1323924,1731452001.2928247,5000
-6485.023377540515,-187500.02235174447,8547.463541920608,-187500.02235174447,-187500.02235174447,-187500.02235174447,-187500.02235174447,-187500.02235174447,1731452003.1352978,1731452001.2928247,5000
-6490.186630509691,-187500.02235174447,8552.537387911963,-187500.02235174447,-187500.02235174447,-187500.02235174447,-187500.02235174447,-187500.02235174447,1731452003.1393552,1731452001.2928247,5000
-6578.677186808252,-187500.02235174447,8529.73860856755,-187500.02235174447,-187500.02235174447,-187500.02235174447,-187500.02235174447,-187500.02235174447,1731452003.1433327,1731452001.2928247,5000
-6543.361430568866,-187500.02235174447,8549.408143688219,-187500.02235174447,-187500.02235174447,-187500.02235174447,-187500.02235174447,-187500.02235174447,1731452003.147313,1731452001.2928247,5000
-6481.469450172121,-187500.02235174447,8568.407126475231,-187500.02235174447,-187500.02235174447,-187500.02235174447,-187500.02235174447,-187500.02235174447,1731452003.1514192,1731452001.2928247,5000
-6486.85622058585,-187500.02235174447,8560.36049847132,-187500.02235174447,-187500.02235174447,-187500.02235174447,-187500.02235174447,-187500.02235174447,1731452003.155413,1731452001.2928247,5000
-6527.357581538866,-187500.02235174447,8529.895070778737,-187500.02235174447,-187500.02235174447,-187500.02235174447,-187500.02235174447,-187500.02235174447,1731452003.1605022,1731452001.2928247,5000
-6510.638476686297,-187500.02235174447,8548.245852976544,-187500.02235174447,-187500.02235174447,-187500.02235174447,-187500.02235174447,-187500.02235174447,1731452003.1634235,1731452001.2928247,5000
-6455.831999281883,-187500.02235174447,8562.55096942794,-187500.02235174447,-187500.02235174447,-187500.02235174447,-187500.02235174447,-187500.02235174447,1731452003.166418,1731452001.2928247,5000
-6444.097333442847,-187500.02235174447,8538.008754016013,-187500.02235174447,-187500.02235174447,-187500.02235174447,-187500.02235174447,-187500.02235174447,1731452003.171394,1731452001.2928247,5000
-6544.344907324899,-187500.02235174447,8523.63658233125,-187500.02235174447,-187500.02235174447,-187500.02235174447,-187500.02235174447,-187500.02235174447,1731452003.1754992,1731452001.2928247,5000
-6520.964982624649,-187500.02235174447,8553.990251301557,-187500.02235174447,-187500.02235174447,-187500.02235174447,-187500.02235174447,-187500.02235174447,1731452003.179472,1731452001.2928247,5000
-6475.94856929166,-187500.02235174447,8569.45765846463,-187500.02235174447,-187500.02235174447,-187500.02235174447,-187500.02235174447,-187500.02235174447,1731452003.1853857,1731452001.2928247,5000
-6486.252723485556,-187500.02235174447,8559.511132182019,-187500.02235174447,-187500.02235174447,-187500.02235174447,-187500.02235174447,-187500.02235174447,1731452003.188424,1731452001.2928247,5000
-6534.487788020109,-187500.02235174447,8500.211954142089,-187500.02235174447,-187500.02235174447,-187500.02235174447,-187500.02235174447,-187500.02235174447,1731452003.191373,1731452001.2928247,5000
-6548.39057307131,-187500.02235174447,8505.621076300273,-187500.02235174447,-187500.02235174447,-187500.02235174447,-187500.02235174447,-187500.02235174447,1731452003.195371,1731452001.2928247,5000
-6502.882421360305,-187500.02235174447,8575.962016101124,-187500.02235174447,-187500.02235174447,-187500.02235174447,-187500.02235174447,-187500.02235174447,1731452003.1994717,1731452001.2928247,5000
-6435.581318805375,-187500.02235174447,8566.12724854079,-187500.02235174447,-187500.02235174447,-187500.02235174447,-187500.02235174447,-187500.02235174447,1731452003.2034764,1731452001.2928247,5000
-6497.182726524202,-187500.02235174447,8524.530652109463,-187500.02235174447,-187500.02235174447,-187500.02235174447,-187500.02235174447,-187500.02235174447,1731452003.207486,1731452001.2928247,5000
-6498.322665491422,-187500.02235174447,8510.449053102619,-187500.02235174447,-187500.02235174447,-187500.02235174447,-187500.02235174447,-187500.02235174447,1731452003.21146,1731452001.2928247,5000
-6483.436403684188,-187500.02235174447,8519.300343906922,-187500.02235174447,-187500.02235174447,-187500.02235174447,-187500.02235174447,-187500.02235174447,1731452003.2154272,1731452001.2928247,5000
-6475.501534402554,-187500.02235174447,8556.717164125104,-187500.02235174447,-187500.02235174447,-187500.02235174447,-187500.02235174447,-187500.02235174447,1731452003.218423,1731452001.2928247,5000
-6483.212886239635,-187500.02235174447,8538.276974949476,-187500.02235174447,-187500.02235174447,-187500.02235174447,-187500.02235174447,-187500.02235174447,1731452003.222394,1731452001.2928247,5000
-6508.962095852148,-187500.02235174447,8536.22061445959,-187500.02235174447,-187500.02235174447,-187500.02235174447,-187500.02235174447,-187500.02235174447,1731452003.2273736,1731452001.2928247,5000
-6548.949366682693,-187500.02235174447,8558.59471065935,-187500.02235174447,-187500.02235174447,-187500.02235174447,-187500.02235174447,-187500.02235174447,1731452003.2314718,1731452001.2928247,5000
-6485.828040340905,-187500.02235174447,8568.049498563945,-187500.02235174447,-187500.02235174447,-187500.02235174447,-187500.02235174447,-187500.02235174447,1731452003.2353935,1731452001.2928247,5000
-6496.690988146185,-187500.02235174447,8553.185588501166,-187500.02235174447,-187500.02235174447,-187500.02235174447,-187500.02235174447,-187500.02235174447,1731452003.239456,1731452001.2928247,5000
-6544.143741624802,-187500.02235174447,8529.49273937854,-187500.02235174447,-187500.02235174447,-187500.02235174447,-187500.02235174447,-187500.02235174447,1731452003.2425497,1731452001.2928247,5000
-6529.592755984397,-187500.02235174447,8531.571451612885,-187500.02235174447,-187500.02235174447,-187500.02235174447,-187500.02235174447,-187500.02235174447,1731452003.246609,1731452001.2928247,5000
-6474.786278579984,-187500.02235174447,8542.54615814044,-187500.02235174447,-187500.02235174447,-187500.02235174447,-187500.02235174447,-187500.02235174447,1731452003.2505226,1731452001.2928247,5000
-6494.120537533825,-187500.02235174447,8520.283820662955,-187500.02235174447,-187500.02235174447,-187500.02235174447,-187500.02235174447,-187500.02235174447,1731452003.2555838,1731452001.2928247,5000
-6543.495541035598,-187500.02235174447,8500.30136111991,-187500.02235174447,-187500.02235174447,-187500.02235174447,-187500.02235174447,-187500.02235174447,1731452003.2595446,1731452001.2928247,5000
-6529.123369350836,-187500.02235174447,8537.986402271557,-187500.02235174447,-187500.02235174447,-187500.02235174447,-187500.02235174447,-187500.02235174447,1731452003.2636237,1731452001.2928247,5000
-6489.672540387219,-187500.02235174447,8549.408143688219,-187500.02235174447,-187500.02235174447,-187500.02235174447,-187500.02235174447,-187500.02235174447,1731452003.2676358,1731452001.2928247,5000
-6480.105993760347,-187500.02235174447,8521.915498008191,-187500.02235174447,-187500.02235174447,-187500.02235174447,-187500.02235174447,-187500.02235174447,1731452003.2705245,1731452001.2928247,5000
-6492.421804955221,-187500.02235174447,8518.20510842861,-187500.02235174447,-187500.02235174447,-187500.02235174447,-187500.02235174447,-187500.02235174447,1731452003.2747228,1731452001.2928247,5000
-6510.437310986199,-187500.02235174447,8524.30713466491,-187500.02235174447,-187500.02235174447,-187500.02235174447,-187500.02235174447,-187500.02235174447,1731452003.2786207,1731452001.2928247,5000
-6500.580191681408,-187500.02235174447,8543.149655240733,-187500.02235174447,-187500.02235174447,-187500.02235174447,-187500.02235174447,-187500.02235174447,1731452003.2825787,1731452001.2928247,5000
-6446.488970099565,-187500.02235174447,8522.92132650868,-187500.02235174447,-187500.02235174447,-187500.02235174447,-187500.02235174447,-187500.02235174447,1731452003.2876425,1731452001.2928247,5000
-6495.260476501046,-187500.02235174447,8554.526693168486,-187500.02235174447,-187500.02235174447,-187500.02235174447,-187500.02235174447,-187500.02235174447,1731452003.291685,1731452001.2928247,5000
-6532.565537996953,-187500.02235174447,8547.68705936516,-187500.02235174447,-187500.02235174447,-187500.02235174447,-187500.02235174447,-187500.02235174447,1731452003.2955427,1731452001.2928247,5000
-6500.826060870417,-187500.02235174447,8543.30611745192,-187500.02235174447,-187500.02235174447,-187500.02235174447,-187500.02235174447,-187500.02235174447,1731452003.2987163,1731452001.2928247,5000
-6479.1225170043135,-187500.02235174447,8553.632623390273,-187500.02235174447,-187500.02235174447,-187500.02235174447,-187500.02235174447,-187500.02235174447,1731452003.302714,1731452001.2928247,5000
-6514.371218010333,-187500.02235174447,8540.02041101699,-187500.02235174447,-187500.02235174447,-187500.02235174447,-187500.02235174447,-187500.02235174447,1731452003.306635,1731452001.2928247,5000
-6553.397363829299,-187500.02235174447,8519.814434029393,-187500.02235174447,-187500.02235174447,-187500.02235174447,-187500.02235174447,-187500.02235174447,1731452003.3107708,1731452001.2928247,5000
-6523.557784981464,-187500.02235174447,8520.194413685133,-187500.02235174447,-187500.02235174447,-187500.02235174447,-187500.02235174447,-187500.02235174447,1731452003.3156357,1731452001.2928247,5000
-6466.314967431423,-187500.02235174447,8553.118533267801,-187500.02235174447,-187500.02235174447,-187500.02235174447,-187500.02235174447,-187500.02235174447,1731452003.31973,1731452001.2928247,5000
-6491.080700287903,-187500.02235174447,8548.782294843471,-187500.02235174447,-187500.02235174447,-187500.02235174447,-187500.02235174447,-187500.02235174447,1731452003.322652,1731452001.2928247,5000
-6541.930918923727,-187500.02235174447,8524.262431176,-187500.02235174447,-187500.02235174447,-187500.02235174447,-187500.02235174447,-187500.02235174447,1731452003.3268645,1731452001.2928247,5000
-6504.759967894551,-187500.02235174447,8523.54717535343,-187500.02235174447,-187500.02235174447,-187500.02235174447,-187500.02235174447,-187500.02235174447,1731452003.331761,1731452001.2928247,5000
-6493.2711712445225,-187500.02235174447,8515.053512460412,-187500.02235174447,-187500.02235174447,-187500.02235174447,-187500.02235174447,-187500.02235174447,1731452003.336697,1731452001.2928247,5000
-6526.351753038377,-187500.02235174447,8514.651181060217,-187500.02235174447,-187500.02235174447,-187500.02235174447,-187500.02235174447,-187500.02235174447,1731452003.3397615,1731452001.2928247,5000
-6530.53152925152,-187500.02235174447,8513.354779881809,-187500.02235174447,-187500.02235174447,-187500.02235174447,-187500.02235174447,-187500.02235174447,1731452003.3435853,1731452001.2928247,5000
-6526.955250138671,-187500.02235174447,8516.618134572283,-187500.02235174447,-187500.02235174447,-187500.02235174447,-187500.02235174447,-187500.02235174447,1731452003.3476305,1731452001.2928247,5000
-6454.960281248126,-187500.02235174447,8562.327451983387,-187500.02235174447,-187500.02235174447,-187500.02235174447,-187500.02235174447,-187500.02235174447,1731452003.350607,1731452001.2928247,5000
-6456.837827782372,-187500.02235174447,8550.838655333358,-187500.02235174447,-187500.02235174447,-187500.02235174447,-187500.02235174447,-187500.02235174447,1731452003.3545804,1731452001.2928247,5000
-6524.474206504132,-187500.02235174447,8513.354779881809,-187500.02235174447,-187500.02235174447,-187500.02235174447,-187500.02235174447,-187500.02235174447,1731452003.3588035,1731452001.2928247,5000
-6542.467360790653,-187500.02235174447,8528.822187044882,-187500.02235174447,-187500.02235174447,-187500.02235174447,-187500.02235174447,-187500.02235174447,1731452003.362733,1731452001.2928247,5000
-6458.693022572163,-187500.02235174447,8547.552948898428,-187500.02235174447,-187500.02235174447,-187500.02235174447,-187500.02235174447,-187500.02235174447,1731452003.366701,1731452001.2928247,5000
-6499.596714925375,-187500.02235174447,8513.645352559728,-187500.02235174447,-187500.02235174447,-187500.02235174447,-187500.02235174447,-187500.02235174447,1731452003.371599,1731452001.2928247,5000
-6528.564575739453,-187500.02235174447,8484.185753367634,-187500.02235174447,-187500.02235174447,-187500.02235174447,-187500.02235174447,-187500.02235174447,1731452003.37572,1731452001.2928247,5000
-6510.19144179719,-187500.02235174447,8518.74155029554,-187500.02235174447,-187500.02235174447,-187500.02235174447,-187500.02235174447,-187500.02235174447,1731452003.378718,1731452001.2928247,5000
-6517.858090145361,-187500.02235174447,8556.31483272491,-187500.02235174447,-187500.02235174447,-187500.02235174447,-187500.02235174447,-187500.02235174447,1731452003.382738,1731452001.2928247,5000
-6467.119630231814,-187500.02235174447,8560.963995571614,-187500.02235174447,-187500.02235174447,-187500.02235174447,-187500.02235174447,-187500.02235174447,1731452003.3868048,1731452001.2928247,5000
-6509.699703419174,-187500.02235174447,8518.45097761762,-187500.02235174447,-187500.02235174447,-187500.02235174447,-187500.02235174447,-187500.02235174447,1731452003.3906667,1731452001.2928247,5000
-6541.036849145514,-187500.02235174447,8508.951486224114,-187500.02235174447,-187500.02235174447,-187500.02235174447,-187500.02235174447,-187500.02235174447,1731452003.3948095,1731452001.2928247,5000
-6434.888414727261,-187500.02235174447,8547.821169831894,-187500.02235174447,-187500.02235174447,-187500.02235174447,-187500.02235174447,-187500.02235174447,1731452003.39881,1731452001.2928247,5000
-6486.208019996646,-187500.02235174447,8566.59663517435,-187500.02235174447,-187500.02235174447,-187500.02235174447,-187500.02235174447,-187500.02235174447,1731452003.403628,1731452001.2928247,5000
-6517.880441889816,-187500.02235174447,8541.78619882896,-187500.02235174447,-187500.02235174447,-187500.02235174447,-187500.02235174447,-187500.02235174447,1731452003.40668,1731452001.2928247,5000
-6544.657831747274,-187500.02235174447,8519.389750884742,-187500.02235174447,-187500.02235174447,-187500.02235174447,-187500.02235174447,-187500.02235174447,1731452003.410869,1731452001.2928247,5000
-6512.1136918203465,-187500.02235174447,8521.446111374631,-187500.02235174447,-187500.02235174447,-187500.02235174447,-187500.02235174447,-187500.02235174447,1731452003.4148412,1731452001.2928247,5000
-6472.528752389998,-187500.02235174447,8531.68321033516,-187500.02235174447,-187500.02235174447,-187500.02235174447,-187500.02235174447,-187500.02235174447,1731452003.418986,1731452001.2928247,5000
-6511.152566808769,-187500.02235174447,8522.250774175021,-187500.02235174447,-187500.02235174447,-187500.02235174447,-187500.02235174447,-187500.02235174447,1731452003.4246967,1731452001.2928247,5000
-6558.91824470976,-187500.02235174447,8484.163401623178,-187500.02235174447,-187500.02235174447,-187500.02235174447,-187500.02235174447,-187500.02235174447,1731452003.4287047,1731452001.2928247,5000
-6530.598584484886,-187500.02235174447,8467.15372409269,-187500.02235174447,-187500.02235174447,-187500.02235174447,-187500.02235174447,-187500.02235174447,1731452003.4318068,1731452001.2928247,5000
-6421.544423287442,-187500.02235174447,8527.615192844296,-187500.02235174447,-187500.02235174447,-187500.02235174447,-187500.02235174447,-187500.02235174447,1731452003.43574,1731452001.2928247,5000
-6470.427688411199,-187500.02235174447,8557.298309480942,-187500.02235174447,-187500.02235174447,-187500.02235174447,-187500.02235174447,-187500.02235174447,1731452003.4388564,1731452001.2928247,5000
-6563.522704067553,-187500.02235174447,8529.82801554537,-187500.02235174447,-187500.02235174447,-187500.02235174447,-187500.02235174447,-187500.02235174447,1731452003.4427943,1731452001.2928247,5000
-6543.2943753355,-187500.02235174447,8518.20510842861,-187500.02235174447,-187500.02235174447,-187500.02235174447,-187500.02235174447,-187500.02235174447,1731452003.4468296,1731452001.2928247,5000
-6472.66286285673,-187500.02235174447,8517.601611328319,-187500.02235174447,-187500.02235174447,-187500.02235174447,-187500.02235174447,-187500.02235174447,1731452003.4507277,1731452001.2928247,5000
-6491.773604366017,-187500.02235174447,8504.414082099687,-187500.02235174447,-187500.02235174447,-187500.02235174447,-187500.02235174447,-187500.02235174447,1731452003.4547918,1731452001.2928247,5000
-6568.373032614355,-187500.02235174447,8491.181849382145,-187500.02235174447,-187500.02235174447,-187500.02235174447,-187500.02235174447,-187500.02235174447,1731452003.458822,1731452001.2928247,5000
-6550.603395772386,-187500.02235174447,8533.1137219803,-187500.02235174447,-187500.02235174447,-187500.02235174447,-187500.02235174447,-187500.02235174447,1731452003.4618125,1731452001.2928247,5000
-6459.363574905822,-187500.02235174447,8540.243928461543,-187500.02235174447,-187500.02235174447,-187500.02235174447,-187500.02235174447,-187500.02235174447,1731452003.4667578,1731452001.2928247,5000
-6501.09428180388,-187500.02235174447,8478.284892831432,-187500.02235174447,-187500.02235174447,-187500.02235174447,-187500.02235174447,-187500.02235174447,1731452003.4708676,1731452001.2928247,5000
-6546.177750370235,-187500.02235174447,8489.170192381167,-187500.02235174447,-187500.02235174447,-187500.02235174447,-187500.02235174447,-187500.02235174447,1731452003.4747913,1731452001.2928247,5000
-6509.207965041157,-187500.02235174447,8549.005812288024,-187500.02235174447,-187500.02235174447,-187500.02235174447,-187500.02235174447,-187500.02235174447,1731452003.4787576,1731452001.2928247,5000
-6490.231333998601,-187500.02235174447,8541.249756962032,-187500.02235174447,-187500.02235174447,-187500.02235174447,-187500.02235174447,-187500.02235174447,1731452003.483791,1731452001.2928247,5000
-6465.823229053406,-187500.02235174447,8543.283765707465,-187500.02235174447,-187500.02235174447,-187500.02235174447,-187500.02235174447,-187500.02235174447,1731452003.486758,1731452001.2928247,5000
-6483.771679851017,-187500.02235174447,8507.699788534617,-187500.02235174447,-187500.02235174447,-187500.02235174447,-187500.02235174447,-187500.02235174447,1731452003.489742,1731452001.2928247,5000
-6548.39057307131,-187500.02235174447,8504.034102443946,-187500.02235174447,-187500.02235174447,-187500.02235174447,-187500.02235174447,-187500.02235174447,1731452003.4948487,1731452001.2928247,5000
-6518.662752945752,-187500.02235174447,8519.501509607018,-187500.02235174447,-187500.02235174447,-187500.02235174447,-187500.02235174447,-187500.02235174447,1731452003.4988413,1731452001.2928247,5000
-6421.924402943183,-187500.02235174447,8516.707541550106,-187500.02235174447,-187500.02235174447,-187500.02235174447,-187500.02235174447,-187500.02235174447,1731452003.5028973,1731452001.2928247,5000
-6432.072094925892,-187500.02235174447,8507.051587945412,-187500.02235174447,-187500.02235174447,-187500.02235174447,-187500.02235174447,-187500.02235174447,1731452003.5080569,1731452001.2928247,5000
-6607.823861577972,-187500.02235174447,8500.100195419813,-187500.02235174447,-187500.02235174447,-187500.02235174447,-187500.02235174447,-187500.02235174447,1731452003.5108964,1731452001.2928247,5000
-6548.479980049131,-187500.02235174447,8506.850422245316,-187500.02235174447,-187500.02235174447,-187500.02235174447,-187500.02235174447,-187500.02235174447,1731452003.5149395,1731452001.2928247,5000
-6486.364482207833,-187500.02235174447,8515.478195605063,-187500.02235174447,-187500.02235174447,-187500.02235174447,-187500.02235174447,-187500.02235174447,1731452003.519086,1731452001.2928247,5000
-6494.880496845305,-187500.02235174447,8506.805718756405,-187500.02235174447,-187500.02235174447,-187500.02235174447,-187500.02235174447,-187500.02235174447,1731452003.5231004,1731452001.2928247,5000
-6527.0223053720365,-187500.02235174447,8498.647332030218,-187500.02235174447,-187500.02235174447,-187500.02235174447,-187500.02235174447,-187500.02235174447,1731452003.5271287,1731452001.2928247,5000
-6532.118503107847,-187500.02235174447,8489.77368948146,-187500.02235174447,-187500.02235174447,-187500.02235174447,-187500.02235174447,-187500.02235174447,1731452003.5300083,1731452001.2928247,5000
-6516.025247100026,-187500.02235174447,8512.30424789241,-187500.02235174447,-187500.02235174447,-187500.02235174447,-187500.02235174447,-187500.02235174447,1731452003.534082,1731452001.2928247,5000
-6474.562761135431,-187500.02235174447,8530.722085323583,-187500.02235174447,-187500.02235174447,-187500.02235174447,-187500.02235174447,-187500.02235174447,1731452003.5390368,1731452001.2928247,5000
-6506.078720817414,-187500.02235174447,8505.039930944435,-187500.02235174447,-187500.02235174447,-187500.02235174447,-187500.02235174447,-187500.02235174447,1731452003.5430608,1731452001.2928247,5000
-6532.856110674872,-187500.02235174447,8512.237192659044,-187500.02235174447,-187500.02235174447,-187500.02235174447,-187500.02235174447,-187500.02235174447,1731452003.5471425,1731452001.2928247,5000
-6504.447043472176,-187500.02235174447,8508.057416445901,-187500.02235174447,-187500.02235174447,-187500.02235174447,-187500.02235174447,-187500.02235174447,1731452003.5511713,1731452001.2928247,5000
-6476.350900691856,-187500.02235174447,8530.029181245469,-187500.02235174447,-187500.02235174447,-187500.02235174447,-187500.02235174447,-187500.02235174447,1731452003.5549788,1731452001.2928247,5000
-6530.486825762609,-187500.02235174447,8502.558887309897,-187500.02235174447,-187500.02235174447,-187500.02235174447,-187500.02235174447,-187500.02235174447,1731452003.5590718,1731452001.2928247,5000
-6535.337154309411,-187500.02235174447,8500.01078844199,-187500.02235174447,-187500.02235174447,-187500.02235174447,-187500.02235174447,-187500.02235174447,1731452003.5618896,1731452001.2928247,5000
-6484.375176951311,-187500.02235174447,8527.302268421921,-187500.02235174447,-187500.02235174447,-187500.02235174447,-187500.02235174447,-187500.02235174447,1731452003.5660448,1731452001.2928247,5000
-6478.809592581939,-187500.02235174447,8518.83095727336,-187500.02235174447,-187500.02235174447,-187500.02235174447,-187500.02235174447,-187500.02235174447,1731452003.5711727,1731452001.2928247,5000
-6527.826968172428,-187500.02235174447,8498.267352374478,-187500.02235174447,-187500.02235174447,-187500.02235174447,-187500.02235174447,-187500.02235174447,1731452003.575128,1731452001.2928247,5000
-6547.585910270919,-187500.02235174447,8482.509372533486,-187500.02235174447,-187500.02235174447,-187500.02235174447,-187500.02235174447,-187500.02235174447,1731452003.5791996,1731452001.2928247,5000
-6522.551956480976,-187500.02235174447,8501.262486131489,-187500.02235174447,-187500.02235174447,-187500.02235174447,-187500.02235174447,-187500.02235174447,1731452003.5821886,1731452001.2928247,5000
-6494.724034634118,-187500.02235174447,8508.549154823919,-187500.02235174447,-187500.02235174447,-187500.02235174447,-187500.02235174447,-187500.02235174447,1731452003.5859358,1731452001.2928247,5000
-6508.582116196409,-187500.02235174447,8488.432584814142,-187500.02235174447,-187500.02235174447,-187500.02235174447,-187500.02235174447,-187500.02235174447,1731452003.590119,1731452001.2928247,5000
-6529.793921684494,-187500.02235174447,8504.704654777606,-187500.02235174447,-187500.02235174447,-187500.02235174447,-187500.02235174447,-187500.02235174447,1731452003.5952716,1731452001.2928247,5000
-6529.14572109529,-187500.02235174447,8488.499640047508,-187500.02235174447,-187500.02235174447,-187500.02235174447,-187500.02235174447,-187500.02235174447,1731452003.5990815,1731452001.2928247,5000
-6474.182781479691,-187500.02235174447,8508.035064701446,-187500.02235174447,-187500.02235174447,-187500.02235174447,-187500.02235174447,-187500.02235174447,1731452003.6029932,1731452001.2928247,5000
-6515.24293604409,-187500.02235174447,8536.198262715134,-187500.02235174447,-187500.02235174447,-187500.02235174447,-187500.02235174447,-187500.02235174447,1731452003.606979,1731452001.2928247,5000
-6556.995994686604,-187500.02235174447,8499.340236108332,-187500.02235174447,-187500.02235174447,-187500.02235174447,-187500.02235174447,-187500.02235174447,1731452003.6100428,1731452001.2928247,5000
-6482.028243783503,-187500.02235174447,8526.005867243513,-187500.02235174447,-187500.02235174447,-187500.02235174447,-187500.02235174447,-187500.02235174447,1731452003.6141796,1731452001.2928247,5000
-6434.307269371423,-187500.02235174447,8542.45675116262,-187500.02235174447,-187500.02235174447,-187500.02235174447,-187500.02235174447,-187500.02235174447,1731452003.6181011,1731452001.2928247,5000
-6489.292560731478,-187500.02235174447,8509.532631579952,-187500.02235174447,-187500.02235174447,-187500.02235174447,-187500.02235174447,-187500.02235174447,1731452003.6220877,1731452001.2928247,5000
-6546.9824131706255,-187500.02235174447,8490.690111004127,-187500.02235174447,-187500.02235174447,-187500.02235174447,-187500.02235174447,-187500.02235174447,1731452003.6271129,1731452001.2928247,5000
-6542.445009046199,-187500.02235174447,8501.217782642578,-187500.02235174447,-187500.02235174447,-187500.02235174447,-187500.02235174447,-187500.02235174447,1731452003.631117,1731452001.2928247,5000
-6483.011720539537,-187500.02235174447,8508.772672268471,-187500.02235174447,-187500.02235174447,-187500.02235174447,-187500.02235174447,-187500.02235174447,1731452003.634117,1731452001.2928247,5000
-6486.073909529914,-187500.02235174447,8513.645352559728,-187500.02235174447,-187500.02235174447,-187500.02235174447,-187500.02235174447,-187500.02235174447,1731452003.6381245,1731452001.2928247,5000
-6533.325497308433,-187500.02235174447,8485.616265012774,-187500.02235174447,-187500.02235174447,-187500.02235174447,-187500.02235174447,-187500.02235174447,1731452003.6421933,1731452001.2928247,5000
-6516.785206411506,-187500.02235174447,8463.018651368458,-187500.02235174447,-187500.02235174447,-187500.02235174447,-187500.02235174447,-187500.02235174447,1731452003.6461272,1731452001.2928247,5000
-6499.931991092204,-187500.02235174447,8493.394672083221,-187500.02235174447,-187500.02235174447,-187500.02235174447,-187500.02235174447,-187500.02235174447,1731452003.650148,1731452001.2928247,5000
-6479.703662360152,-187500.02235174447,8519.434454373653,-187500.02235174447,-187500.02235174447,-187500.02235174447,-187500.02235174447,-187500.02235174447,1731452003.6561153,1731452001.2928247,5000
-6498.367368980333,-187500.02235174447,8523.189547442145,-187500.02235174447,-187500.02235174447,-187500.02235174447,-187500.02235174447,-187500.02235174447,1731452003.659165,1731452001.2928247,5000
-6549.44110506071,-187500.02235174447,8504.2576198885,-187500.02235174447,-187500.02235174447,-187500.02235174447,-187500.02235174447,-187500.02235174447,1731452003.6631231,1731452001.2928247,5000
-6506.503403962065,-187500.02235174447,8503.229439643555,-187500.02235174447,-187500.02235174447,-187500.02235174447,-187500.02235174447,-187500.02235174447,1731452003.6661737,1731452001.2928247,5000
-6498.14385153578,-187500.02235174447,8510.046721702423,-187500.02235174447,-187500.02235174447,-187500.02235174447,-187500.02235174447,-187500.02235174447,1731452003.6701615,1731452001.2928247,5000
-6524.183633826213,-187500.02235174447,8476.92143641966,-187500.02235174447,-187500.02235174447,-187500.02235174447,-187500.02235174447,-187500.02235174447,1731452003.6742115,1731452001.2928247,5000
-6551.229244617134,-187500.02235174447,8479.424831798653,-187500.02235174447,-187500.02235174447,-187500.02235174447,-187500.02235174447,-187500.02235174447,1731452003.678079,1731452001.2928247,5000
-6492.690025888685,-187500.02235174447,8519.63562007375,-187500.02235174447,-187500.02235174447,-187500.02235174447,-187500.02235174447,-187500.02235174447,1731452003.68219,1731452001.2928247,5000
-6470.874723300305,-187500.02235174447,8534.678344092172,-187500.02235174447,-187500.02235174447,-187500.02235174447,-187500.02235174447,-187500.02235174447,1731452003.687224,1731452001.2928247,5000
-6517.321648278434,-187500.02235174447,8497.172116896167,-187500.02235174447,-187500.02235174447,-187500.02235174447,-187500.02235174447,-187500.02235174447,1731452003.6901946,1731452001.2928247,5000
