Fp1,Fp2,C3,C4,P7,P8,O1,O2,time_board,time_marker,marker
-21016.764165969395,-187500.02235174447,2476.2156577367377,-187500.02235174447,-187500.02235174447,-187500.02235174447,-187500.02235174447,-187500.02235174447,1730329071.9855404,1730329071.983646,5000
-20982.610700441684,-187500.02235174447,2533.2796613311366,-187500.02235174447,-187500.02235174447,-187500.02235174447,-187500.02235174447,-187500.02235174447,1730329071.9887705,1730329071.983646,5000
-20949.194842481,-187500.02235174447,2543.0473736581057,-187500.02235174447,-187500.02235174447,-187500.02235174447,-187500.02235174447,-187500.02235174447,1730329071.9938767,1730329071.983646,5000
-20980.889616118624,-187500.02235174447,2474.874553069419,-187500.02235174447,-187500.02235174447,-187500.02235174447,-187500.02235174447,-187500.02235174447,1730329071.9976668,1730329071.983646,5000
-21026.800099229826,-187500.02235174447,2441.3469363864588,-187500.02235174447,-187500.02235174447,-187500.02235174447,-187500.02235174447,-187500.02235174447,1730329072.0018213,1730329071.983646,5000
-21011.802078700315,-187500.02235174447,2503.842413883497,-187500.02235174447,-187500.02235174447,-187500.02235174447,-187500.02235174447,-187500.02235174447,1730329072.005684,1730329071.983646,5000
-20961.28713623132,-187500.02235174447,2540.8121992125757,-187500.02235174447,-187500.02235174447,-187500.02235174447,-187500.02235174447,-187500.02235174447,1730329072.0097473,1730329071.983646,5000
-20966.517444433863,-187500.02235174447,2490.520774188134,-187500.02235174447,-187500.02235174447,-187500.02235174447,-187500.02235174447,-187500.02235174447,1730329072.0136232,1730329071.983646,5000
-21013.63492174565,-187500.02235174447,2451.8969597693635,-187500.02235174447,-187500.02235174447,-187500.02235174447,-187500.02235174447,-187500.02235174447,1730329072.0166247,1730329071.983646,5000
-21004.761279196893,-187500.02235174447,2497.203945780271,-187500.02235174447,-187500.02235174447,-187500.02235174447,-187500.02235174447,-187500.02235174447,1730329072.020671,1730329071.983646,5000
-20959.47664493044,-187500.02235174447,2545.751934737198,-187500.02235174447,-187500.02235174447,-187500.02235174447,-187500.02235174447,-187500.02235174447,1730329072.0257795,1730329071.983646,5000
-20962.181206009533,-187500.02235174447,2510.97262036474,-187500.02235174447,-187500.02235174447,-187500.02235174447,-187500.02235174447,-187500.02235174447,1730329072.029668,1730329071.983646,5000
-21010.2598083329,-187500.02235174447,2461.0835267404946,-187500.02235174447,-187500.02235174447,-187500.02235174447,-187500.02235174447,-187500.02235174447,1730329072.03381,1730329071.983646,5000
-21021.949770683023,-187500.02235174447,2486.273942741626,-187500.02235174447,-187500.02235174447,-187500.02235174447,-187500.02235174447,-187500.02235174447,1730329072.03782,1730329071.983646,5000
-20974.564072437774,-187500.02235174447,2544.4778853032453,-187500.02235174447,-187500.02235174447,-187500.02235174447,-187500.02235174447,-187500.02235174447,1730329072.0417526,1730329071.983646,5000
-20952.05586577128,-187500.02235174447,2536.0289258991397,-187500.02235174447,-187500.02235174447,-187500.02235174447,-187500.02235174447,-187500.02235174447,1730329072.044717,1730329071.983646,5000
-21003.39782278512,-187500.02235174447,2470.046576267073,-187500.02235174447,-187500.02235174447,-187500.02235174447,-187500.02235174447,-187500.02235174447,1730329072.0487866,1730329071.983646,5000
-21016.54064852484,-187500.02235174447,2483.30116072907,-187500.02235174447,-187500.02235174447,-187500.02235174447,-187500.02235174447,-187500.02235174447,1730329072.053774,1730329071.983646,5000
-20958.269650729853,-187500.02235174447,2544.45553355879,-187500.02235174447,-187500.02235174447,-187500.02235174447,-187500.02235174447,-187500.02235174447,1730329072.0578249,1730329071.983646,5000
-20931.067577727747,-187500.02235174447,2545.327251592547,-187500.02235174447,-187500.02235174447,-187500.02235174447,-187500.02235174447,-187500.02235174447,1730329072.0616531,1730329071.983646,5000
-20980.66609867407,-187500.02235174447,2481.781242106109,-187500.02235174447,-187500.02235174447,-187500.02235174447,-187500.02235174447,-187500.02235174447,1730329072.0658622,1730329071.983646,5000
-21012.047947889325,-187500.02235174447,2484.8210793520307,-187500.02235174447,-187500.02235174447,-187500.02235174447,-187500.02235174447,-187500.02235174447,1730329072.0688305,1730329071.983646,5000
-20988.1539330666,-187500.02235174447,2540.78984746812,-187500.02235174447,-187500.02235174447,-187500.02235174447,-187500.02235174447,-187500.02235174447,1730329072.072908,1730329071.983646,5000
-20960.996563553403,-187500.02235174447,2542.913263191374,-187500.02235174447,-187500.02235174447,-187500.02235174447,-187500.02235174447,-187500.02235174447,1730329072.0768952,1730329071.983646,5000
-20989.830313900748,-187500.02235174447,2484.530506674112,-187500.02235174447,-187500.02235174447,-187500.02235174447,-187500.02235174447,-187500.02235174447,1730329072.0809474,1730329071.983646,5000
-21028.87881146417,-187500.02235174447,2469.398375677869,-187500.02235174447,-187500.02235174447,-187500.02235174447,-187500.02235174447,-187500.02235174447,1730329072.0857008,1730329071.983646,5000
-21005.38712804164,-187500.02235174447,2527.110579861472,-187500.02235174447,-187500.02235174447,-187500.02235174447,-187500.02235174447,-187500.02235174447,1730329072.089922,1730329071.983646,5000
-20966.964479322967,-187500.02235174447,2558.7382982657314,-187500.02235174447,-187500.02235174447,-187500.02235174447,-187500.02235174447,-187500.02235174447,1730329072.0929203,1730329071.983646,5000
-20993.54070348033,-187500.02235174447,2501.6742946713325,-187500.02235174447,-187500.02235174447,-187500.02235174447,-187500.02235174447,-187500.02235174447,1730329072.0969524,1730329071.983646,5000
-21039.63000054717,-187500.02235174447,2465.330358187003,-187500.02235174447,-187500.02235174447,-187500.02235174447,-187500.02235174447,-187500.02235174447,1730329072.1008024,1730329071.983646,5000
-21014.931322924054,-187500.02235174447,2526.998821139195,-187500.02235174447,-187500.02235174447,-187500.02235174447,-187500.02235174447,-187500.02235174447,1730329072.1048827,1730329071.983646,5000
-20979.928491107046,-187500.02235174447,2557.620711042966,-187500.02235174447,-187500.02235174447,-187500.02235174447,-187500.02235174447,-187500.02235174447,1730329072.1087503,1730329071.983646,5000
-20993.02661335785,-187500.02235174447,2494.477032956724,-187500.02235174447,-187500.02235174447,-187500.02235174447,-187500.02235174447,-187500.02235174447,1730329072.1137416,1730329071.983646,5000
-21033.50562256642,-187500.02235174447,2455.137962715383,-187500.02235174447,-187500.02235174447,-187500.02235174447,-187500.02235174447,-187500.02235174447,1730329072.117762,1730329071.983646,5000
-21026.50952655191,-187500.02235174447,2515.7111901892654,-187500.02235174447,-187500.02235174447,-187500.02235174447,-187500.02235174447,-187500.02235174447,1730329072.1208348,1730329071.983646,5000
-20985.15879930959,-187500.02235174447,2557.285434876136,-187500.02235174447,-187500.02235174447,-187500.02235174447,-187500.02235174447,-187500.02235174447,1730329072.1247787,1730329071.983646,5000
-20976.039287571824,-187500.02235174447,2524.1825013378266,-187500.02235174447,-187500.02235174447,-187500.02235174447,-187500.02235174447,-187500.02235174447,1730329072.128772,1730329071.983646,5000
-21020.049872404325,-187500.02235174447,2465.1962477202715,-187500.02235174447,-187500.02235174447,-187500.02235174447,-187500.02235174447,-187500.02235174447,1730329072.1330032,1730329071.983646,5000
-21034.35498885572,-187500.02235174447,2482.854125839964,-187500.02235174447,-187500.02235174447,-187500.02235174447,-187500.02235174447,-187500.02235174447,1730329072.1368785,1730329071.983646,5000
-21002.63786347364,-187500.02235174447,2529.9939548962066,-187500.02235174447,-187500.02235174447,-187500.02235174447,-187500.02235174447,-187500.02235174447,1730329072.1418705,1730329071.983646,5000
-20992.93720638004,-187500.02235174447,2513.3419052770028,-187500.02235174447,-187500.02235174447,-187500.02235174447,-187500.02235174447,-187500.02235174447,1730329072.1460173,1730329071.983646,5000
-21030.912820209604,-187500.02235174447,2455.4732388822126,-187500.02235174447,-187500.02235174447,-187500.02235174447,-187500.02235174447,-187500.02235174447,1730329072.14901,1730329071.983646,5000
-21049.10714019622,-187500.02235174447,2461.239988951682,-187500.02235174447,-187500.02235174447,-187500.02235174447,-187500.02235174447,-187500.02235174447,1730329072.152837,1730329071.983646,5000
-21012.74085196744,-187500.02235174447,2516.0911698450054,-187500.02235174447,-187500.02235174447,-187500.02235174447,-187500.02235174447,-187500.02235174447,1730329072.1569502,1730329071.983646,5000
-20990.009127856392,-187500.02235174447,2518.3263442905363,-187500.02235174447,-187500.02235174447,-187500.02235174447,-187500.02235174447,-187500.02235174447,1730329072.160822,1730329071.983646,5000
-21023.53674453935,-187500.02235174447,2468.8395820664864,-187500.02235174447,-187500.02235174447,-187500.02235174447,-187500.02235174447,-187500.02235174447,1730329072.1649156,1730329071.983646,5000
-21049.442416363054,-187500.02235174447,2463.6092738639445,-187500.02235174447,-187500.02235174447,-187500.02235174447,-187500.02235174447,-187500.02235174447,1730329072.1698856,1730329071.983646,5000
-21018.82052645928,-187500.02235174447,2519.198062324293,-187500.02235174447,-187500.02235174447,-187500.02235174447,-187500.02235174447,-187500.02235174447,1730329072.1740625,1730329071.983646,5000
-20980.62139518516,-187500.02235174447,2526.551786250089,-187500.02235174447,-187500.02235174447,-187500.02235174447,-187500.02235174447,-187500.02235174447,1730329072.1770728,1730329071.983646,5000
-21010.840953688737,-187500.02235174447,2464.659805853344,-187500.02235174447,-187500.02235174447,-187500.02235174447,-187500.02235174447,-187500.02235174447,1730329072.181043,1730329071.983646,5000
-21052.5716605868,-187500.02235174447,2439.6705555523104,-187500.02235174447,-187500.02235174447,-187500.02235174447,-187500.02235174447,-187500.02235174447,1730329072.1850257,1730329071.983646,5000
-21030.957523698515,-187500.02235174447,2494.3205707455363,-187500.02235174447,-187500.02235174447,-187500.02235174447,-187500.02235174447,-187500.02235174447,1730329072.1890547,1730329071.983646,5000
-20988.891540633624,-187500.02235174447,2525.747123449698,-187500.02235174447,-187500.02235174447,-187500.02235174447,-187500.02235174447,-187500.02235174447,1730329072.1930847,1730329071.983646,5000
-21004.604816985702,-187500.02235174447,2475.880381569908,-187500.02235174447,-187500.02235174447,-187500.02235174447,-187500.02235174447,-187500.02235174447,1730329072.1980867,1730329071.983646,5000
-21057.086712966768,-187500.02235174447,2427.913537968819,-187500.02235174447,-187500.02235174447,-187500.02235174447,-187500.02235174447,-187500.02235174447,1730329072.2021024,1730329071.983646,5000
-21041.0158087034,-187500.02235174447,2470.605369878456,-187500.02235174447,-187500.02235174447,-187500.02235174447,-187500.02235174447,-187500.02235174447,1730329072.2051632,1730329071.983646,5000
-20997.54166573783,-187500.02235174447,2514.3700855219467,-187500.02235174447,-187500.02235174447,-187500.02235174447,-187500.02235174447,-187500.02235174447,1730329072.2090852,1730329071.983646,5000
-21002.794325684827,-187500.02235174447,2479.3449019604805,-187500.02235174447,-187500.02235174447,-187500.02235174447,-187500.02235174447,-187500.02235174447,1730329072.213159,1730329071.983646,5000
-21055.387980388165,-187500.02235174447,2425.141921656361,-187500.02235174447,-187500.02235174447,-187500.02235174447,-187500.02235174447,-187500.02235174447,1730329072.217193,1730329071.983646,5000
-21058.94190775656,-187500.02235174447,2457.037860994084,-187500.02235174447,-187500.02235174447,-187500.02235174447,-187500.02235174447,-187500.02235174447,1730329072.221154,1730329071.983646,5000
-21008.985758898947,-187500.02235174447,2527.1329316059278,-187500.02235174447,-187500.02235174447,-187500.02235174447,-187500.02235174447,-187500.02235174447,1730329072.2251563,1730329071.983646,5000
-21003.598988485217,-187500.02235174447,2488.598524164978,-187500.02235174447,-187500.02235174447,-187500.02235174447,-187500.02235174447,-187500.02235174447,1730329072.2289896,1730329071.983646,5000
-21045.59791631674,-187500.02235174447,2416.5141482966123,-187500.02235174447,-187500.02235174447,-187500.02235174447,-187500.02235174447,-187500.02235174447,1730329072.232208,1730329071.983646,5000
-21040.72523602548,-187500.02235174447,2450.287634168581,-187500.02235174447,-187500.02235174447,-187500.02235174447,-187500.02235174447,-187500.02235174447,1730329072.237023,1730329071.983646,5000
-20986.119924321167,-187500.02235174447,2511.4643587427568,-187500.02235174447,-187500.02235174447,-187500.02235174447,-187500.02235174447,-187500.02235174447,1730329072.2412,1730329071.983646,5000
-20969.087895046225,-187500.02235174447,2497.1592422913604,-187500.02235174447,-187500.02235174447,-187500.02235174447,-187500.02235174447,-187500.02235174447,1730329072.2449572,1730329071.983646,5000
-21016.02655840237,-187500.02235174447,2441.1234189419056,-187500.02235174447,-187500.02235174447,-187500.02235174447,-187500.02235174447,-187500.02235174447,1730329072.2490814,1730329071.983646,5000
-21039.428834847076,-187500.02235174447,2446.599596333456,-187500.02235174447,-187500.02235174447,-187500.02235174447,-187500.02235174447,-187500.02235174447,1730329072.2530668,1730329071.983646,5000
-21003.464878018487,-187500.02235174447,2501.026094082129,-187500.02235174447,-187500.02235174447,-187500.02235174447,-187500.02235174447,-187500.02235174447,1730329072.257027,1730329071.983646,5000
-20978.94501435101,-187500.02235174447,2501.4060737378686,-187500.02235174447,-187500.02235174447,-187500.02235174447,-187500.02235174447,-187500.02235174447,1730329072.2601,1730329071.983646,5000
-21011.198581600023,-187500.02235174447,2443.7385730431765,-187500.02235174447,-187500.02235174447,-187500.02235174447,-187500.02235174447,-187500.02235174447,1730329072.265114,1730329071.983646,5000
-21045.79908201684,-187500.02235174447,2427.4665030797128,-187500.02235174447,-187500.02235174447,-187500.02235174447,-187500.02235174447,-187500.02235174447,1730329072.2689872,1730329071.983646,5000
-21019.28991309284,-187500.02235174447,2481.133041516905,-187500.02235174447,-187500.02235174447,-187500.02235174447,-187500.02235174447,-187500.02235174447,1730329072.273242,1730329071.983646,5000
-20981.11313356318,-187500.02235174447,2484.552858418567,-187500.02235174447,-187500.02235174447,-187500.02235174447,-187500.02235174447,-187500.02235174447,1730329072.2772732,1730329071.983646,5000
-20998.636901216138,-187500.02235174447,2428.941718213763,-187500.02235174447,-187500.02235174447,-187500.02235174447,-187500.02235174447,-187500.02235174447,1730329072.281284,1730329071.983646,5000
-21033.88560222216,-187500.02235174447,2419.084598908973,-187500.02235174447,-187500.02235174447,-187500.02235174447,-187500.02235174447,-187500.02235174447,1730329072.2850256,1730329071.983646,5000
-21011.377395555664,-187500.02235174447,2485.49163168569,-187500.02235174447,-187500.02235174447,-187500.02235174447,-187500.02235174447,-187500.02235174447,1730329072.288282,1730329071.983646,5000
-20960.23660424192,-187500.02235174447,2522.3049548035806,-187500.02235174447,-187500.02235174447,-187500.02235174447,-187500.02235174447,-187500.02235174447,1730329072.29231,1730329071.983646,5000
-20968.77497062385,-187500.02235174447,2472.885247812897,-187500.02235174447,-187500.02235174447,-187500.02235174447,-187500.02235174447,-187500.02235174447,1730329072.2973,1730329071.983646,5000
-21014.238418845944,-187500.02235174447,2424.627831533889,-187500.02235174447,-187500.02235174447,-187500.02235174447,-187500.02235174447,-187500.02235174447,1730329072.30117,1730329071.983646,5000
-21005.92356990857,-187500.02235174447,2467.8784570549083,-187500.02235174447,-187500.02235174447,-187500.02235174447,-187500.02235174447,-187500.02235174447,1730329072.305308,1730329071.983646,5000
-20957.353229207187,-187500.02235174447,2516.3146872895586,-187500.02235174447,-187500.02235174447,-187500.02235174447,-187500.02235174447,-187500.02235174447,1730329072.309405,1730329071.983646,5000
-20959.208423996977,-187500.02235174447,2482.272980484126,-187500.02235174447,-187500.02235174447,-187500.02235174447,-187500.02235174447,-187500.02235174447,1730329072.3131435,1730329071.983646,5000
-21010.72919496646,-187500.02235174447,2427.5112065686235,-187500.02235174447,-187500.02235174447,-187500.02235174447,-187500.02235174447,-187500.02235174447,1730329072.3163402,1730329071.983646,5000
-21021.50273579392,-187500.02235174447,2451.6287388359,-187500.02235174447,-187500.02235174447,-187500.02235174447,-187500.02235174447,-187500.02235174447,1730329072.3212996,1730329071.983646,5000
-20976.86630211667,-187500.02235174447,2498.366236491947,-187500.02235174447,-187500.02235174447,-187500.02235174447,-187500.02235174447,-187500.02235174447,1730329072.3253703,1730329071.983646,5000
-20966.09276128921,-187500.02235174447,2466.760869832143,-187500.02235174447,-187500.02235174447,-187500.02235174447,-187500.02235174447,-187500.02235174447,1730329072.3293648,1730329071.983646,5000
-21012.24911358942,-187500.02235174447,2403.527784768079,-187500.02235174447,-187500.02235174447,-187500.02235174447,-187500.02235174447,-187500.02235174447,1730329072.3333712,1730329071.983646,5000
-21026.42011957409,-187500.02235174447,2430.2828228810818,-187500.02235174447,-187500.02235174447,-187500.02235174447,-187500.02235174447,-187500.02235174447,1730329072.3361382,1730329071.983646,5000
-20979.1014765622,-187500.02235174447,2507.2622307851598,-187500.02235174447,-187500.02235174447,-187500.02235174447,-187500.02235174447,-187500.02235174447,1730329072.3403935,1730329071.983646,5000
-20958.895499574603,-187500.02235174447,2487.1233090309274,-187500.02235174447,-187500.02235174447,-187500.02235174447,-187500.02235174447,-187500.02235174447,1730329072.3441708,1730329071.983646,5000
-20990.187941812037,-187500.02235174447,2424.404314089336,-187500.02235174447,-187500.02235174447,-187500.02235174447,-187500.02235174447,-187500.02235174447,1730329072.3483129,1730329071.983646,5000
-21011.332692066757,-187500.02235174447,2423.5549478000344,-187500.02235174447,-187500.02235174447,-187500.02235174447,-187500.02235174447,-187500.02235174447,1730329072.3531609,1730329071.983646,5000
-20975.458142215983,-187500.02235174447,2473.4216896798243,-187500.02235174447,-187500.02235174447,-187500.02235174447,-187500.02235174447,-187500.02235174447,1730329072.3573897,1730329071.983646,5000
-20951.72058960445,-187500.02235174447,2469.82305882252,-187500.02235174447,-187500.02235174447,-187500.02235174447,-187500.02235174447,-187500.02235174447,1730329072.361231,1730329071.983646,5000
-20989.003299355903,-187500.02235174447,2417.139997141361,-187500.02235174447,-187500.02235174447,-187500.02235174447,-187500.02235174447,-187500.02235174447,1730329072.364394,1730329071.983646,5000
-21005.364776297185,-187500.02235174447,2432.0486106930507,-187500.02235174447,-187500.02235174447,-187500.02235174447,-187500.02235174447,-187500.02235174447,1730329072.3684015,1730329071.983646,5000
-20982.11896206367,-187500.02235174447,2481.714186872743,-187500.02235174447,-187500.02235174447,-187500.02235174447,-187500.02235174447,-187500.02235174447,1730329072.3723648,1730329071.983646,5000
-20948.18901398051,-187500.02235174447,2498.0980155584834,-187500.02235174447,-187500.02235174447,-187500.02235174447,-187500.02235174447,-187500.02235174447,1730329072.3763037,1730329071.983646,5000
-20972.9994503259,-187500.02235174447,2441.3469363864588,-187500.02235174447,-187500.02235174447,-187500.02235174447,-187500.02235174447,-187500.02235174447,1730329072.3812995,1730329071.983646,5000
-21012.24911358942,-187500.02235174447,2408.3110580815146,-187500.02235174447,-187500.02235174447,-187500.02235174447,-187500.02235174447,-187500.02235174447,1730329072.3853092,1730329071.983646,5000
-21010.550381010817,-187500.02235174447,2447.8065905340422,-187500.02235174447,-187500.02235174447,-187500.02235174447,-187500.02235174447,-187500.02235174447,1730329072.390444,1730329071.983646,5000
-20978.92266260656,-187500.02235174447,2476.752099603665,-187500.02235174447,-187500.02235174447,-187500.02235174447,-187500.02235174447,-187500.02235174447,1730329072.3943136,1730329071.983646,5000
-20989.04800284481,-187500.02235174447,2432.942680471263,-187500.02235174447,-187500.02235174447,-187500.02235174447,-187500.02235174447,-187500.02235174447,1730329072.3973427,1730329071.983646,5000
-21015.33365432425,-187500.02235174447,2405.0700551354957,-187500.02235174447,-187500.02235174447,-187500.02235174447,-187500.02235174447,-187500.02235174447,1730329072.4014096,1730329071.983646,5000
-21001.90025590661,-187500.02235174447,2454.400355148358,-187500.02235174447,-187500.02235174447,-187500.02235174447,-187500.02235174447,-187500.02235174447,1730329072.4044263,1730329071.983646,5000
-20957.464987929463,-187500.02235174447,2504.9600011062626,-187500.02235174447,-187500.02235174447,-187500.02235174447,-187500.02235174447,-187500.02235174447,1730329072.408316,1730329071.983646,5000
-20960.370714708653,-187500.02235174447,2454.9367970152853,-187500.02235174447,-187500.02235174447,-187500.02235174447,-187500.02235174447,-187500.02235174447,1730329072.4134464,1730329071.983646,5000
-20979.81673238477,-187500.02235174447,2378.0020926001184,-187500.02235174447,-187500.02235174447,-187500.02235174447,-187500.02235174447,-187500.02235174447,1730329072.4174612,1730329071.983646,5000
-20970.473703202453,-187500.02235174447,2394.497680008135,-187500.02235174447,-187500.02235174447,-187500.02235174447,-187500.02235174447,-187500.02235174447,1730329072.4203053,1730329071.983646,5000
-20952.05586577128,-187500.02235174447,2431.333354870481,-187500.02235174447,-187500.02235174447,-187500.02235174447,-187500.02235174447,-187500.02235174447,1730329072.4246888,1730329071.983646,5000
-20938.26483944236,-187500.02235174447,2476.0591955255504,-187500.02235174447,-187500.02235174447,-187500.02235174447,-187500.02235174447,-187500.02235174447,1730329072.428498,1730329071.983646,5000
-20963.34349672121,-187500.02235174447,2476.193305992282,-187500.02235174447,-187500.02235174447,-187500.02235174447,-187500.02235174447,-187500.02235174447,1730329072.4325368,1730329071.983646,5000
-21005.811811186293,-187500.02235174447,2466.1573727318496,-187500.02235174447,-187500.02235174447,-187500.02235174447,-187500.02235174447,-187500.02235174447,1730329072.436417,1730329071.983646,5000
-20963.455255443485,-187500.02235174447,2519.6674489578545,-187500.02235174447,-187500.02235174447,-187500.02235174447,-187500.02235174447,-187500.02235174447,1730329072.441692,1730329071.983646,5000
-20915.53311533131,-187500.02235174447,2485.715149130243,-187500.02235174447,-187500.02235174447,-187500.02235174447,-187500.02235174447,-187500.02235174447,1730329072.4453304,1730329071.983646,5000
-20971.457179958485,-187500.02235174447,2421.3197733545035,-187500.02235174447,-187500.02235174447,-187500.02235174447,-187500.02235174447,-187500.02235174447,1730329072.4484491,1730329071.983646,5000
-21033.8632504777,-187500.02235174447,2409.2274796041825,-187500.02235174447,-187500.02235174447,-187500.02235174447,-187500.02235174447,-187500.02235174447,1730329072.4523456,1730329071.983646,5000
-20986.701069677005,-187500.02235174447,2459.6083116064447,-187500.02235174447,-187500.02235174447,-187500.02235174447,-187500.02235174447,-187500.02235174447,1730329072.4563837,1730329071.983646,5000
-20951.206499481978,-187500.02235174447,2463.318701186025,-187500.02235174447,-187500.02235174447,-187500.02235174447,-187500.02235174447,-187500.02235174447,1730329072.460482,1730329071.983646,5000
-20993.473648246963,-187500.02235174447,2390.630828217367,-187500.02235174447,-187500.02235174447,-187500.02235174447,-187500.02235174447,-187500.02235174447,1730329072.4646175,1730329071.983646,5000
-21003.26371231839,-187500.02235174447,2363.786383126543,-187500.02235174447,-187500.02235174447,-187500.02235174447,-187500.02235174447,-187500.02235174447,1730329072.4693575,1730329071.983646,5000
-20965.82454035575,-187500.02235174447,2451.6510905803552,-187500.02235174447,-187500.02235174447,-187500.02235174447,-187500.02235174447,-187500.02235174447,1730329072.4726353,1730329071.983646,5000
-20962.94116532101,-187500.02235174447,2479.4790124272126,-187500.02235174447,-187500.02235174447,-187500.02235174447,-187500.02235174447,-187500.02235174447,1730329072.4763792,1730329071.983646,5000
-20988.779781911348,-187500.02235174447,2411.105026138428,-187500.02235174447,-187500.02235174447,-187500.02235174447,-187500.02235174447,-187500.02235174447,1730329072.4803813,1730329071.983646,5000
-21020.54161078234,-187500.02235174447,2380.7066536792104,-187500.02235174447,-187500.02235174447,-187500.02235174447,-187500.02235174447,-187500.02235174447,1730329072.484422,1730329071.983646,5000
-21001.11794485068,-187500.02235174447,2426.7735990015985,-187500.02235174447,-187500.02235174447,-187500.02235174447,-187500.02235174447,-187500.02235174447,1730329072.488417,1730329071.983646,5000
-20960.84010134221,-187500.02235174447,2458.53542787259,-187500.02235174447,-187500.02235174447,-187500.02235174447,-187500.02235174447,-187500.02235174447,1730329072.4926388,1730329071.983646,5000
-20971.85951135868,-187500.02235174447,2398.85627017692,-187500.02235174447,-187500.02235174447,-187500.02235174447,-187500.02235174447,-187500.02235174447,1730329072.4974687,1730329071.983646,5000
-20993.808924413792,-187500.02235174447,2350.0400602865293,-187500.02235174447,-187500.02235174447,-187500.02235174447,-187500.02235174447,-187500.02235174447,1730329072.500564,1730329071.983646,5000
-20996.69229944853,-187500.02235174447,2385.8475549039317,-187500.02235174447,-187500.02235174447,-187500.02235174447,-187500.02235174447,-187500.02235174447,1730329072.504449,1730329071.983646,5000
-20972.373601481155,-187500.02235174447,2424.5160728116125,-187500.02235174447,-187500.02235174447,-187500.02235174447,-187500.02235174447,-187500.02235174447,1730329072.5086784,1730329071.983646,5000
-20983.169494053065,-187500.02235174447,2421.565642543512,-187500.02235174447,-187500.02235174447,-187500.02235174447,-187500.02235174447,-187500.02235174447,1730329072.5125048,1730329071.983646,5000
-21039.294724380343,-187500.02235174447,2381.5560199685124,-187500.02235174447,-187500.02235174447,-187500.02235174447,-187500.02235174447,-187500.02235174447,1730329072.5164137,1730329071.983646,5000
-21009.544552510328,-187500.02235174447,2424.627831533889,-187500.02235174447,-187500.02235174447,-187500.02235174447,-187500.02235174447,-187500.02235174447,1730329072.5205,1730329071.983646,5000
-20960.81774959776,-187500.02235174447,2475.7686228476314,-187500.02235174447,-187500.02235174447,-187500.02235174447,-187500.02235174447,-187500.02235174447,1730329072.5257027,1730329071.983646,5000
-20959.38723795262,-187500.02235174447,2446.0184509776177,-187500.02235174447,-187500.02235174447,-187500.02235174447,-187500.02235174447,-187500.02235174447,1730329072.5285137,1730329071.983646,5000
-21002.324939051265,-187500.02235174447,2386.920438637786,-187500.02235174447,-187500.02235174447,-187500.02235174447,-187500.02235174447,-187500.02235174447,1730329072.5326705,1730329071.983646,5000
-21023.1120613947,-187500.02235174447,2399.124491110384,-187500.02235174447,-187500.02235174447,-187500.02235174447,-187500.02235174447,-187500.02235174447,1730329072.536559,1730329071.983646,5000
-20988.645671444618,-187500.02235174447,2458.4460208947685,-187500.02235174447,-187500.02235174447,-187500.02235174447,-187500.02235174447,-187500.02235174447,1730329072.540681,1730329071.983646,5000
-20957.286173973825,-187500.02235174447,2461.619968607422,-187500.02235174447,-187500.02235174447,-187500.02235174447,-187500.02235174447,-187500.02235174447,1730329072.544558,1730329071.983646,5000
-20994.457125002995,-187500.02235174447,2396.33052305347,-187500.02235174447,-187500.02235174447,-187500.02235174447,-187500.02235174447,-187500.02235174447,1730329072.5487394,1730329071.983646,5000
-21029.616419031197,-187500.02235174447,2380.170211812283,-187500.02235174447,-187500.02235174447,-187500.02235174447,-187500.02235174447,-187500.02235174447,1730329072.552654,1730329071.983646,5000
-20991.618453457173,-187500.02235174447,2420.9621454432186,-187500.02235174447,-187500.02235174447,-187500.02235174447,-187500.02235174447,-187500.02235174447,1730329072.556697,1730329071.983646,5000
-20971.121903791656,-187500.02235174447,2404.466558035202,-187500.02235174447,-187500.02235174447,-187500.02235174447,-187500.02235174447,-187500.02235174447,1730329072.5596488,1730329071.983646,5000
-20996.804058170805,-187500.02235174447,2358.8689993463754,-187500.02235174447,-187500.02235174447,-187500.02235174447,-187500.02235174447,-187500.02235174447,1730329072.5647895,1730329071.983646,5000
-21026.44247131854,-187500.02235174447,2400.912630666808,-187500.02235174447,-187500.02235174447,-187500.02235174447,-187500.02235174447,-187500.02235174447,1730329072.5688248,1730329071.983646,5000
-20992.40076451311,-187500.02235174447,2482.854125839964,-187500.02235174447,-187500.02235174447,-187500.02235174447,-187500.02235174447,-187500.02235174447,1730329072.5727403,1730329071.983646,5000
-20960.169549008555,-187500.02235174447,2488.285599742604,-187500.02235174447,-187500.02235174447,-187500.02235174447,-187500.02235174447,-187500.02235174447,1730329072.5765731,1730329071.983646,5000
-20975.01110732688,-187500.02235174447,2430.8639682369194,-187500.02235174447,-187500.02235174447,-187500.02235174447,-187500.02235174447,-187500.02235174447,1730329072.581607,1730329071.983646,5000
-21010.662139733093,-187500.02235174447,2388.4403572607466,-187500.02235174447,-187500.02235174447,-187500.02235174447,-187500.02235174447,-187500.02235174447,1730329072.5847232,1730329071.983646,5000
-21006.59412224223,-187500.02235174447,2426.1477501568497,-187500.02235174447,-187500.02235174447,-187500.02235174447,-187500.02235174447,-187500.02235174447,1730329072.5876696,1730329071.983646,5000
-20971.63599391413,-187500.02235174447,2468.2584367106483,-187500.02235174447,-187500.02235174447,-187500.02235174447,-187500.02235174447,-187500.02235174447,1730329072.5929065,1730329071.983646,5000
-20970.876034602647,-187500.02235174447,2433.6355845493777,-187500.02235174447,-187500.02235174447,-187500.02235174447,-187500.02235174447,-187500.02235174447,1730329072.5968108,1730329071.983646,5000
-21025.950732940524,-187500.02235174447,2369.8437058739314,-187500.02235174447,-187500.02235174447,-187500.02235174447,-187500.02235174447,-187500.02235174447,1730329072.6008463,1730329071.983646,5000
-21032.343331854743,-187500.02235174447,2409.2498313486376,-187500.02235174447,-187500.02235174447,-187500.02235174447,-187500.02235174447,-187500.02235174447,1730329072.604806,1730329071.983646,5000
-20976.48632246093,-187500.02235174447,2485.5363351746005,-187500.02235174447,-187500.02235174447,-187500.02235174447,-187500.02235174447,-187500.02235174447,1730329072.6077864,1730329071.983646,5000
-20965.95865082248,-187500.02235174447,2446.3760788889026,-187500.02235174447,-187500.02235174447,-187500.02235174447,-187500.02235174447,-187500.02235174447,1730329072.6116605,1730329071.983646,5000
-21006.325901308766,-187500.02235174447,2384.886429892353,-187500.02235174447,-187500.02235174447,-187500.02235174447,-187500.02235174447,-187500.02235174447,1730329072.6158547,1730329071.983646,5000
-21022.419157316584,-187500.02235174447,2406.366456313903,-187500.02235174447,-187500.02235174447,-187500.02235174447,-187500.02235174447,-187500.02235174447,1730329072.6208324,1730329071.983646,5000
-20984.264729531376,-187500.02235174447,2455.361480159936,-187500.02235174447,-187500.02235174447,-187500.02235174447,-187500.02235174447,-187500.02235174447,1730329072.6249015,1730329071.983646,5000
-20973.826464870748,-187500.02235174447,2432.406238604336,-187500.02235174447,-187500.02235174447,-187500.02235174447,-187500.02235174447,-187500.02235174447,1730329072.6288168,1730329071.983646,5000
-21008.337558309744,-187500.02235174447,2375.297531521026,-187500.02235174447,-187500.02235174447,-187500.02235174447,-187500.02235174447,-187500.02235174447,1730329072.6329372,1730329071.983646,5000
-21017.099442136223,-187500.02235174447,2399.5491742550344,-187500.02235174447,-187500.02235174447,-187500.02235174447,-187500.02235174447,-187500.02235174447,1730329072.6356947,1730329071.983646,5000
-20983.996508597917,-187500.02235174447,2471.4547361677573,-187500.02235174447,-187500.02235174447,-187500.02235174447,-187500.02235174447,-187500.02235174447,1730329072.6399484,1730329071.983646,5000
-20973.826464870748,-187500.02235174447,2461.6646720963327,-187500.02235174447,-187500.02235174447,-187500.02235174447,-187500.02235174447,-187500.02235174447,1730329072.6438785,1730329071.983646,5000
-21012.562038011794,-187500.02235174447,2389.535592739057,-187500.02235174447,-187500.02235174447,-187500.02235174447,-187500.02235174447,-187500.02235174447,1730329072.6480017,1730329071.983646,5000
-21020.07222414878,-187500.02235174447,2384.9311333812634,-187500.02235174447,-187500.02235174447,-187500.02235174447,-187500.02235174447,-187500.02235174447,1730329072.6528316,1730329071.983646,5000
-20967.72443863445,-187500.02235174447,2459.6083116064447,-187500.02235174447,-187500.02235174447,-187500.02235174447,-187500.02235174447,-187500.02235174447,1730329072.657061,1730329071.983646,5000
-20953.32991520523,-187500.02235174447,2478.875515326919,-187500.02235174447,-187500.02235174447,-187500.02235174447,-187500.02235174447,-187500.02235174447,1730329072.660676,1730329071.983646,5000
-20999.508619249897,-187500.02235174447,2410.389770315858,-187500.02235174447,-187500.02235174447,-187500.02235174447,-187500.02235174447,-187500.02235174447,1730329072.6638985,1730329071.983646,5000
-21032.58920104375,-187500.02235174447,2394.2741625635817,-187500.02235174447,-187500.02235174447,-187500.02235174447,-187500.02235174447,-187500.02235174447,1730329072.66787,1730329071.983646,5000
-21004.85068617472,-187500.02235174447,2454.1768377038047,-187500.02235174447,-187500.02235174447,-187500.02235174447,-187500.02235174447,-187500.02235174447,1730329072.6717255,1730329071.983646,5000
-20963.611717654672,-187500.02235174447,2486.3186462305366,-187500.02235174447,-187500.02235174447,-187500.02235174447,-187500.02235174447,-187500.02235174447,1730329072.6759815,1730329071.983646,5000
-20974.07233405976,-187500.02235174447,2434.596709560956,-187500.02235174447,-187500.02235174447,-187500.02235174447,-187500.02235174447,-187500.02235174447,1730329072.6808465,1730329071.983646,5000
-21016.607703758207,-187500.02235174447,2395.8611364199087,-187500.02235174447,-187500.02235174447,-187500.02235174447,-187500.02235174447,-187500.02235174447,1730329072.6849048,1730329071.983646,5000
-21017.25590434741,-187500.02235174447,2439.491741596668,-187500.02235174447,-187500.02235174447,-187500.02235174447,-187500.02235174447,-187500.02235174447,1730329072.688882,1730329071.983646,5000
-20976.441618972018,-187500.02235174447,2478.5402391600896,-187500.02235174447,-187500.02235174447,-187500.02235174447,-187500.02235174447,-187500.02235174447,1730329072.6917963,1730329071.983646,5000
-20980.219063784967,-187500.02235174447,2442.8221515205087,-187500.02235174447,-187500.02235174447,-187500.02235174447,-187500.02235174447,-187500.02235174447,1730329072.6957655,1730329071.983646,5000
-21010.88565717765,-187500.02235174447,2416.603555274434,-187500.02235174447,-187500.02235174447,-187500.02235174447,-187500.02235174447,-187500.02235174447,1730329072.69989,1730329071.983646,5000
-21017.099442136223,-187500.02235174447,2436.563663073023,-187500.02235174447,-187500.02235174447,-187500.02235174447,-187500.02235174447,-187500.02235174447,1730329072.7038918,1730329071.983646,5000
-20975.368735238164,-187500.02235174447,2482.5635531620446,-187500.02235174447,-187500.02235174447,-187500.02235174447,-187500.02235174447,-187500.02235174447,1730329072.7091677,1730329071.983646,5000
-20977.648613172605,-187500.02235174447,2444.1856079322824,-187500.02235174447,-187500.02235174447,-187500.02235174447,-187500.02235174447,-187500.02235174447,1730329072.712887,1730329071.983646,5000
-21039.138262169155,-187500.02235174447,2352.543455665524,-187500.02235174447,-187500.02235174447,-187500.02235174447,-187500.02235174447,-187500.02235174447,1730329072.7159393,1730329071.983646,5000
-21040.479366836476,-187500.02235174447,2368.5920081844342,-187500.02235174447,-187500.02235174447,-187500.02235174447,-187500.02235174447,-187500.02235174447,1730329072.7197337,1730329071.983646,5000
-20990.03147960085,-187500.02235174447,2479.657826382855,-187500.02235174447,-187500.02235174447,-187500.02235174447,-187500.02235174447,-187500.02235174447,1730329072.7239556,1730329071.983646,5000
-20959.65545888608,-187500.02235174447,2487.6373991534,-187500.02235174447,-187500.02235174447,-187500.02235174447,-187500.02235174447,-187500.02235174447,1730329072.7278008,1730329071.983646,5000
-20967.411514212075,-187500.02235174447,2411.708523238721,-187500.02235174447,-187500.02235174447,-187500.02235174447,-187500.02235174447,-187500.02235174447,1730329072.7320063,1730329071.983646,5000
-21010.282160077357,-187500.02235174447,2402.2537353341268,-187500.02235174447,-187500.02235174447,-187500.02235174447,-187500.02235174447,-187500.02235174447,1730329072.7358215,1730329071.983646,5000
-21005.29772106382,-187500.02235174447,2454.400355148358,-187500.02235174447,-187500.02235174447,-187500.02235174447,-187500.02235174447,-187500.02235174447,1730329072.7410078,1730329071.983646,5000
-20973.58059568174,-187500.02235174447,2464.7045093422544,-187500.02235174447,-187500.02235174447,-187500.02235174447,-187500.02235174447,-187500.02235174447,1730329072.743756,1730329071.983646,5000
-21004.761279196893,-187500.02235174447,2398.7445114546435,-187500.02235174447,-187500.02235174447,-187500.02235174447,-187500.02235174447,-187500.02235174447,1730329072.748058,1730329071.983646,5000
-21029.59406728674,-187500.02235174447,2385.8028514150205,-187500.02235174447,-187500.02235174447,-187500.02235174447,-187500.02235174447,-187500.02235174447,1730329072.7520285,1730329071.983646,5000
-20991.216122056976,-187500.02235174447,2453.10395396995,-187500.02235174447,-187500.02235174447,-187500.02235174447,-187500.02235174447,-187500.02235174447,1730329072.756085,1730329071.983646,5000
-20948.18901398051,-187500.02235174447,2478.7414048601872,-187500.02235174447,-187500.02235174447,-187500.02235174447,-187500.02235174447,-187500.02235174447,1730329072.7600937,1730329071.983646,5000
-20972.261842758875,-187500.02235174447,2419.7775029870872,-187500.02235174447,-187500.02235174447,-187500.02235174447,-187500.02235174447,-187500.02235174447,1730329072.7639112,1730329071.983646,5000
-21013.187886856544,-187500.02235174447,2385.914610137297,-187500.02235174447,-187500.02235174447,-187500.02235174447,-187500.02235174447,-187500.02235174447,1730329072.7688136,1730329071.983646,5000
-20993.943034880525,-187500.02235174447,2433.2556048936376,-187500.02235174447,-187500.02235174447,-187500.02235174447,-187500.02235174447,-187500.02235174447,1730329072.7720373,1730329071.983646,5000
-20951.38531343762,-187500.02235174447,2464.6821575977992,-187500.02235174447,-187500.02235174447,-187500.02235174447,-187500.02235174447,-187500.02235174447,1730329072.7760744,1730329071.983646,5000
-20962.20355775399,-187500.02235174447,2409.696866237744,-187500.02235174447,-187500.02235174447,-187500.02235174447,-187500.02235174447,-187500.02235174447,1730329072.7800505,1730329071.983646,5000
-21003.01784312938,-187500.02235174447,2368.413194228792,-187500.02235174447,-187500.02235174447,-187500.02235174447,-187500.02235174447,-187500.02235174447,1730329072.784083,1730329071.983646,5000
-21009.34338681023,-187500.02235174447,2409.853328448931,-187500.02235174447,-187500.02235174447,-187500.02235174447,-187500.02235174447,-187500.02235174447,1730329072.787972,1730329071.983646,5000
-20965.086932788723,-187500.02235174447,2457.596654605467,-187500.02235174447,-187500.02235174447,-187500.02235174447,-187500.02235174447,-187500.02235174447,1730329072.7920291,1730329071.983646,5000
-20956.77208385135,-187500.02235174447,2431.534520570579,-187500.02235174447,-187500.02235174447,-187500.02235174447,-187500.02235174447,-187500.02235174447,1730329072.7970452,1730329071.983646,5000
-20980.19671204051,-187500.02235174447,2391.971932884685,-187500.02235174447,-187500.02235174447,-187500.02235174447,-187500.02235174447,-187500.02235174447,1730329072.8000576,1730329071.983646,5000
-20985.672889432062,-187500.02235174447,2407.2828778365706,-187500.02235174447,-187500.02235174447,-187500.02235174447,-187500.02235174447,-187500.02235174447,1730329072.8039937,1730329071.983646,5000
-20954.29104021681,-187500.02235174447,2458.893055783875,-187500.02235174447,-187500.02235174447,-187500.02235174447,-187500.02235174447,-187500.02235174447,1730329072.8080218,1730329071.983646,5000
-20941.77406332184,-187500.02235174447,2448.074811467506,-187500.02235174447,-187500.02235174447,-187500.02235174447,-187500.02235174447,-187500.02235174447,1730329072.8119416,1730329071.983646,5000
-20964.61754615516,-187500.02235174447,2407.014656903107,-187500.02235174447,-187500.02235174447,-187500.02235174447,-187500.02235174447,-187500.02235174447,1730329072.816132,1730329071.983646,5000
-20944.500976145384,-187500.02235174447,2440.631680563889,-187500.02235174447,-187500.02235174447,-187500.02235174447,-187500.02235174447,-187500.02235174447,1730329072.820012,1730329071.983646,5000
-20933.258048684365,-187500.02235174447,2472.8628960684414,-187500.02235174447,-187500.02235174447,-187500.02235174447,-187500.02235174447,-187500.02235174447,1730329072.8251672,1730329071.983646,5000
-20949.79833958129,-187500.02235174447,2457.328433672003,-187500.02235174447,-187500.02235174447,-187500.02235174447,-187500.02235174447,-187500.02235174447,1730329072.828004,1730329071.983646,5000
-20978.00624108389,-187500.02235174447,2417.3635145859143,-187500.02235174447,-187500.02235174447,-187500.02235174447,-187500.02235174447,-187500.02235174447,1730329072.8321252,1730329071.983646,5000
-20998.52514249386,-187500.02235174447,2402.566659756501,-187500.02235174447,-187500.02235174447,-187500.02235174447,-187500.02235174447,-187500.02235174447,1730329072.836007,1730329071.983646,5000
-20962.69529613201,-187500.02235174447,2466.9173320433297,-187500.02235174447,-187500.02235174447,-187500.02235174447,-187500.02235174447,-187500.02235174447,1730329072.8401823,1730329071.983646,5000
-20927.17837419252,-187500.02235174447,2479.657826382855,-187500.02235174447,-187500.02235174447,-187500.02235174447,-187500.02235174447,-187500.02235174447,1730329072.8439624,1730329071.983646,5000
-20950.155967492577,-187500.02235174447,2415.4859680516684,-187500.02235174447,-187500.02235174447,-187500.02235174447,-187500.02235174447,-187500.02235174447,1730329072.8481567,1730329071.983646,5000
-20990.880845890148,-187500.02235174447,2391.90487765132,-187500.02235174447,-187500.02235174447,-187500.02235174447,-187500.02235174447,-187500.02235174447,1730329072.852072,1730329071.983646,5000
-20970.496054946907,-187500.02235174447,2445.124381199405,-187500.02235174447,-187500.02235174447,-187500.02235174447,-187500.02235174447,-187500.02235174447,1730329072.855132,1730329071.983646,5000
-20932.118109717147,-187500.02235174447,2468.7725268331205,-187500.02235174447,-187500.02235174447,-187500.02235174447,-187500.02235174447,-187500.02235174447,1730329072.8591604,1730329071.983646,5000
-20951.966458793457,-187500.02235174447,2417.922308197297,-187500.02235174447,-187500.02235174447,-187500.02235174447,-187500.02235174447,-187500.02235174447,1730329072.8641956,1730329071.983646,5000
-21004.895389663627,-187500.02235174447,2374.2246477871718,-187500.02235174447,-187500.02235174447,-187500.02235174447,-187500.02235174447,-187500.02235174447,1730329072.8681772,1730329071.983646,5000
-21007.08586062025,-187500.02235174447,2398.588049243456,-187500.02235174447,-187500.02235174447,-187500.02235174447,-187500.02235174447,-187500.02235174447,1730329072.872218,1730329071.983646,5000
-20983.77299115336,-187500.02235174447,2433.4120671048245,-187500.02235174447,-187500.02235174447,-187500.02235174447,-187500.02235174447,-187500.02235174447,1730329072.8761463,1730329071.983646,5000
-20960.258955986377,-187500.02235174447,2411.328543582981,-187500.02235174447,-187500.02235174447,-187500.02235174447,-187500.02235174447,-187500.02235174447,1730329072.880207,1730329071.983646,5000
-20958.06848502976,-187500.02235174447,2402.0972731229394,-187500.02235174447,-187500.02235174447,-187500.02235174447,-187500.02235174447,-187500.02235174447,1730329072.8831353,1730329071.983646,5000
-20939.695351087496,-187500.02235174447,2454.333299914992,-187500.02235174447,-187500.02235174447,-187500.02235174447,-187500.02235174447,-187500.02235174447,1730329072.8870292,1730329071.983646,5000
-20881.08907712568,-187500.02235174447,2525.4118472828686,-187500.02235174447,-187500.02235174447,-187500.02235174447,-187500.02235174447,-187500.02235174447,1730329072.892104,1730329071.983646,5000
-20887.347565573164,-187500.02235174447,2530.5974519965,-187500.02235174447,-187500.02235174447,-187500.02235174447,-187500.02235174447,-187500.02235174447,1730329072.8962696,1730329071.983646,5000
-20966.56214792277,-187500.02235174447,2458.53542787259,-187500.02235174447,-187500.02235174447,-187500.02235174447,-187500.02235174447,-187500.02235174447,1730329072.9002223,1730329071.983646,5000
-20975.39108698262,-187500.02235174447,2441.592805575467,-187500.02235174447,-187500.02235174447,-187500.02235174447,-187500.02235174447,-187500.02235174447,1730329072.9042194,1730329071.983646,5000
-20921.05399621177,-187500.02235174447,2477.400300192869,-187500.02235174447,-187500.02235174447,-187500.02235174447,-187500.02235174447,-187500.02235174447,1730329072.9072225,1730329071.983646,5000
-20915.84603975368,-187500.02235174447,2501.361370248958,-187500.02235174447,-187500.02235174447,-187500.02235174447,-187500.02235174447,-187500.02235174447,1730329072.911116,1730329071.983646,5000
-20961.60006065369,-187500.02235174447,2444.789105032576,-187500.02235174447,-187500.02235174447,-187500.02235174447,-187500.02235174447,-187500.02235174447,1730329072.9157698,1730329071.983646,5000
-20966.67390664505,-187500.02235174447,2437.793009018065,-187500.02235174447,-187500.02235174447,-187500.02235174447,-187500.02235174447,-187500.02235174447,1730329072.9201689,1730329071.983646,5000
-20929.927638760524,-187500.02235174447,2487.3468264754806,-187500.02235174447,-187500.02235174447,-187500.02235174447,-187500.02235174447,-187500.02235174447,1730329072.924281,1730329071.983646,5000
-20926.30665615877,-187500.02235174447,2463.3410529304806,-187500.02235174447,-187500.02235174447,-187500.02235174447,-187500.02235174447,-187500.02235174447,1730329072.9281335,1730329071.983646,5000
-20974.117037548665,-187500.02235174447,2382.561848469001,-187500.02235174447,-187500.02235174447,-187500.02235174447,-187500.02235174447,-187500.02235174447,1730329072.932214,1730329071.983646,5000
-20969.33376423523,-187500.02235174447,2390.988456128652,-187500.02235174447,-187500.02235174447,-187500.02235174447,-187500.02235174447,-187500.02235174447,1730329072.9352074,1730329071.983646,5000
-20917.410661865557,-187500.02235174447,2496.7345591467097,-187500.02235174447,-187500.02235174447,-187500.02235174447,-187500.02235174447,-187500.02235174447,1730329072.939348,1730329071.983646,5000
-20863.833530406184,-187500.02235174447,2523.400190281891,-187500.02235174447,-187500.02235174447,-187500.02235174447,-187500.02235174447,-187500.02235174447,1730329072.943316,1730329071.983646,5000
-20885.671184739014,-187500.02235174447,2447.1583899448383,-187500.02235174447,-187500.02235174447,-187500.02235174447,-187500.02235174447,-187500.02235174447,1730329072.9473512,1730329071.983646,5000
-20968.037363056825,-187500.02235174447,2395.9728951421853,-187500.02235174447,-187500.02235174447,-187500.02235174447,-187500.02235174447,-187500.02235174447,1730329072.952162,1730329071.983646,5000
-21017.524125280877,-187500.02235174447,2399.638581232856,-187500.02235174447,-187500.02235174447,-187500.02235174447,-187500.02235174447,-187500.02235174447,1730329072.9563131,1730329071.983646,5000
-20977.38039223914,-187500.02235174447,2403.7960057015425,-187500.02235174447,-187500.02235174447,-187500.02235174447,-187500.02235174447,-187500.02235174447,1730329072.9594157,1730329071.983646,5000
-20990.277348789856,-187500.02235174447,2378.0914995779394,-187500.02235174447,-187500.02235174447,-187500.02235174447,-187500.02235174447,-187500.02235174447,1730329072.9633389,1730329071.983646,5000
-20983.460066730982,-187500.02235174447,2393.380092785369,-187500.02235174447,-187500.02235174447,-187500.02235174447,-187500.02235174447,-187500.02235174447,1730329072.967255,1730329071.983646,5000
-20944.925659290035,-187500.02235174447,2425.5219013121014,-187500.02235174447,-187500.02235174447,-187500.02235174447,-187500.02235174447,-187500.02235174447,1730329072.9713552,1730329071.983646,5000
-20890.47680979691,-187500.02235174447,2518.505158246179,-187500.02235174447,-187500.02235174447,-187500.02235174447,-187500.02235174447,-187500.02235174447,1730329072.9763553,1730329071.983646,5000
-20883.01132714884,-187500.02235174447,2496.8686696134414,-187500.02235174447,-187500.02235174447,-187500.02235174447,-187500.02235174447,-187500.02235174447,1730329072.980417,1730329071.983646,5000
-20958.515519918863,-187500.02235174447,2400.264430077604,-187500.02235174447,-187500.02235174447,-187500.02235174447,-187500.02235174447,-187500.02235174447,1730329072.9844468,1730329071.983646,5000
-20944.3445139342,-187500.02235174447,2423.331430355481,-187500.02235174447,-187500.02235174447,-187500.02235174447,-187500.02235174447,-187500.02235174447,1730329072.9872231,1730329071.983646,5000
-20939.114205731657,-187500.02235174447,2489.0679107985397,-187500.02235174447,-187500.02235174447,-187500.02235174447,-187500.02235174447,-187500.02235174447,1730329072.991397,1730329071.983646,5000
-20935.76144406336,-187500.02235174447,2469.9348175447963,-187500.02235174447,-187500.02235174447,-187500.02235174447,-187500.02235174447,-187500.02235174447,1730329072.9954455,1730329071.983646,5000
-20930.46408062745,-187500.02235174447,2394.1847555857607,-187500.02235174447,-187500.02235174447,-187500.02235174447,-187500.02235174447,-187500.02235174447,1730329072.999452,1730329071.983646,5000
-21007.19761934252,-187500.02235174447,2410.9709156716963,-187500.02235174447,-187500.02235174447,-187500.02235174447,-187500.02235174447,-187500.02235174447,1730329073.0033157,1730329071.983646,5000
-20947.33964769121,-187500.02235174447,2443.068020709517,-187500.02235174447,-187500.02235174447,-187500.02235174447,-187500.02235174447,-187500.02235174447,1730329073.007563,1730329071.983646,5000
-20934.509746373864,-187500.02235174447,2379.253790289616,-187500.02235174447,-187500.02235174447,-187500.02235174447,-187500.02235174447,-187500.02235174447,1730329073.0122387,1730329071.983646,5000
-20950.982982037425,-187500.02235174447,2297.1558329052727,-187500.02235174447,-187500.02235174447,-187500.02235174447,-187500.02235174447,-187500.02235174447,1730329073.0157292,1730329071.983646,5000
-20896.288263355287,-187500.02235174447,2267.740937202089,-187500.02235174447,-187500.02235174447,-187500.02235174447,-187500.02235174447,-187500.02235174447,1730329073.0193255,1730329071.983646,5000
-20865.286393795777,-187500.02235174447,2313.182033679728,-187500.02235174447,-187500.02235174447,-187500.02235174447,-187500.02235174447,-187500.02235174447,1730329073.0238173,1730329071.983646,5000
-20958.2472989854,-187500.02235174447,2252.9440823726754,-187500.02235174447,-187500.02235174447,-187500.02235174447,-187500.02235174447,-187500.02235174447,1730329073.027518,1730329071.983646,5000
-21094.436477951585,-187500.02235174447,2295.322989859937,-187500.02235174447,-187500.02235174447,-187500.02235174447,-187500.02235174447,-187500.02235174447,1730329073.0318873,1730329071.983646,5000
-21047.855442506727,-187500.02235174447,2502.791881894097,-187500.02235174447,-187500.02235174447,-187500.02235174447,-187500.02235174447,-187500.02235174447,1730329073.036296,1730329071.983646,5000
-20841.727655139883,-187500.02235174447,2584.8227840450745,-187500.02235174447,-187500.02235174447,-187500.02235174447,-187500.02235174447,-187500.02235174447,1730329073.0405872,1730329071.983646,5000
-20862.98416411688,-187500.02235174447,2517.789902423609,-187500.02235174447,-187500.02235174447,-187500.02235174447,-187500.02235174447,-187500.02235174447,1730329073.04364,1730329071.983646,5000
-20936.789624308305,-187500.02235174447,2482.474146184224,-187500.02235174447,-187500.02235174447,-187500.02235174447,-187500.02235174447,-187500.02235174447,1730329073.048077,1730329071.983646,5000
-20956.23564198442,-187500.02235174447,2390.586124728456,-187500.02235174447,-187500.02235174447,-187500.02235174447,-187500.02235174447,-187500.02235174447,1730329073.051929,1730329071.983646,5000
-21027.47065156349,-187500.02235174447,2327.822426297954,-187500.02235174447,-187500.02235174447,-187500.02235174447,-187500.02235174447,-187500.02235174447,1730329073.0556967,1730329071.983646,5000
-20897.316443600237,-187500.02235174447,2380.304322279015,-187500.02235174447,-187500.02235174447,-187500.02235174447,-187500.02235174447,-187500.02235174447,1730329073.0598402,1730329071.983646,5000
-20854.17757680149,-187500.02235174447,2344.899159061809,-187500.02235174447,-187500.02235174447,-187500.02235174447,-187500.02235174447,-187500.02235174447,1730329073.0650778,1730329071.983646,5000
-21050.31413439681,-187500.02235174447,2359.003109813108,-187500.02235174447,-187500.02235174447,-187500.02235174447,-187500.02235174447,-187500.02235174447,1730329073.068058,1730329071.983646,5000
-21016.697110736022,-187500.02235174447,2508.8939081303965,-187500.02235174447,-187500.02235174447,-187500.02235174447,-187500.02235174447,-187500.02235174447,1730329073.070372,1730329071.983646,5000
-20957.82261584075,-187500.02235174447,2449.371212645914,-187500.02235174447,-187500.02235174447,-187500.02235174447,-187500.02235174447,-187500.02235174447,1730329073.07583,1730329071.983646,5000
-20995.082973847744,-187500.02235174447,2347.335499207437,-187500.02235174447,-187500.02235174447,-187500.02235174447,-187500.02235174447,-187500.02235174447,1730329073.0796,1730329071.983646,5000
-20916.628350809617,-187500.02235174447,2368.346138995426,-187500.02235174447,-187500.02235174447,-187500.02235174447,-187500.02235174447,-187500.02235174447,1730329073.083846,1730329071.983646,5000
-20840.252440005832,-187500.02235174447,2447.895997511864,-187500.02235174447,-187500.02235174447,-187500.02235174447,-187500.02235174447,-187500.02235174447,1730329073.0875783,1730329071.983646,5000
-20804.86962853308,-187500.02235174447,2496.309876002059,-187500.02235174447,-187500.02235174447,-187500.02235174447,-187500.02235174447,-187500.02235174447,1730329073.0918837,1730329071.983646,5000
-20891.303824341758,-187500.02235174447,2441.1681224308163,-187500.02235174447,-187500.02235174447,-187500.02235174447,-187500.02235174447,-187500.02235174447,1730329073.095513,1730329071.983646,5000
-20972.9994503259,-187500.02235174447,2386.6745694487777,-187500.02235174447,-187500.02235174447,-187500.02235174447,-187500.02235174447,-187500.02235174447,1730329073.098674,1730329071.983646,5000
-21119.582190463807,-187500.02235174447,2349.6377288863337,-187500.02235174447,-187500.02235174447,-187500.02235174447,-187500.02235174447,-187500.02235174447,1730329073.1033924,1730329071.983646,5000
-21013.54551476783,-187500.02235174447,2418.9728401866964,-187500.02235174447,-187500.02235174447,-187500.02235174447,-187500.02235174447,-187500.02235174447,1730329073.108104,1730329071.983646,5000
-20897.22703662241,-187500.02235174447,2512.201966309782,-187500.02235174447,-187500.02235174447,-187500.02235174447,-187500.02235174447,-187500.02235174447,1730329073.1115172,1730329071.983646,5000
-20997.385203526643,-187500.02235174447,2453.238064436682,-187500.02235174447,-187500.02235174447,-187500.02235174447,-187500.02235174447,-187500.02235174447,1730329073.1158009,1730329071.983646,5000
-21016.58535201375,-187500.02235174447,2395.794081186543,-187500.02235174447,-187500.02235174447,-187500.02235174447,-187500.02235174447,-187500.02235174447,1730329073.1194935,1730329071.983646,5000
-21033.617381288692,-187500.02235174447,2409.652162748833,-187500.02235174447,-187500.02235174447,-187500.02235174447,-187500.02235174447,-187500.02235174447,1730329073.123668,1730329071.983646,5000
-20971.85951135868,-187500.02235174447,2389.490889250146,-187500.02235174447,-187500.02235174447,-187500.02235174447,-187500.02235174447,-187500.02235174447,1730329073.1266508,1730329071.983646,5000
-20952.65936287157,-187500.02235174447,2315.7971877809987,-187500.02235174447,-187500.02235174447,-187500.02235174447,-187500.02235174447,-187500.02235174447,1730329073.1315317,1730329071.983646,5000
-21008.87400017667,-187500.02235174447,2288.617466523345,-187500.02235174447,-187500.02235174447,-187500.02235174447,-187500.02235174447,-187500.02235174447,1730329073.1355352,1730329071.983646,5000
-21022.35210208322,-187500.02235174447,2361.4170982142805,-187500.02235174447,-187500.02235174447,-187500.02235174447,-187500.02235174447,-187500.02235174447,1730329073.140088,1730329071.983646,5000
-21009.701014721515,-187500.02235174447,2365.2839500050486,-187500.02235174447,-187500.02235174447,-187500.02235174447,-187500.02235174447,-187500.02235174447,1730329073.143756,1730329071.983646,5000
-21065.49096888196,-187500.02235174447,2341.948728793708,-187500.02235174447,-187500.02235174447,-187500.02235174447,-187500.02235174447,-187500.02235174447,1730329073.1480887,1730329071.983646,5000
-21115.536524717398,-187500.02235174447,2358.8466476019203,-187500.02235174447,-187500.02235174447,-187500.02235174447,-187500.02235174447,-187500.02235174447,1730329073.1518874,1730329071.983646,5000
-21040.56877381429,-187500.02235174447,2382.763014169099,-187500.02235174447,-187500.02235174447,-187500.02235174447,-187500.02235174447,-187500.02235174447,1730329073.1546965,1730329071.983646,5000
-20983.97415685346,-187500.02235174447,2424.158444900328,-187500.02235174447,-187500.02235174447,-187500.02235174447,-187500.02235174447,-187500.02235174447,1730329073.1588063,1730329071.983646,5000
-20991.238473801437,-187500.02235174447,2382.6065519579115,-187500.02235174447,-187500.02235174447,-187500.02235174447,-187500.02235174447,-187500.02235174447,1730329073.1637063,1730329071.983646,5000
-21040.65818079212,-187500.02235174447,2320.535757605524,-187500.02235174447,-187500.02235174447,-187500.02235174447,-187500.02235174447,-187500.02235174447,1730329073.168085,1730329071.983646,5000
-21007.957578654,-187500.02235174447,2357.8408191014314,-187500.02235174447,-187500.02235174447,-187500.02235174447,-187500.02235174447,-187500.02235174447,1730329073.171723,1730329071.983646,5000
-20976.978060838945,-187500.02235174447,2407.9087266813194,-187500.02235174447,-187500.02235174447,-187500.02235174447,-187500.02235174447,-187500.02235174447,1730329073.175967,1730329071.983646,5000
-21086.79218134787,-187500.02235174447,2378.2479617891267,-187500.02235174447,-187500.02235174447,-187500.02235174447,-187500.02235174447,-187500.02235174447,1730329073.1797924,1730329071.983646,5000
-21085.607538891734,-187500.02235174447,2319.954612249686,-187500.02235174447,-187500.02235174447,-187500.02235174447,-187500.02235174447,-187500.02235174447,1730329073.183208,1730329071.983646,5000
-21045.68732329456,-187500.02235174447,2312.757350535077,-187500.02235174447,-187500.02235174447,-187500.02235174447,-187500.02235174447,-187500.02235174447,1730329073.1865408,1730329071.983646,5000
-21022.08388114976,-187500.02235174447,2389.915572394797,-187500.02235174447,-187500.02235174447,-187500.02235174447,-187500.02235174447,-187500.02235174447,1730329073.1919622,1730329071.983646,5000
-20958.314354218764,-187500.02235174447,2364.367528482381,-187500.02235174447,-187500.02235174447,-187500.02235174447,-187500.02235174447,-187500.02235174447,1730329073.195665,1730329071.983646,5000
-20939.695351087496,-187500.02235174447,2277.9109809292536,-187500.02235174447,-187500.02235174447,-187500.02235174447,-187500.02235174447,-187500.02235174447,1730329073.199992,1730329071.983646,5000
-21069.246061950453,-187500.02235174447,2311.4833011011247,-187500.02235174447,-187500.02235174447,-187500.02235174447,-187500.02235174447,-187500.02235174447,1730329073.202592,1730329071.983646,5000
-21097.45396345305,-187500.02235174447,2364.792211627032,-187500.02235174447,-187500.02235174447,-187500.02235174447,-187500.02235174447,-187500.02235174447,1730329073.2068684,1730329071.983646,5000
-21069.134303228177,-187500.02235174447,2365.820391871976,-187500.02235174447,-187500.02235174447,-187500.02235174447,-187500.02235174447,-187500.02235174447,1730329073.2106094,1730329071.983646,5000
-21047.56486982881,-187500.02235174447,2285.331760088415,-187500.02235174447,-187500.02235174447,-187500.02235174447,-187500.02235174447,-187500.02235174447,1730329073.2149365,1730329071.983646,5000
-21090.524922671902,-187500.02235174447,2194.1366427107623,-187500.02235174447,-187500.02235174447,-187500.02235174447,-187500.02235174447,-187500.02235174447,1730329073.2197492,1730329071.983646,5000
-21055.186814688062,-187500.02235174447,2317.562975592968,-187500.02235174447,-187500.02235174447,-187500.02235174447,-187500.02235174447,-187500.02235174447,1730329073.2239847,1730329071.983646,5000
-20960.214252497462,-187500.02235174447,2445.146732943861,-187500.02235174447,-187500.02235174447,-187500.02235174447,-187500.02235174447,-187500.02235174447,1730329073.2277727,1730329071.983646,5000
-21051.141148941657,-187500.02235174447,2398.699807965733,-187500.02235174447,-187500.02235174447,-187500.02235174447,-187500.02235174447,-187500.02235174447,1730329073.2314403,1730329071.983646,5000
-21068.284936938875,-187500.02235174447,2321.7427518061104,-187500.02235174447,-187500.02235174447,-187500.02235174447,-187500.02235174447,-187500.02235174447,1730329073.2349396,1730329071.983646,5000
-20995.44060175903,-187500.02235174447,2338.46185665868,-187500.02235174447,-187500.02235174447,-187500.02235174447,-187500.02235174447,-187500.02235174447,1730329073.2389352,1730329071.983646,5000
-21070.69892534005,-187500.02235174447,2361.171229025272,-187500.02235174447,-187500.02235174447,-187500.02235174447,-187500.02235174447,-187500.02235174447,1730329073.2428913,1730329071.983646,5000
-21098.79506812037,-187500.02235174447,2370.603665185412,-187500.02235174447,-187500.02235174447,-187500.02235174447,-187500.02235174447,-187500.02235174447,1730329073.2468507,1730329071.983646,5000
-21079.773733588903,-187500.02235174447,2319.6863913162224,-187500.02235174447,-187500.02235174447,-187500.02235174447,-187500.02235174447,-187500.02235174447,1730329073.2519476,1730329071.983646,5000
-21045.933192483568,-187500.02235174447,2347.447257929713,-187500.02235174447,-187500.02235174447,-187500.02235174447,-187500.02235174447,-187500.02235174447,1730329073.25577,1730329071.983646,5000
-21012.472631033976,-187500.02235174447,2398.565697499001,-187500.02235174447,-187500.02235174447,-187500.02235174447,-187500.02235174447,-187500.02235174447,1730329073.2588792,1730329071.983646,5000
-21039.965276714003,-187500.02235174447,2335.9584612796857,-187500.02235174447,-187500.02235174447,-187500.02235174447,-187500.02235174447,-187500.02235174447,1730329073.2628176,1730329071.983646,5000
-21058.003134489438,-187500.02235174447,2310.142196433806,-187500.02235174447,-187500.02235174447,-187500.02235174447,-187500.02235174447,-187500.02235174447,1730329073.2669008,1730329071.983646,5000
-21018.842878203737,-187500.02235174447,2358.7795923685544,-187500.02235174447,-187500.02235174447,-187500.02235174447,-187500.02235174447,-187500.02235174447,1730329073.270736,1730329071.983646,5000
-21037.50658482392,-187500.02235174447,2408.9145551818083,-187500.02235174447,-187500.02235174447,-187500.02235174447,-187500.02235174447,-187500.02235174447,1730329073.275879,1730329071.983646,5000
-21086.903940070148,-187500.02235174447,2396.755206198121,-187500.02235174447,-187500.02235174447,-187500.02235174447,-187500.02235174447,-187500.02235174447,1730329073.2799385,1730329071.983646,5000
-21101.07494605481,-187500.02235174447,2307.7729115215434,-187500.02235174447,-187500.02235174447,-187500.02235174447,-187500.02235174447,-187500.02235174447,1730329073.283939,1730329071.983646,5000
-21076.21980622051,-187500.02235174447,2332.7845135670323,-187500.02235174447,-187500.02235174447,-187500.02235174447,-187500.02235174447,-187500.02235174447,1730329073.2866907,1730329071.983646,5000
-20982.141313808123,-187500.02235174447,2409.6745144932884,-187500.02235174447,-187500.02235174447,-187500.02235174447,-187500.02235174447,-187500.02235174447,1730329073.2909017,1730329071.983646,5000
-21036.59016330125,-187500.02235174447,2381.533668224057,-187500.02235174447,-187500.02235174447,-187500.02235174447,-187500.02235174447,-187500.02235174447,1730329073.294911,1730329071.983646,5000
-21050.336486141263,-187500.02235174447,2330.571690865957,-187500.02235174447,-187500.02235174447,-187500.02235174447,-187500.02235174447,-187500.02235174447,1730329073.2988403,1730329071.983646,5000
-21082.99238479047,-187500.02235174447,2333.0974379894064,-187500.02235174447,-187500.02235174447,-187500.02235174447,-187500.02235174447,-187500.02235174447,1730329073.3026805,1730329071.983646,5000
-20996.088802348237,-187500.02235174447,2375.94573211023,-187500.02235174447,-187500.02235174447,-187500.02235174447,-187500.02235174447,-187500.02235174447,1730329073.307927,1730329071.983646,5000
-20947.40670292457,-187500.02235174447,2381.04192984604,-187500.02235174447,-187500.02235174447,-187500.02235174447,-187500.02235174447,-187500.02235174447,1730329073.3108177,1730329071.983646,5000
-21063.859291536726,-187500.02235174447,2378.918514122786,-187500.02235174447,-187500.02235174447,-187500.02235174447,-187500.02235174447,-187500.02235174447,1730329073.3149023,1730329071.983646,5000
-21126.444176011584,-187500.02235174447,2347.0449265295183,-187500.02235174447,-187500.02235174447,-187500.02235174447,-187500.02235174447,-187500.02235174447,1730329073.3187304,1730329071.983646,5000
-21069.35782067273,-187500.02235174447,2371.073051818973,-187500.02235174447,-187500.02235174447,-187500.02235174447,-187500.02235174447,-187500.02235174447,1730329073.3228536,1730329071.983646,5000
-21024.989607928943,-187500.02235174447,2358.1984470127163,-187500.02235174447,-187500.02235174447,-187500.02235174447,-187500.02235174447,-187500.02235174447,1730329073.32682,1730329071.983646,5000
-20985.427020243053,-187500.02235174447,2325.2296239411385,-187500.02235174447,-187500.02235174447,-187500.02235174447,-187500.02235174447,-187500.02235174447,1730329073.330922,1730329071.983646,5000
-21054.87389026569,-187500.02235174447,2347.246092229616,-187500.02235174447,-187500.02235174447,-187500.02235174447,-187500.02235174447,-187500.02235174447,1730329073.3357942,1730329071.983646,5000
-21065.71448632652,-187500.02235174447,2395.727025953177,-187500.02235174447,-187500.02235174447,-187500.02235174447,-187500.02235174447,-187500.02235174447,1730329073.3389,1730329071.983646,5000
-21009.11986936568,-187500.02235174447,2392.776595685076,-187500.02235174447,-187500.02235174447,-187500.02235174447,-187500.02235174447,-187500.02235174447,1730329073.3429208,1730329071.983646,5000
-21002.95078789601,-187500.02235174447,2318.4123418822696,-187500.02235174447,-187500.02235174447,-187500.02235174447,-187500.02235174447,-187500.02235174447,1730329073.3469412,1730329071.983646,5000
-21134.066120870844,-187500.02235174447,2283.431861809714,-187500.02235174447,-187500.02235174447,-187500.02235174447,-187500.02235174447,-187500.02235174447,1730329073.3509216,1730329071.983646,5000
-21071.70475384054,-187500.02235174447,2293.803071236977,-187500.02235174447,-187500.02235174447,-187500.02235174447,-187500.02235174447,-187500.02235174447,1730329073.3549175,1730329071.983646,5000
-20852.881175623083,-187500.02235174447,2438.307099140537,-187500.02235174447,-187500.02235174447,-187500.02235174447,-187500.02235174447,-187500.02235174447,1730329073.3594568,1730329071.983646,5000
-20997.698127949017,-187500.02235174447,2434.6637647943217,-187500.02235174447,-187500.02235174447,-187500.02235174447,-187500.02235174447,-187500.02235174447,1730329073.3640068,1730329071.983646,5000
-21078.052649265846,-187500.02235174447,2353.0351940435403,-187500.02235174447,-187500.02235174447,-187500.02235174447,-187500.02235174447,-187500.02235174447,1730329073.3672805,1730329071.983646,5000
-21030.2646196204,-187500.02235174447,2348.9001213193087,-187500.02235174447,-187500.02235174447,-187500.02235174447,-187500.02235174447,-187500.02235174447,1730329073.3710816,1730329071.983646,5000
-21095.665823896627,-187500.02235174447,2379.499659478624,-187500.02235174447,-187500.02235174447,-187500.02235174447,-187500.02235174447,-187500.02235174447,1730329073.37498,1730329071.983646,5000
-21010.68449147755,-187500.02235174447,2305.8730132428427,-187500.02235174447,-187500.02235174447,-187500.02235174447,-187500.02235174447,-187500.02235174447,1730329073.3789575,1730329071.983646,5000
-20966.6515549006,-187500.02235174447,2253.435820750692,-187500.02235174447,-187500.02235174447,-187500.02235174447,-187500.02235174447,-187500.02235174447,1730329073.3833957,1730329071.983646,5000
-21115.491821228483,-187500.02235174447,2402.3878458008585,-187500.02235174447,-187500.02235174447,-187500.02235174447,-187500.02235174447,-187500.02235174447,1730329073.3868692,1730329071.983646,5000
-21061.132378713177,-187500.02235174447,2439.8270177634977,-187500.02235174447,-187500.02235174447,-187500.02235174447,-187500.02235174447,-187500.02235174447,1730329073.392305,1730329071.983646,5000
-21026.151898640623,-187500.02235174447,2379.0079211006077,-187500.02235174447,-187500.02235174447,-187500.02235174447,-187500.02235174447,-187500.02235174447,1730329073.3948927,1730329071.983646,5000
-21034.44439583354,-187500.02235174447,2305.4483300981915,-187500.02235174447,-187500.02235174447,-187500.02235174447,-187500.02235174447,-187500.02235174447,1730329073.3983045,1730329071.983646,5000
-21078.633794621685,-187500.02235174447,2313.763179035566,-187500.02235174447,-187500.02235174447,-187500.02235174447,-187500.02235174447,-187500.02235174447,1730329073.4028945,1730329071.983646,5000
-21071.637698607174,-187500.02235174447,2355.5162376780795,-187500.02235174447,-187500.02235174447,-187500.02235174447,-187500.02235174447,-187500.02235174447,1730329073.4073467,1730329071.983646,5000
-21007.44348853153,-187500.02235174447,2399.571525999489,-187500.02235174447,-187500.02235174447,-187500.02235174447,-187500.02235174447,-187500.02235174447,1730329073.4109771,1730329071.983646,5000
-21007.711709464995,-187500.02235174447,2352.8787318323534,-187500.02235174447,-187500.02235174447,-187500.02235174447,-187500.02235174447,-187500.02235174447,1730329073.4154072,1730329071.983646,5000
-20949.77598783684,-187500.02235174447,2320.468702372158,-187500.02235174447,-187500.02235174447,-187500.02235174447,-187500.02235174447,-187500.02235174447,1730329073.419924,1730329071.983646,5000
-20987.61749119967,-187500.02235174447,2380.103156578917,-187500.02235174447,-187500.02235174447,-187500.02235174447,-187500.02235174447,-187500.02235174447,1730329073.4234052,1730329071.983646,5000
-21063.45696013653,-187500.02235174447,2409.8756801933864,-187500.02235174447,-187500.02235174447,-187500.02235174447,-187500.02235174447,-187500.02235174447,1730329073.4261072,1730329071.983646,5000
-21029.012921930906,-187500.02235174447,2347.1343335073398,-187500.02235174447,-187500.02235174447,-187500.02235174447,-187500.02235174447,-187500.02235174447,1730329073.429916,1730329071.983646,5000
-21038.937096469057,-187500.02235174447,2325.520196619057,-187500.02235174447,-187500.02235174447,-187500.02235174447,-187500.02235174447,-187500.02235174447,1730329073.434918,1730329071.983646,5000
-21096.291672741376,-187500.02235174447,2366.692109905733,-187500.02235174447,-187500.02235174447,-187500.02235174447,-187500.02235174447,-187500.02235174447,1730329073.4389043,1730329071.983646,5000
-20956.01212453987,-187500.02235174447,2442.665689309322,-187500.02235174447,-187500.02235174447,-187500.02235174447,-187500.02235174447,-187500.02235174447,1730329073.4429011,1730329071.983646,5000
-20984.77881965385,-187500.02235174447,2359.293682491026,-187500.02235174447,-187500.02235174447,-187500.02235174447,-187500.02235174447,-187500.02235174447,1730329073.4458838,1730329071.983646,5000
-21059.65716357913,-187500.02235174447,2312.779702279533,-187500.02235174447,-187500.02235174447,-187500.02235174447,-187500.02235174447,-187500.02235174447,1730329073.4499147,1730329071.983646,5000
-21065.93800377107,-187500.02235174447,2390.608476472912,-187500.02235174447,-187500.02235174447,-187500.02235174447,-187500.02235174447,-187500.02235174447,1730329073.453944,1730329071.983646,5000
-21000.894427406125,-187500.02235174447,2387.4121770158026,-187500.02235174447,-187500.02235174447,-187500.02235174447,-187500.02235174447,-187500.02235174447,1730329073.458916,1730329071.983646,5000
-20946.557336635276,-187500.02235174447,2354.711574877688,-187500.02235174447,-187500.02235174447,-187500.02235174447,-187500.02235174447,-187500.02235174447,1730329073.4629116,1730329071.983646,5000
-21051.69994255304,-187500.02235174447,2337.791304325021,-187500.02235174447,-187500.02235174447,-187500.02235174447,-187500.02235174447,-187500.02235174447,1730329073.4669616,1730329071.983646,5000
-21000.08976460573,-187500.02235174447,2335.9584612796857,-187500.02235174447,-187500.02235174447,-187500.02235174447,-187500.02235174447,-187500.02235174447,1730329073.470964,1730329071.983646,5000
-20959.834272841726,-187500.02235174447,2421.878566965886,-187500.02235174447,-187500.02235174447,-187500.02235174447,-187500.02235174447,-187500.02235174447,1730329073.4739616,1730329071.983646,5000
-20999.955654139,-187500.02235174447,2400.0632643775066,-187500.02235174447,-187500.02235174447,-187500.02235174447,-187500.02235174447,-187500.02235174447,1730329073.4779713,1730329071.983646,5000
-21084.735820857983,-187500.02235174447,2351.6493858873114,-187500.02235174447,-187500.02235174447,-187500.02235174447,-187500.02235174447,-187500.02235174447,1730329073.4819849,1730329071.983646,5000
-21092.98361456199,-187500.02235174447,2345.6814701177445,-187500.02235174447,-187500.02235174447,-187500.02235174447,-187500.02235174447,-187500.02235174447,1730329073.4859629,1730329071.983646,5000
-21046.290820394854,-187500.02235174447,2376.526877466068,-187500.02235174447,-187500.02235174447,-187500.02235174447,-187500.02235174447,-187500.02235174447,1730329073.4911149,1730329071.983646,5000
-21001.98966288444,-187500.02235174447,2351.045888787018,-187500.02235174447,-187500.02235174447,-187500.02235174447,-187500.02235174447,-187500.02235174447,1730329073.4950528,1730329071.983646,5000
-21033.23740163296,-187500.02235174447,2288.4610043121584,-187500.02235174447,-187500.02235174447,-187500.02235174447,-187500.02235174447,-187500.02235174447,1730329073.4990094,1730329071.983646,5000
-21021.97212242748,-187500.02235174447,2315.327801147437,-187500.02235174447,-187500.02235174447,-187500.02235174447,-187500.02235174447,-187500.02235174447,1730329073.502008,1730329071.983646,5000
-20984.309433020288,-187500.02235174447,2354.309243477493,-187500.02235174447,-187500.02235174447,-187500.02235174447,-187500.02235174447,-187500.02235174447,1730329073.5060184,1730329071.983646,5000
-21015.803040957813,-187500.02235174447,2359.4724964466686,-187500.02235174447,-187500.02235174447,-187500.02235174447,-187500.02235174447,-187500.02235174447,1730329073.5103269,1730329071.983646,5000
-21054.85153852124,-187500.02235174447,2349.4142114417805,-187500.02235174447,-187500.02235174447,-187500.02235174447,-187500.02235174447,-187500.02235174447,1730329073.514366,1730329071.983646,5000
-21049.867099507705,-187500.02235174447,2286.35994033336,-187500.02235174447,-187500.02235174447,-187500.02235174447,-187500.02235174447,-187500.02235174447,1730329073.5191703,1730329071.983646,5000
-21031.896296965635,-187500.02235174447,2309.5834028224235,-187500.02235174447,-187500.02235174447,-187500.02235174447,-187500.02235174447,-187500.02235174447,1730329073.5236442,1730329071.983646,5000
-21030.39873008713,-187500.02235174447,2343.8709788168644,-187500.02235174447,-187500.02235174447,-187500.02235174447,-187500.02235174447,-187500.02235174447,1730329073.527094,1730329071.983646,5000
-21043.92153548259,-187500.02235174447,2326.704839075189,-187500.02235174447,-187500.02235174447,-187500.02235174447,-187500.02235174447,-187500.02235174447,1730329073.5303695,1730329071.983646,5000
-21002.749622195915,-187500.02235174447,2383.724139180677,-187500.02235174447,-187500.02235174447,-187500.02235174447,-187500.02235174447,-187500.02235174447,1730329073.5346885,1730329071.983646,5000
-20958.984906552425,-187500.02235174447,2380.8631158903977,-187500.02235174447,-187500.02235174447,-187500.02235174447,-187500.02235174447,-187500.02235174447,1730329073.5382404,1730329071.983646,5000
-20934.4426911405,-187500.02235174447,2377.532705966557,-187500.02235174447,-187500.02235174447,-187500.02235174447,-187500.02235174447,-187500.02235174447,1730329073.5423777,1730329071.983646,5000
-20975.01110732688,-187500.02235174447,2334.1256182343504,-187500.02235174447,-187500.02235174447,-187500.02235174447,-187500.02235174447,-187500.02235174447,1730329073.54743,1730329071.983646,5000
-20933.682731829016,-187500.02235174447,2302.095568429896,-187500.02235174447,-187500.02235174447,-187500.02235174447,-187500.02235174447,-187500.02235174447,1730329073.5516975,1730329071.983646,5000
-21056.50556761093,-187500.02235174447,2334.1032664898958,-187500.02235174447,-187500.02235174447,-187500.02235174447,-187500.02235174447,-187500.02235174447,1730329073.555349,1730329071.983646,5000
-21039.40648310262,-187500.02235174447,2372.950598353219,-187500.02235174447,-187500.02235174447,-187500.02235174447,-187500.02235174447,-187500.02235174447,1730329073.5586443,1730329071.983646,5000
-21028.901163208626,-187500.02235174447,2308.108187688373,-187500.02235174447,-187500.02235174447,-187500.02235174447,-187500.02235174447,-187500.02235174447,1730329073.562272,1730329071.983646,5000
-21031.58337254326,-187500.02235174447,2283.6553792542672,-187500.02235174447,-187500.02235174447,-187500.02235174447,-187500.02235174447,-187500.02235174447,1730329073.566368,1730329071.983646,5000
-21034.44439583354,-187500.02235174447,2330.526987377046,-187500.02235174447,-187500.02235174447,-187500.02235174447,-187500.02235174447,-187500.02235174447,1730329073.5702124,1730329071.983646,5000
-21008.985758898947,-187500.02235174447,2374.179944298261,-187500.02235174447,-187500.02235174447,-187500.02235174447,-187500.02235174447,-187500.02235174447,1730329073.5757048,1730329071.983646,5000
-20985.091744076224,-187500.02235174447,2349.570673652968,-187500.02235174447,-187500.02235174447,-187500.02235174447,-187500.02235174447,-187500.02235174447,1730329073.5793712,1730329071.983646,5000
-21014.68545373505,-187500.02235174447,2276.9945594065857,-187500.02235174447,-187500.02235174447,-187500.02235174447,-187500.02235174447,-187500.02235174447,1730329073.582631,1730329071.983646,5000
-21066.98853576047,-187500.02235174447,2300.5756498069345,-187500.02235174447,-187500.02235174447,-187500.02235174447,-187500.02235174447,-187500.02235174447,1730329073.5862117,1730329071.983646,5000
-21034.77967200037,-187500.02235174447,2354.6221678998672,-187500.02235174447,-187500.02235174447,-187500.02235174447,-187500.02235174447,-187500.02235174447,1730329073.5905073,1730329071.983646,5000
-20970.071371802256,-187500.02235174447,2332.046906000007,-187500.02235174447,-187500.02235174447,-187500.02235174447,-187500.02235174447,-187500.02235174447,1730329073.5942583,1730329071.983646,5000
-21016.920628180585,-187500.02235174447,2278.536829774002,-187500.02235174447,-187500.02235174447,-187500.02235174447,-187500.02235174447,-187500.02235174447,1730329073.5988865,1730329071.983646,5000
-21047.900145995634,-187500.02235174447,2303.928411475231,-187500.02235174447,-187500.02235174447,-187500.02235174447,-187500.02235174447,-187500.02235174447,1730329073.6022327,1730329071.983646,5000
-21038.087730179755,-187500.02235174447,2370.916589607786,-187500.02235174447,-187500.02235174447,-187500.02235174447,-187500.02235174447,-187500.02235174447,1730329073.607634,1730329071.983646,5000
-20999.955654139,-187500.02235174447,2349.36950795287,-187500.02235174447,-187500.02235174447,-187500.02235174447,-187500.02235174447,-187500.02235174447,1730329073.6102831,1730329071.983646,5000
-21030.957523698515,-187500.02235174447,2281.755480975566,-187500.02235174447,-187500.02235174447,-187500.02235174447,-187500.02235174447,-187500.02235174447,1730329073.614719,1730329071.983646,5000
-21032.20922138801,-187500.02235174447,2276.21224835065,-187500.02235174447,-187500.02235174447,-187500.02235174447,-187500.02235174447,-187500.02235174447,1730329073.6185236,1730329071.983646,5000
-21006.705880964502,-187500.02235174447,2349.593025397423,-187500.02235174447,-187500.02235174447,-187500.02235174447,-187500.02235174447,-187500.02235174447,1730329073.6229844,1730329071.983646,5000
-20971.05484855829,-187500.02235174447,2372.1906390417385,-187500.02235174447,-187500.02235174447,-187500.02235174447,-187500.02235174447,-187500.02235174447,1730329073.626308,1730329071.983646,5000
-20988.28804353333,-187500.02235174447,2323.12855996234,-187500.02235174447,-187500.02235174447,-187500.02235174447,-187500.02235174447,-187500.02235174447,1730329073.63054,1730329071.983646,5000
-21031.62807603217,-187500.02235174447,2269.1043936138626,-187500.02235174447,-187500.02235174447,-187500.02235174447,-187500.02235174447,-187500.02235174447,1730329073.6353147,1730329071.983646,5000
-21005.007148385903,-187500.02235174447,2311.706818545678,-187500.02235174447,-187500.02235174447,-187500.02235174447,-187500.02235174447,-187500.02235174447,1730329073.6384175,1730329071.983646,5000
-20971.5018834474,-187500.02235174447,2343.468647416669,-187500.02235174447,-187500.02235174447,-187500.02235174447,-187500.02235174447,-187500.02235174447,1730329073.64284,1730329071.983646,5000
-20992.06548834628,-187500.02235174447,2331.666926344267,-187500.02235174447,-187500.02235174447,-187500.02235174447,-187500.02235174447,-187500.02235174447,1730329073.6463635,1730329071.983646,5000
-21062.78640780287,-187500.02235174447,2296.306466615971,-187500.02235174447,-187500.02235174447,-187500.02235174447,-187500.02235174447,-187500.02235174447,1730329073.6505885,1730329071.983646,5000
-21052.59401233125,-187500.02235174447,2306.3200481319486,-187500.02235174447,-187500.02235174447,-187500.02235174447,-187500.02235174447,-187500.02235174447,1730329073.6544423,1730329071.983646,5000
-20974.027630570847,-187500.02235174447,2362.221761014672,-187500.02235174447,-187500.02235174447,-187500.02235174447,-187500.02235174447,-187500.02235174447,1730329073.6586823,1730329071.983646,5000
-20978.699145162005,-187500.02235174447,2333.477417645147,-187500.02235174447,-187500.02235174447,-187500.02235174447,-187500.02235174447,-187500.02235174447,1730329073.6634312,1730329071.983646,5000
-20997.54166573783,-187500.02235174447,2265.1034313563623,-187500.02235174447,-187500.02235174447,-187500.02235174447,-187500.02235174447,-187500.02235174447,1730329073.6664813,1730329071.983646,5000
-20988.332747022243,-187500.02235174447,2298.1840131502167,-187500.02235174447,-187500.02235174447,-187500.02235174447,-187500.02235174447,-187500.02235174447,1730329073.6703873,1730329071.983646,5000
-20948.50193840289,-187500.02235174447,2372.883543119853,-187500.02235174447,-187500.02235174447,-187500.02235174447,-187500.02235174447,-187500.02235174447,1730329073.674667,1730329071.983646,5000
-20934.62150509614,-187500.02235174447,2330.571690865957,-187500.02235174447,-187500.02235174447,-187500.02235174447,-187500.02235174447,-187500.02235174447,1730329073.678309,1730329071.983646,5000
-20959.208423996977,-187500.02235174447,2258.1967423196725,-187500.02235174447,-187500.02235174447,-187500.02235174447,-187500.02235174447,-187500.02235174447,1730329073.6829937,1730329071.983646,5000
-20959.566051908263,-187500.02235174447,2303.526080075035,-187500.02235174447,-187500.02235174447,-187500.02235174447,-187500.02235174447,-187500.02235174447,1730329073.6874762,1730329071.983646,5000
-20976.218101527465,-187500.02235174447,2358.3772609683588,-187500.02235174447,-187500.02235174447,-187500.02235174447,-187500.02235174447,-187500.02235174447,1730329073.690674,1730329071.983646,5000
-21000.737965194938,-187500.02235174447,2333.835045556432,-187500.02235174447,-187500.02235174447,-187500.02235174447,-187500.02235174447,-187500.02235174447,1730329073.6936245,1730329071.983646,5000
-21007.555247253807,-187500.02235174447,2245.3668410023265,-187500.02235174447,-187500.02235174447,-187500.02235174447,-187500.02235174447,-187500.02235174447,1730329073.6986864,1730329071.983646,5000
-21034.69026502255,-187500.02235174447,2254.39694576227,-187500.02235174447,-187500.02235174447,-187500.02235174447,-187500.02235174447,-187500.02235174447,1730329073.7023451,1730329071.983646,5000
-20980.509636462884,-187500.02235174447,2399.0574358770177,-187500.02235174447,-187500.02235174447,-187500.02235174447,-187500.02235174447,-187500.02235174447,1730329073.70651,1730329071.983646,5000
-20951.161795993063,-187500.02235174447,2379.6561216898112,-187500.02235174447,-187500.02235174447,-187500.02235174447,-187500.02235174447,-187500.02235174447,1730329073.7103837,1730329071.983646,5000
-20970.38429622463,-187500.02235174447,2297.602867794379,-187500.02235174447,-187500.02235174447,-187500.02235174447,-187500.02235174447,-187500.02235174447,1730329073.714858,1730329071.983646,5000
-20988.84683714472,-187500.02235174447,2281.911943186753,-187500.02235174447,-187500.02235174447,-187500.02235174447,-187500.02235174447,-187500.02235174447,1730329073.7186377,1730329071.983646,5000
-20957.755560607384,-187500.02235174447,2354.1527812663057,-187500.02235174447,-187500.02235174447,-187500.02235174447,-187500.02235174447,-187500.02235174447,1730329073.721381,1730329071.983646,5000
-20869.04148686427,-187500.02235174447,2351.716441120677,-187500.02235174447,-187500.02235174447,-187500.02235174447,-187500.02235174447,-187500.02235174447,1730329073.7261646,1730329071.983646,5000
-20974.586424182227,-187500.02235174447,2303.190803908205,-187500.02235174447,-187500.02235174447,-187500.02235174447,-187500.02235174447,-187500.02235174447,1730329073.7307198,1730329071.983646,5000
-21051.007038474923,-187500.02235174447,2284.348283332382,-187500.02235174447,-187500.02235174447,-187500.02235174447,-187500.02235174447,-187500.02235174447,1730329073.7346144,1730329071.983646,5000
-21012.24911358942,-187500.02235174447,2351.828199842954,-187500.02235174447,-187500.02235174447,-187500.02235174447,-187500.02235174447,-187500.02235174447,1730329073.7385633,1730329071.983646,5000
-20965.712781633472,-187500.02235174447,2382.0030548576183,-187500.02235174447,-187500.02235174447,-187500.02235174447,-187500.02235174447,-187500.02235174447,1730329073.742915,1730329071.983646,5000
-20966.226871755945,-187500.02235174447,2329.252937943094,-187500.02235174447,-187500.02235174447,-187500.02235174447,-187500.02235174447,-187500.02235174447,1730329073.7464943,1730329071.983646,5000
-20995.462953503484,-187500.02235174447,2274.7593849610557,-187500.02235174447,-187500.02235174447,-187500.02235174447,-187500.02235174447,-187500.02235174447,1730329073.7499757,1730329071.983646,5000
-20986.857531888192,-187500.02235174447,2315.730132547633,-187500.02235174447,-187500.02235174447,-187500.02235174447,-187500.02235174447,-187500.02235174447,1730329073.753471,1730329071.983646,5000
-20947.071426757742,-187500.02235174447,2358.958406324197,-187500.02235174447,-187500.02235174447,-187500.02235174447,-187500.02235174447,-187500.02235174447,1730329073.7588627,1730329071.983646,5000
-20945.842080812705,-187500.02235174447,2324.804940796488,-187500.02235174447,-187500.02235174447,-187500.02235174447,-187500.02235174447,-187500.02235174447,1730329073.762598,1730329071.983646,5000
-20950.781816337327,-187500.02235174447,2271.697195970678,-187500.02235174447,-187500.02235174447,-187500.02235174447,-187500.02235174447,-187500.02235174447,1730329073.7666173,1730329071.983646,5000
-20928.36301664865,-187500.02235174447,2313.629068568834,-187500.02235174447,-187500.02235174447,-187500.02235174447,-187500.02235174447,-187500.02235174447,1730329073.7705193,1730329071.983646,5000
-20942.71283658896,-187500.02235174447,2355.627996400356,-187500.02235174447,-187500.02235174447,-187500.02235174447,-187500.02235174447,-187500.02235174447,1730329073.7747092,1730329071.983646,5000
-20962.51648217636,-187500.02235174447,2276.882800684309,-187500.02235174447,-187500.02235174447,-187500.02235174447,-187500.02235174447,-187500.02235174447,1730329073.777546,1730329071.983646,5000
-21007.1082123647,-187500.02235174447,2293.244277625594,-187500.02235174447,-187500.02235174447,-187500.02235174447,-187500.02235174447,-187500.02235174447,1730329073.7817457,1730329071.983646,5000
-20984.08591557573,-187500.02235174447,2361.6182639143785,-187500.02235174447,-187500.02235174447,-187500.02235174447,-187500.02235174447,-187500.02235174447,1730329073.7864535,1730329071.983646,5000
-20933.258048684365,-187500.02235174447,2382.4500897467246,-187500.02235174447,-187500.02235174447,-187500.02235174447,-187500.02235174447,-187500.02235174447,1730329073.7907991,1730329071.983646,5000
-20927.62540908163,-187500.02235174447,2354.443353944225,-187500.02235174447,-187500.02235174447,-187500.02235174447,-187500.02235174447,-187500.02235174447,1730329073.7946887,1730329071.983646,5000
-20949.641877370104,-187500.02235174447,2312.9138127462643,-187500.02235174447,-187500.02235174447,-187500.02235174447,-187500.02235174447,-187500.02235174447,1730329073.79883,1730329071.983646,5000
-20963.96934556596,-187500.02235174447,2310.9021557452866,-187500.02235174447,-187500.02235174447,-187500.02235174447,-187500.02235174447,-187500.02235174447,1730329073.8026297,1730329071.983646,5000
-20953.66519137206,-187500.02235174447,2320.021667483052,-187500.02235174447,-187500.02235174447,-187500.02235174447,-187500.02235174447,-187500.02235174447,1730329073.8056965,1730329071.983646,5000
-20888.57691151821,-187500.02235174447,2377.1303745663613,-187500.02235174447,-187500.02235174447,-187500.02235174447,-187500.02235174447,-187500.02235174447,1730329073.8097925,1730329071.983646,5000
-20937.23665919741,-187500.02235174447,2327.330687919937,-187500.02235174447,-187500.02235174447,-187500.02235174447,-187500.02235174447,-187500.02235174447,1730329073.8137393,1730329071.983646,5000
-20979.48145621794,-187500.02235174447,2295.9264869602307,-187500.02235174447,-187500.02235174447,-187500.02235174447,-187500.02235174447,-187500.02235174447,1730329073.818544,1730329071.983646,5000
-20991.953729624,-187500.02235174447,2336.9642897801746,-187500.02235174447,-187500.02235174447,-187500.02235174447,-187500.02235174447,-187500.02235174447,1730329073.823078,1730329071.983646,5000
-20934.733263818416,-187500.02235174447,2372.034176830552,-187500.02235174447,-187500.02235174447,-187500.02235174447,-187500.02235174447,-187500.02235174447,1730329073.8257277,1730329071.983646,5000
-20932.654551584077,-187500.02235174447,2319.664039571767,-187500.02235174447,-187500.02235174447,-187500.02235174447,-187500.02235174447,-187500.02235174447,1730329073.829716,1730329071.983646,5000
-20964.79636011081,-187500.02235174447,2269.8867046697983,-187500.02235174447,-187500.02235174447,-187500.02235174447,-187500.02235174447,-187500.02235174447,1730329073.8338444,1730329071.983646,5000
-20933.347455662188,-187500.02235174447,2316.7806645370324,-187500.02235174447,-187500.02235174447,-187500.02235174447,-187500.02235174447,-187500.02235174447,1730329073.8377512,1730329071.983646,5000
-20914.16965891953,-187500.02235174447,2362.6687959037777,-187500.02235174447,-187500.02235174447,-187500.02235174447,-187500.02235174447,-187500.02235174447,1730329073.8419347,1730329071.983646,5000
-20960.90715657558,-187500.02235174447,2312.533833090524,-187500.02235174447,-187500.02235174447,-187500.02235174447,-187500.02235174447,-187500.02235174447,1730329073.846738,1730329071.983646,5000
-20995.82058141477,-187500.02235174447,2248.1608090592395,-187500.02235174447,-187500.02235174447,-187500.02235174447,-187500.02235174447,-187500.02235174447,1730329073.85093,1730329071.983646,5000
-20975.34638349371,-187500.02235174447,2279.922637930231,-187500.02235174447,-187500.02235174447,-187500.02235174447,-187500.02235174447,-187500.02235174447,1730329073.8535843,1730329071.983646,5000
-20936.700217330483,-187500.02235174447,2337.456028158191,-187500.02235174447,-187500.02235174447,-187500.02235174447,-187500.02235174447,-187500.02235174447,1730329073.85787,1730329071.983646,5000
-20936.119071974645,-187500.02235174447,2306.543565576502,-187500.02235174447,-187500.02235174447,-187500.02235174447,-187500.02235174447,-187500.02235174447,1730329073.8615828,1730329071.983646,5000
-20950.20067098149,-187500.02235174447,2244.025736335008,-187500.02235174447,-187500.02235174447,-187500.02235174447,-187500.02235174447,-187500.02235174447,1730329073.8657975,1730329071.983646,5000
-20976.64278467212,-187500.02235174447,2243.690460168178,-187500.02235174447,-187500.02235174447,-187500.02235174447,-187500.02235174447,-187500.02235174447,1730329073.8695824,1730329071.983646,5000
-20925.546696847287,-187500.02235174447,2357.1032115344065,-187500.02235174447,-187500.02235174447,-187500.02235174447,-187500.02235174447,-187500.02235174447,1730329073.8748765,1730329071.983646,5000
-20921.545734589785,-187500.02235174447,2361.9982435701186,-187500.02235174447,-187500.02235174447,-187500.02235174447,-187500.02235174447,-187500.02235174447,1730329073.8788176,1730329071.983646,5000
-20950.111264003663,-187500.02235174447,2257.705003941656,-187500.02235174447,-187500.02235174447,-187500.02235174447,-187500.02235174447,-187500.02235174447,1730329073.8820903,1730329071.983646,5000
-20958.448464685494,-187500.02235174447,2248.429029992704,-187500.02235174447,-187500.02235174447,-187500.02235174447,-187500.02235174447,-187500.02235174447,1730329073.8856573,1730329071.983646,5000
-20925.36788289164,-187500.02235174447,2328.5153303760685,-187500.02235174447,-187500.02235174447,-187500.02235174447,-187500.02235174447,-187500.02235174447,1730329073.8903477,1730329071.983646,5000
-20894.76834473233,-187500.02235174447,2348.0060515410964,-187500.02235174447,-187500.02235174447,-187500.02235174447,-187500.02235174447,-187500.02235174447,1730329073.893733,1730329071.983646,5000
-20915.19783916448,-187500.02235174447,2297.379350349826,-187500.02235174447,-187500.02235174447,-187500.02235174447,-187500.02235174447,-187500.02235174447,1730329073.8984194,1730329071.983646,5000
-20999.77684018336,-187500.02235174447,2201.95975327012,-187500.02235174447,-187500.02235174447,-187500.02235174447,-187500.02235174447,-187500.02235174447,1730329073.902844,1730329071.983646,5000
-20980.39787774061,-187500.02235174447,2298.78751025051,-187500.02235174447,-187500.02235174447,-187500.02235174447,-187500.02235174447,-187500.02235174447,1730329073.9068787,1730329071.983646,5000
-20946.46792965745,-187500.02235174447,2379.6561216898112,-187500.02235174447,-187500.02235174447,-187500.02235174447,-187500.02235174447,-187500.02235174447,1730329073.910017,1730329071.983646,5000
-20955.74390360641,-187500.02235174447,2297.021722438541,-187500.02235174447,-187500.02235174447,-187500.02235174447,-187500.02235174447,-187500.02235174447,1730329073.913982,1730329071.983646,5000
-20979.280290517843,-187500.02235174447,2258.4873149975915,-187500.02235174447,-187500.02235174447,-187500.02235174447,-187500.02235174447,-187500.02235174447,1730329073.9182663,1730329071.983646,5000
-20958.940203063517,-187500.02235174447,2295.1665276487506,-187500.02235174447,-187500.02235174447,-187500.02235174447,-187500.02235174447,-187500.02235174447,1730329073.9217367,1730329071.983646,5000
-20893.69546099847,-187500.02235174447,2270.378443047815,-187500.02235174447,-187500.02235174447,-187500.02235174447,-187500.02235174447,-187500.02235174447,1730329073.9258845,1730329071.983646,5000
-20897.070574411224,-187500.02235174447,2318.434693626725,-187500.02235174447,-187500.02235174447,-187500.02235174447,-187500.02235174447,-187500.02235174447,1730329073.9310892,1730329071.983646,5000
-20976.48632246093,-187500.02235174447,2303.9731149641416,-187500.02235174447,-187500.02235174447,-187500.02235174447,-187500.02235174447,-187500.02235174447,1730329073.934984,1730329071.983646,5000
-20957.86731932966,-187500.02235174447,2296.93231546072,-187500.02235174447,-187500.02235174447,-187500.02235174447,-187500.02235174447,-187500.02235174447,1730329073.9378684,1730329071.983646,5000
-20904.51370531484,-187500.02235174447,2351.492923676124,-187500.02235174447,-187500.02235174447,-187500.02235174447,-187500.02235174447,-187500.02235174447,1730329073.942162,1730329071.983646,5000
-20938.57776386473,-187500.02235174447,2310.343362133904,-187500.02235174447,-187500.02235174447,-187500.02235174447,-187500.02235174447,-187500.02235174447,1730329073.9457655,1730329071.983646,5000
-20981.180188796545,-187500.02235174447,2256.028623107508,-187500.02235174447,-187500.02235174447,-187500.02235174447,-187500.02235174447,-187500.02235174447,1730329073.9497433,1730329071.983646,5000
-20985.806999898792,-187500.02235174447,2264.2987685559715,-187500.02235174447,-187500.02235174447,-187500.02235174447,-187500.02235174447,-187500.02235174447,1730329073.9538786,1730329071.983646,5000
-20929.70412131597,-187500.02235174447,2312.2209086681496,-187500.02235174447,-187500.02235174447,-187500.02235174447,-187500.02235174447,-187500.02235174447,1730329073.959313,1730329071.983646,5000
-20887.302862084256,-187500.02235174447,2311.6397633123115,-187500.02235174447,-187500.02235174447,-187500.02235174447,-187500.02235174447,-187500.02235174447,1730329073.9617577,1730329071.983646,5000
-20943.450444155987,-187500.02235174447,2233.58747167438,-187500.02235174447,-187500.02235174447,-187500.02235174447,-187500.02235174447,-187500.02235174447,1730329073.964969,1730329071.983646,5000
-20980.39787774061,-187500.02235174447,2257.995576619575,-187500.02235174447,-187500.02235174447,-187500.02235174447,-187500.02235174447,-187500.02235174447,1730329073.9698555,1730329071.983646,5000
-20921.52338284533,-187500.02235174447,2347.849589329909,-187500.02235174447,-187500.02235174447,-187500.02235174447,-187500.02235174447,-187500.02235174447,1730329073.9740562,1730329071.983646,5000
-20889.13570512959,-187500.02235174447,2335.064391501473,-187500.02235174447,-187500.02235174447,-187500.02235174447,-187500.02235174447,-187500.02235174447,1730329073.9779365,1730329071.983646,5000
-20942.019932510848,-187500.02235174447,2255.201608562661,-187500.02235174447,-187500.02235174447,-187500.02235174447,-187500.02235174447,-187500.02235174447,1730329073.9821064,1730329071.983646,5000
-20972.68652590353,-187500.02235174447,2239.2648147660275,-187500.02235174447,-187500.02235174447,-187500.02235174447,-187500.02235174447,-187500.02235174447,1730329073.9868424,1730329071.983646,5000
-20885.29120508328,-187500.02235174447,2329.297641432004,-187500.02235174447,-187500.02235174447,-187500.02235174447,-187500.02235174447,-187500.02235174447,1730329073.9905448,1730329071.983646,5000
-20860.59252746016,-187500.02235174447,2374.85049663192,-187500.02235174447,-187500.02235174447,-187500.02235174447,-187500.02235174447,-187500.02235174447,1730329073.9932392,1730329071.983646,5000
-20875.724658456405,-187500.02235174447,2316.959478492675,-187500.02235174447,-187500.02235174447,-187500.02235174447,-187500.02235174447,-187500.02235174447,1730329073.9982722,1730329071.983646,5000
-20940.5447173768,-187500.02235174447,2284.2141728656497,-187500.02235174447,-187500.02235174447,-187500.02235174447,-187500.02235174447,-187500.02235174447,1730329074.0018532,1730329071.983646,5000
-20946.311467446267,-187500.02235174447,2318.0323622265296,-187500.02235174447,-187500.02235174447,-187500.02235174447,-187500.02235174447,-187500.02235174447,1730329074.006049,1730329071.983646,5000
-20915.443708353487,-187500.02235174447,2314.590193580412,-187500.02235174447,-187500.02235174447,-187500.02235174447,-187500.02235174447,-187500.02235174447,1730329074.0102053,1730329071.983646,5000
-20868.77326593081,-187500.02235174447,2282.4930885425915,-187500.02235174447,-187500.02235174447,-187500.02235174447,-187500.02235174447,-187500.02235174447,1730329074.0145707,1730329071.983646,5000
-20964.170511266057,-187500.02235174447,2278.6262367518234,-187500.02235174447,-187500.02235174447,-187500.02235174447,-187500.02235174447,-187500.02235174447,1730329074.0182228,1730329071.983646,5000
-20989.740906922925,-187500.02235174447,2298.675751528234,-187500.02235174447,-187500.02235174447,-187500.02235174447,-187500.02235174447,-187500.02235174447,1730329074.021016,1730329071.983646,5000
-20940.410606910064,-187500.02235174447,2310.6115830673675,-187500.02235174447,-187500.02235174447,-187500.02235174447,-187500.02235174447,-187500.02235174447,1730329074.0259972,1730329071.983646,5000
-20925.725510802928,-187500.02235174447,2237.923710098709,-187500.02235174447,-187500.02235174447,-187500.02235174447,-187500.02235174447,-187500.02235174447,1730329074.029888,1730329071.983646,5000
-20893.203722620456,-187500.02235174447,2215.795483087955,-187500.02235174447,-187500.02235174447,-187500.02235174447,-187500.02235174447,-187500.02235174447,1730329074.0342252,1730329071.983646,5000
-20924.04912996878,-187500.02235174447,2313.6961238022,-187500.02235174447,-187500.02235174447,-187500.02235174447,-187500.02235174447,-187500.02235174447,1730329074.0379455,1730329071.983646,5000
-20895.55065578826,-187500.02235174447,2400.107967866417,-187500.02235174447,-187500.02235174447,-187500.02235174447,-187500.02235174447,-187500.02235174447,1730329074.0421522,1730329071.983646,5000
-20859.4749402374,-187500.02235174447,2333.7232868341557,-187500.02235174447,-187500.02235174447,-187500.02235174447,-187500.02235174447,-187500.02235174447,1730329074.0459373,1730329071.983646,5000
-20896.400022077563,-187500.02235174447,2244.629233435301,-187500.02235174447,-187500.02235174447,-187500.02235174447,-187500.02235174447,-187500.02235174447,1730329074.0494905,1730329071.983646,5000
-20928.65358932657,-187500.02235174447,2303.369617863848,-187500.02235174447,-187500.02235174447,-187500.02235174447,-187500.02235174447,-187500.02235174447,1730329074.0540247,1730329071.983646,5000
-20921.05399621177,-187500.02235174447,2344.3850689393366,-187500.02235174447,-187500.02235174447,-187500.02235174447,-187500.02235174447,-187500.02235174447,1730329074.0584855,1730329071.983646,5000
-20883.21249284893,-187500.02235174447,2328.470626887158,-187500.02235174447,-187500.02235174447,-187500.02235174447,-187500.02235174447,-187500.02235174447,1730329074.061912,1730329071.983646,5000
-20917.56712407674,-187500.02235174447,2289.3327223459155,-187500.02235174447,-187500.02235174447,-187500.02235174447,-187500.02235174447,-187500.02235174447,1730329074.066094,1730329071.983646,5000
-20953.441673927508,-187500.02235174447,2295.2782863710268,-187500.02235174447,-187500.02235174447,-187500.02235174447,-187500.02235174447,-187500.02235174447,1730329074.0699573,1730329071.983646,5000
-20898.836362223192,-187500.02235174447,2344.005089283596,-187500.02235174447,-187500.02235174447,-187500.02235174447,-187500.02235174447,-187500.02235174447,1730329074.0733511,1730329071.983646,5000
-20882.78780970428,-187500.02235174447,2314.634897069323,-187500.02235174447,-187500.02235174447,-187500.02235174447,-187500.02235174447,-187500.02235174447,1730329074.0769153,1730329071.983646,5000
-20971.613642169672,-187500.02235174447,2228.2677564940163,-187500.02235174447,-187500.02235174447,-187500.02235174447,-187500.02235174447,-187500.02235174447,1730329074.0812488,1730329071.983646,5000
-20966.6515549006,-187500.02235174447,2264.142306344784,-187500.02235174447,-187500.02235174447,-187500.02235174447,-187500.02235174447,-187500.02235174447,1730329074.086058,1730329071.983646,5000
-20910.101641428668,-187500.02235174447,2326.8165977974654,-187500.02235174447,-187500.02235174447,-187500.02235174447,-187500.02235174447,-187500.02235174447,1730329074.0901716,1730329071.983646,5000
-20876.17169334551,-187500.02235174447,2336.807827568988,-187500.02235174447,-187500.02235174447,-187500.02235174447,-187500.02235174447,-187500.02235174447,1730329074.0939338,1730329071.983646,5000
-20850.400131988543,-187500.02235174447,2264.92461740072,-187500.02235174447,-187500.02235174447,-187500.02235174447,-187500.02235174447,-187500.02235174447,1730329074.0972447,1730329071.983646,5000
-20956.57091815125,-187500.02235174447,2260.856599909854,-187500.02235174447,-187500.02235174447,-187500.02235174447,-187500.02235174447,-187500.02235174447,1730329074.1013796,1730329071.983646,5000
-20983.191845797523,-187500.02235174447,2302.319085874449,-187500.02235174447,-187500.02235174447,-187500.02235174447,-187500.02235174447,-187500.02235174447,1730329074.1051052,1730329071.983646,5000
-20919.98111247791,-187500.02235174447,2349.458914930691,-187500.02235174447,-187500.02235174447,-187500.02235174447,-187500.02235174447,-187500.02235174447,1730329074.109593,1730329071.983646,5000
-20889.96271967444,-187500.02235174447,2330.884615288331,-187500.02235174447,-187500.02235174447,-187500.02235174447,-187500.02235174447,-187500.02235174447,1730329074.1147273,1730329071.983646,5000
-20960.214252497462,-187500.02235174447,2263.3152917999378,-187500.02235174447,-187500.02235174447,-187500.02235174447,-187500.02235174447,-187500.02235174447,1730329074.1182144,1730329071.983646,5000
-20949.217194225454,-187500.02235174447,2282.426033309225,-187500.02235174447,-187500.02235174447,-187500.02235174447,-187500.02235174447,-187500.02235174447,1730329074.1223488,1730329071.983646,5000
-20893.606054020653,-187500.02235174447,2311.595059823401,-187500.02235174447,-187500.02235174447,-187500.02235174447,-187500.02235174447,-187500.02235174447,1730329074.1251633,1730329071.983646,5000
-20936.409644652565,-187500.02235174447,2286.426995566725,-187500.02235174447,-187500.02235174447,-187500.02235174447,-187500.02235174447,-187500.02235174447,1730329074.129047,1730329071.983646,5000
-20963.4999589324,-187500.02235174447,2241.1647130447286,-187500.02235174447,-187500.02235174447,-187500.02235174447,-187500.02235174447,-187500.02235174447,1730329074.133392,1730329071.983646,5000
-20936.23083069692,-187500.02235174447,2298.4522340836807,-187500.02235174447,-187500.02235174447,-187500.02235174447,-187500.02235174447,-187500.02235174447,1730329074.1372116,1730329071.983646,5000
-20870.382591531587,-187500.02235174447,2349.3024527195043,-187500.02235174447,-187500.02235174447,-187500.02235174447,-187500.02235174447,-187500.02235174447,1730329074.1426833,1730329071.983646,5000
-20902.479696569408,-187500.02235174447,2287.656341511767,-187500.02235174447,-187500.02235174447,-187500.02235174447,-187500.02235174447,-187500.02235174447,1730329074.1460996,1730329071.983646,5000
-20955.18510999502,-187500.02235174447,2222.880986080288,-187500.02235174447,-187500.02235174447,-187500.02235174447,-187500.02235174447,-187500.02235174447,1730329074.150447,1730329071.983646,5000
-20914.66139729755,-187500.02235174447,2295.702969515678,-187500.02235174447,-187500.02235174447,-187500.02235174447,-187500.02235174447,-187500.02235174447,1730329074.153066,1730329071.983646,5000
-20888.643966751573,-187500.02235174447,2324.804940796488,-187500.02235174447,-187500.02235174447,-187500.02235174447,-187500.02235174447,-187500.02235174447,1730329074.157611,1730329071.983646,5000
-20897.98699593389,-187500.02235174447,2300.97798120713,-187500.02235174447,-187500.02235174447,-187500.02235174447,-187500.02235174447,-187500.02235174447,1730329074.1611557,1730329071.983646,5000
-20892.779039475805,-187500.02235174447,2273.328873315916,-187500.02235174447,-187500.02235174447,-187500.02235174447,-187500.02235174447,-187500.02235174447,1730329074.1652265,1730329071.983646,5000
-20969.69139214652,-187500.02235174447,2250.507742227047,-187500.02235174447,-187500.02235174447,-187500.02235174447,-187500.02235174447,-187500.02235174447,1730329074.1700215,1730329071.983646,5000
-20934.71091207396,-187500.02235174447,2308.666981299756,-187500.02235174447,-187500.02235174447,-187500.02235174447,-187500.02235174447,-187500.02235174447,1730329074.174148,1730329071.983646,5000
-20878.675088724507,-187500.02235174447,2308.354056877381,-187500.02235174447,-187500.02235174447,-187500.02235174447,-187500.02235174447,-187500.02235174447,1730329074.1780643,1730329071.983646,5000
-20916.360129876157,-187500.02235174447,2278.40271930727,-187500.02235174447,-187500.02235174447,-187500.02235174447,-187500.02235174447,-187500.02235174447,1730329074.181186,1730329071.983646,5000
-20953.374618694143,-187500.02235174447,2268.21032383565,-187500.02235174447,-187500.02235174447,-187500.02235174447,-187500.02235174447,-187500.02235174447,1730329074.1849933,1730329071.983646,5000
-20904.290187870287,-187500.02235174447,2298.8322137394207,-187500.02235174447,-187500.02235174447,-187500.02235174447,-187500.02235174447,-187500.02235174447,1730329074.1891868,1730329071.983646,5000
-20837.436120204464,-187500.02235174447,2326.637783841823,-187500.02235174447,-187500.02235174447,-187500.02235174447,-187500.02235174447,-187500.02235174447,1730329074.1931973,1730329071.983646,5000
-20893.494295298373,-187500.02235174447,2287.6786932562227,-187500.02235174447,-187500.02235174447,-187500.02235174447,-187500.02235174447,-187500.02235174447,1730329074.197219,1730329071.983646,5000
-20981.157837052087,-187500.02235174447,2232.894567596265,-187500.02235174447,-187500.02235174447,-187500.02235174447,-187500.02235174447,-187500.02235174447,1730329074.2020435,1730329071.983646,5000
-20932.5427928618,-187500.02235174447,2288.081024656418,-187500.02235174447,-187500.02235174447,-187500.02235174447,-187500.02235174447,-187500.02235174447,1730329074.2051244,1730329071.983646,5000
-20844.096940052143,-187500.02235174447,2378.180906555761,-187500.02235174447,-187500.02235174447,-187500.02235174447,-187500.02235174447,-187500.02235174447,1730329074.2093318,1730329071.983646,5000
-20823.131003753067,-187500.02235174447,2304.7107225311665,-187500.02235174447,-187500.02235174447,-187500.02235174447,-187500.02235174447,-187500.02235174447,1730329074.2133305,1730329071.983646,5000
-20891.23676910839,-187500.02235174447,2237.789599631977,-187500.02235174447,-187500.02235174447,-187500.02235174447,-187500.02235174447,-187500.02235174447,1730329074.2173753,1730329071.983646,5000
-20951.65353437108,-187500.02235174447,2302.7214172746444,-187500.02235174447,-187500.02235174447,-187500.02235174447,-187500.02235174447,-187500.02235174447,1730329074.2213807,1730329071.983646,5000
-20890.745030730373,-187500.02235174447,2336.561958379979,-187500.02235174447,-187500.02235174447,-187500.02235174447,-187500.02235174447,-187500.02235174447,1730329074.225233,1730329071.983646,5000
-20863.94528912846,-187500.02235174447,2299.2345451396163,-187500.02235174447,-187500.02235174447,-187500.02235174447,-187500.02235174447,-187500.02235174447,1730329074.230528,1730329071.983646,5000
-20961.555357164783,-187500.02235174447,2240.5612159444354,-187500.02235174447,-187500.02235174447,-187500.02235174447,-187500.02235174447,-187500.02235174447,1730329074.2336652,1730329071.983646,5000
-20975.14521779361,-187500.02235174447,2259.984881876097,-187500.02235174447,-187500.02235174447,-187500.02235174447,-187500.02235174447,-187500.02235174447,1730329074.2372313,1730329071.983646,5000
-20859.40788500403,-187500.02235174447,2337.9477665362083,-187500.02235174447,-187500.02235174447,-187500.02235174447,-187500.02235174447,-187500.02235174447,1730329074.2418368,1730329071.983646,5000
-20884.84417019417,-187500.02235174447,2321.5862895949235,-187500.02235174447,-187500.02235174447,-187500.02235174447,-187500.02235174447,-187500.02235174447,1730329074.2452948,1730329071.983646,5000
-20965.198691511,-187500.02235174447,2244.651585179756,-187500.02235174447,-187500.02235174447,-187500.02235174447,-187500.02235174447,-187500.02235174447,1730329074.2496912,1730329071.983646,5000
-20932.00635099487,-187500.02235174447,2296.2170596381497,-187500.02235174447,-187500.02235174447,-187500.02235174447,-187500.02235174447,-187500.02235174447,1730329074.2531767,1730329071.983646,5000
-20883.480713782395,-187500.02235174447,2368.4802494621576,-187500.02235174447,-187500.02235174447,-187500.02235174447,-187500.02235174447,-187500.02235174447,1730329074.2585895,1730329071.983646,5000
-20851.69653316695,-187500.02235174447,2355.337423722437,-187500.02235174447,-187500.02235174447,-187500.02235174447,-187500.02235174447,-187500.02235174447,1730329074.2612035,1730329071.983646,5000
-20896.690594755484,-187500.02235174447,2276.92750417322,-187500.02235174447,-187500.02235174447,-187500.02235174447,-187500.02235174447,-187500.02235174447,1730329074.2654724,1730329071.983646,5000
-20916.494240342887,-187500.02235174447,2252.3182335279266,-187500.02235174447,-187500.02235174447,-187500.02235174447,-187500.02235174447,-187500.02235174447,1730329074.269363,1730329071.983646,5000
-20858.290297781263,-187500.02235174447,2346.3967259403144,-187500.02235174447,-187500.02235174447,-187500.02235174447,-187500.02235174447,-187500.02235174447,1730329074.273515,1730329071.983646,5000
-20848.83550987667,-187500.02235174447,2367.2956070060263,-187500.02235174447,-187500.02235174447,-187500.02235174447,-187500.02235174447,-187500.02235174447,1730329074.2772405,1730329071.983646,5000
-20904.267836125837,-187500.02235174447,2294.8088997374657,-187500.02235174447,-187500.02235174447,-187500.02235174447,-187500.02235174447,-187500.02235174447,1730329074.2818327,1730329071.983646,5000
-20891.750859230862,-187500.02235174447,2262.9800156331085,-187500.02235174447,-187500.02235174447,-187500.02235174447,-187500.02235174447,-187500.02235174447,1730329074.286199,1730329071.983646,5000
-20902.166772147037,-187500.02235174447,2324.2684989295603,-187500.02235174447,-187500.02235174447,-187500.02235174447,-187500.02235174447,-187500.02235174447,1730329074.2898362,1730329071.983646,5000
-20868.952079886447,-187500.02235174447,2369.6425401738334,-187500.02235174447,-187500.02235174447,-187500.02235174447,-187500.02235174447,-187500.02235174447,1730329074.292765,1730329071.983646,5000
-20882.430181793,-187500.02235174447,2287.835155467409,-187500.02235174447,-187500.02235174447,-187500.02235174447,-187500.02235174447,-187500.02235174447,1730329074.2980232,1730329071.983646,5000
-20903.17260064752,-187500.02235174447,2219.125893011796,-187500.02235174447,-187500.02235174447,-187500.02235174447,-187500.02235174447,-187500.02235174447,1730329074.301504,1730329071.983646,5000
-20874.830588678196,-187500.02235174447,2278.6262367518234,-187500.02235174447,-187500.02235174447,-187500.02235174447,-187500.02235174447,-187500.02235174447,1730329074.3056965,1730329071.983646,5000
-20843.49344295185,-187500.02235174447,2362.4452784592245,-187500.02235174447,-187500.02235174447,-187500.02235174447,-187500.02235174447,-187500.02235174447,1730329074.3098276,1730329071.983646,5000
-20794.87839876156,-187500.02235174447,2309.449292355692,-187500.02235174447,-187500.02235174447,-187500.02235174447,-187500.02235174447,-187500.02235174447,1730329074.3134964,1730329071.983646,5000
-20911.37569086262,-187500.02235174447,2248.7866579039883,-187500.02235174447,-187500.02235174447,-187500.02235174447,-187500.02235174447,-187500.02235174447,1730329074.3164494,1730329071.983646,5000
-20931.693426572496,-187500.02235174447,2355.6056446559005,-187500.02235174447,-187500.02235174447,-187500.02235174447,-187500.02235174447,-187500.02235174447,1730329074.3204272,1730329071.983646,5000
-20866.71690544092,-187500.02235174447,2405.852366191431,-187500.02235174447,-187500.02235174447,-187500.02235174447,-187500.02235174447,-187500.02235174447,1730329074.3259697,1730329071.983646,5000
-20854.57990820169,-187500.02235174447,2342.5522258940014,-187500.02235174447,-187500.02235174447,-187500.02235174447,-187500.02235174447,-187500.02235174447,1730329074.3294988,1730329071.983646,5000
-20913.722624030423,-187500.02235174447,2245.8138758914324,-187500.02235174447,-187500.02235174447,-187500.02235174447,-187500.02235174447,-187500.02235174447,1730329074.3335896,1730329071.983646,5000
-20883.167789360024,-187500.02235174447,2266.377480790315,-187500.02235174447,-187500.02235174447,-187500.02235174447,-187500.02235174447,-187500.02235174447,1730329074.337362,1730329071.983646,5000
-20840.118329539106,-187500.02235174447,2359.94188308023,-187500.02235174447,-187500.02235174447,-187500.02235174447,-187500.02235174447,-187500.02235174447,1730329074.3417876,1730329071.983646,5000
-20783.367250367075,-187500.02235174447,2374.694034420733,-187500.02235174447,-187500.02235174447,-187500.02235174447,-187500.02235174447,-187500.02235174447,1730329074.3443923,1730329071.983646,5000
-20845.438044719464,-187500.02235174447,2295.9264869602307,-187500.02235174447,-187500.02235174447,-187500.02235174447,-187500.02235174447,-187500.02235174447,1730329074.3486123,1730329071.983646,5000
-20949.932450048025,-187500.02235174447,2317.0265337260407,-187500.02235174447,-187500.02235174447,-187500.02235174447,-187500.02235174447,-187500.02235174447,1730329074.3524735,1730329071.983646,5000
-20874.830588678196,-187500.02235174447,2358.354909223904,-187500.02235174447,-187500.02235174447,-187500.02235174447,-187500.02235174447,-187500.02235174447,1730329074.3580656,1730329071.983646,5000
-20849.97544884389,-187500.02235174447,2345.793228840021,-187500.02235174447,-187500.02235174447,-187500.02235174447,-187500.02235174447,-187500.02235174447,1730329074.361451,1730329071.983646,5000
-20888.80042896276,-187500.02235174447,2291.791414235999,-187500.02235174447,-187500.02235174447,-187500.02235174447,-187500.02235174447,-187500.02235174447,1730329074.3656988,1730329071.983646,5000
-20918.30473164377,-187500.02235174447,2269.8867046697983,-187500.02235174447,-187500.02235174447,-187500.02235174447,-187500.02235174447,-187500.02235174447,1730329074.368357,1730329071.983646,5000
-20863.833530406184,-187500.02235174447,2344.5415311505235,-187500.02235174447,-187500.02235174447,-187500.02235174447,-187500.02235174447,-187500.02235174447,1730329074.3727715,1730329071.983646,5000
-20832.40697770202,-187500.02235174447,2370.268389018582,-187500.02235174447,-187500.02235174447,-187500.02235174447,-187500.02235174447,-187500.02235174447,1730329074.3765862,1730329071.983646,5000
-20844.18634702997,-187500.02235174447,2305.0012952090856,-187500.02235174447,-187500.02235174447,-187500.02235174447,-187500.02235174447,-187500.02235174447,1730329074.3817606,1730329071.983646,5000
