Fp1,Fp2,C3,C4,P7,P8,O1,O2,time_board,time_marker,marker
-1890.04115939631,-187500.02235174447,8212.723816957929,-187500.02235174447,-187500.02235174447,-187500.02235174447,-187500.02235174447,-187500.02235174447,1730330451.6611352,1730330451.6589448,5000
-1955.4647154169936,-187500.02235174447,8228.884128199117,-187500.02235174447,-187500.02235174447,-187500.02235174447,-187500.02235174447,-187500.02235174447,1730330451.664162,1730330451.6589448,5000
-1983.7173204085016,-187500.02235174447,8203.62665696462,-187500.02235174447,-187500.02235174447,-187500.02235174447,-187500.02235174447,-187500.02235174447,1730330451.66839,1730330451.6589448,5000
-1922.5182440898711,-187500.02235174447,8182.213685776435,-187500.02235174447,-187500.02235174447,-187500.02235174447,-187500.02235174447,-187500.02235174447,1730330451.6721058,1730330451.6589448,5000
-1886.4648802834608,-187500.02235174447,8205.10187209867,-187500.02235174447,-187500.02235174447,-187500.02235174447,-187500.02235174447,-187500.02235174447,1730330451.6763315,1730330451.6589448,5000
-1945.205264712008,-187500.02235174447,8227.408913065066,-187500.02235174447,-187500.02235174447,-187500.02235174447,-187500.02235174447,-187500.02235174447,1730330451.6811512,1730330451.6589448,5000
-1993.0379978463648,-187500.02235174447,8201.190316818991,-187500.02235174447,-187500.02235174447,-187500.02235174447,-187500.02235174447,-187500.02235174447,1730330451.6851747,1730330451.6589448,5000
-1937.71743031948,-187500.02235174447,8175.955197328949,-187500.02235174447,-187500.02235174447,-187500.02235174447,-187500.02235174447,-187500.02235174447,1730330451.6891768,1730330451.6589448,5000
-1884.2520575823853,-187500.02235174447,8193.344854515179,-187500.02235174447,-187500.02235174447,-187500.02235174447,-187500.02235174447,-187500.02235174447,1730330451.692314,1730330451.6589448,5000
-1932.330659905751,-187500.02235174447,8219.854023439173,-187500.02235174447,-187500.02235174447,-187500.02235174447,-187500.02235174447,-187500.02235174447,1730330451.6961448,1730330451.6589448,5000
-1991.160451312119,-187500.02235174447,8204.364264531645,-187500.02235174447,-187500.02235174447,-187500.02235174447,-187500.02235174447,-187500.02235174447,1730330451.7001765,1730330451.6589448,5000
-1949.72031709198,-187500.02235174447,8176.71515664043,-187500.02235174447,-187500.02235174447,-187500.02235174447,-187500.02235174447,-187500.02235174447,1730330451.704333,1730330451.6589448,5000
-1885.391996549606,-187500.02235174447,8187.868677123628,-187500.02235174447,-187500.02235174447,-187500.02235174447,-187500.02235174447,-187500.02235174447,1730330451.708527,1730330451.6589448,5000
-1918.1373021766308,-187500.02235174447,8213.640238480597,-187500.02235174447,-187500.02235174447,-187500.02235174447,-187500.02235174447,-187500.02235174447,1730330451.7131765,1730330451.6589448,5000
-1989.1711460555969,-187500.02235174447,8203.134918586602,-187500.02235174447,-187500.02235174447,-187500.02235174447,-187500.02235174447,-187500.02235174447,1730330451.7173755,1730330451.6589448,5000
-1965.5677039107925,-187500.02235174447,8174.591740917175,-187500.02235174447,-187500.02235174447,-187500.02235174447,-187500.02235174447,-187500.02235174447,1730330451.720261,1730330451.6589448,5000
-1891.359912319173,-187500.02235174447,8181.789002631785,-187500.02235174447,-187500.02235174447,-187500.02235174447,-187500.02235174447,-187500.02235174447,1730330451.7244372,1730330451.6589448,5000
-1899.451243811994,-187500.02235174447,8219.138767616603,-187500.02235174447,-187500.02235174447,-187500.02235174447,-187500.02235174447,-187500.02235174447,1730330451.728487,1730330451.6589448,5000
-1969.9262940795768,-187500.02235174447,8221.619811251141,-187500.02235174447,-187500.02235174447,-187500.02235174447,-187500.02235174447,-187500.02235174447,1730330451.732471,1730330451.6589448,5000
-1963.1984189985296,-187500.02235174447,8191.936694614494,-187500.02235174447,-187500.02235174447,-187500.02235174447,-187500.02235174447,-187500.02235174447,1730330451.736476,1730330451.6589448,5000
-1892.9021826865887,-187500.02235174447,8185.164116044536,-187500.02235174447,-187500.02235174447,-187500.02235174447,-187500.02235174447,-187500.02235174447,1730330451.741449,1730330451.6589448,5000
-1887.202487850486,-187500.02235174447,8215.137805359103,-187500.02235174447,-187500.02235174447,-187500.02235174447,-187500.02235174447,-187500.02235174447,1730330451.745379,1730330451.6589448,5000
-1962.10318352022,-187500.02235174447,8223.832633952217,-187500.02235174447,-187500.02235174447,-187500.02235174447,-187500.02235174447,-187500.02235174447,1730330451.7483397,1730330451.6589448,5000
-1978.1517360391304,-187500.02235174447,8195.37886326061,-187500.02235174447,-187500.02235174447,-187500.02235174447,-187500.02235174447,-187500.02235174447,1730330451.752486,1730330451.6589448,5000
-1909.062493927776,-187500.02235174447,8183.130107299103,-187500.02235174447,-187500.02235174447,-187500.02235174447,-187500.02235174447,-187500.02235174447,1730330451.7562685,1730330451.6589448,5000
-1885.3472930606956,-187500.02235174447,8215.383674548111,-187500.02235174447,-187500.02235174447,-187500.02235174447,-187500.02235174447,-187500.02235174447,1730330451.760502,1730330451.6589448,5000
-1952.8272095712675,-187500.02235174447,8234.561471290765,-187500.02235174447,-187500.02235174447,-187500.02235174447,-187500.02235174447,-187500.02235174447,1730330451.7643025,1730330451.6589448,5000
-1981.705663407524,-187500.02235174447,8212.902630913572,-187500.02235174447,-187500.02235174447,-187500.02235174447,-187500.02235174447,-187500.02235174447,1730330451.7695212,1730330451.6589448,5000
-1919.8360347552343,-187500.02235174447,8200.095081340682,-187500.02235174447,-187500.02235174447,-187500.02235174447,-187500.02235174447,-187500.02235174447,1730330451.7740736,1730330451.6589448,5000
-1887.9847989064217,-187500.02235174447,8248.754829019885,-187500.02235174447,-187500.02235174447,-187500.02235174447,-187500.02235174447,-187500.02235174447,1730330451.7765152,1730330451.6589448,5000
-1948.6697851025804,-187500.02235174447,8284.003530025904,-187500.02235174447,-187500.02235174447,-187500.02235174447,-187500.02235174447,-187500.02235174447,1730330451.7803493,1730330451.6589448,5000
-1985.103128564731,-187500.02235174447,8191.199087047468,-187500.02235174447,-187500.02235174447,-187500.02235174447,-187500.02235174447,-187500.02235174447,1730330451.7844684,1730330451.6589448,5000
-1928.4638081149828,-187500.02235174447,8186.102889311659,-187500.02235174447,-187500.02235174447,-187500.02235174447,-187500.02235174447,-187500.02235174447,1730330451.7883153,1730330451.6589448,5000
-1874.506696999872,-187500.02235174447,8228.414741565555,-187500.02235174447,-187500.02235174447,-187500.02235174447,-187500.02235174447,-187500.02235174447,1730330451.7925324,1730330451.6589448,5000
-1921.490063844927,-187500.02235174447,8220.993962406394,-187500.02235174447,-187500.02235174447,-187500.02235174447,-187500.02235174447,-187500.02235174447,1730330451.7973883,1730330451.6589448,5000
-1973.256704003418,-187500.02235174447,8234.293250357301,-187500.02235174447,-187500.02235174447,-187500.02235174447,-187500.02235174447,-187500.02235174447,1730330451.8005767,1730330451.6589448,5000
-1946.2557967014072,-187500.02235174447,8224.905517686071,-187500.02235174447,-187500.02235174447,-187500.02235174447,-187500.02235174447,-187500.02235174447,1730330451.8046012,1730330451.6589448,5000
-1888.029502395332,-187500.02235174447,8213.707293713964,-187500.02235174447,-187500.02235174447,-187500.02235174447,-187500.02235174447,-187500.02235174447,1730330451.808476,1730330451.6589448,5000
-1924.9322324910445,-187500.02235174447,8247.458427841477,-187500.02235174447,-187500.02235174447,-187500.02235174447,-187500.02235174447,-187500.02235174447,1730330451.8125403,1730330451.6589448,5000
-1988.321779766295,-187500.02235174447,8280.78487882434,-187500.02235174447,-187500.02235174447,-187500.02235174447,-187500.02235174447,-187500.02235174447,1730330451.816514,1730330451.6589448,5000
-1957.208151484508,-187500.02235174447,8217.305924571267,-187500.02235174447,-187500.02235174447,-187500.02235174447,-187500.02235174447,-187500.02235174447,1730330451.8205416,1730330451.6589448,5000
-1879.200563335486,-187500.02235174447,8146.85322604814,-187500.02235174447,-187500.02235174447,-187500.02235174447,-187500.02235174447,-187500.02235174447,1730330451.8255513,1730330451.6589448,5000
-1886.844859939201,-187500.02235174447,8180.649063664564,-187500.02235174447,-187500.02235174447,-187500.02235174447,-187500.02235174447,-187500.02235174447,1730330451.828379,1730330451.6589448,5000
-1960.4044509416165,-187500.02235174447,8219.876375183627,-187500.02235174447,-187500.02235174447,-187500.02235174447,-187500.02235174447,-187500.02235174447,1730330451.8315716,1730330451.6589448,5000
-1968.7640033679013,-187500.02235174447,8228.861776454662,-187500.02235174447,-187500.02235174447,-187500.02235174447,-187500.02235174447,-187500.02235174447,1730330451.8365495,1730330451.6589448,5000
-1905.3074008592848,-187500.02235174447,8183.621845677119,-187500.02235174447,-187500.02235174447,-187500.02235174447,-187500.02235174447,-187500.02235174447,1730330451.8403828,1730330451.6589448,5000
-1893.2374588534187,-187500.02235174447,8170.300205981756,-187500.02235174447,-187500.02235174447,-187500.02235174447,-187500.02235174447,-187500.02235174447,1730330451.8445716,1730330451.6589448,5000
-1965.232427743963,-187500.02235174447,8189.925037613516,-187500.02235174447,-187500.02235174447,-187500.02235174447,-187500.02235174447,-187500.02235174447,1730330451.8485625,1730330451.6589448,5000
-1985.192535542552,-187500.02235174447,8188.539229457288,-187500.02235174447,-187500.02235174447,-187500.02235174447,-187500.02235174447,-187500.02235174447,1730330451.85361,1730330451.6589448,5000
-1917.8020260098008,-187500.02235174447,8183.398328232566,-187500.02235174447,-187500.02235174447,-187500.02235174447,-187500.02235174447,-187500.02235174447,1730330451.8566413,1730330451.6589448,5000
-1874.0596621107652,-187500.02235174447,8206.644142466086,-187500.02235174447,-187500.02235174447,-187500.02235174447,-187500.02235174447,-187500.02235174447,1730330451.8596544,1730330451.6589448,5000
-1930.6095755826923,-187500.02235174447,8245.178549907036,-187500.02235174447,-187500.02235174447,-187500.02235174447,-187500.02235174447,-187500.02235174447,1730330451.864556,1730330451.6589448,5000
-1971.2226952579847,-187500.02235174447,8218.825843194229,-187500.02235174447,-187500.02235174447,-187500.02235174447,-187500.02235174447,-187500.02235174447,1730330451.868676,1730330451.6589448,5000
-1909.9342119615333,-187500.02235174447,8208.409930278056,-187500.02235174447,-187500.02235174447,-187500.02235174447,-187500.02235174447,-187500.02235174447,1730330451.8724847,1730330451.6589448,5000
-1869.2540370528743,-187500.02235174447,8243.748038261896,-187500.02235174447,-187500.02235174447,-187500.02235174447,-187500.02235174447,-187500.02235174447,1730330451.8764696,1730330451.6589448,5000
-1927.301517403307,-187500.02235174447,8194.104813826658,-187500.02235174447,-187500.02235174447,-187500.02235174447,-187500.02235174447,-187500.02235174447,1730330451.8804896,1730330451.6589448,5000
-1983.516154708404,-187500.02235174447,8177.653929907553,-187500.02235174447,-187500.02235174447,-187500.02235174447,-187500.02235174447,-187500.02235174447,1730330451.8846583,1730330451.6589448,5000
-1932.308308161296,-187500.02235174447,8194.462441737944,-187500.02235174447,-187500.02235174447,-187500.02235174447,-187500.02235174447,-187500.02235174447,1730330451.8876283,1730330451.6589448,5000
-1869.9469411309888,-187500.02235174447,8237.489549814409,-187500.02235174447,-187500.02235174447,-187500.02235174447,-187500.02235174447,-187500.02235174447,1730330451.8926544,1730330451.6589448,5000
-1909.978915450444,-187500.02235174447,8241.065828927258,-187500.02235174447,-187500.02235174447,-187500.02235174447,-187500.02235174447,-187500.02235174447,1730330451.8964171,1730330451.6589448,5000
-1976.3635964827056,-187500.02235174447,8177.653929907553,-187500.02235174447,-187500.02235174447,-187500.02235174447,-187500.02235174447,-187500.02235174447,1730330451.9004788,1730330451.6589448,5000
-1956.9175788065888,-187500.02235174447,8149.311917938223,-187500.02235174447,-187500.02235174447,-187500.02235174447,-187500.02235174447,-187500.02235174447,1730330451.9044292,1730330451.6589448,5000
-1914.2033951524968,-187500.02235174447,8194.015406848837,-187500.02235174447,-187500.02235174447,-187500.02235174447,-187500.02235174447,-187500.02235174447,1730330451.9086788,1730330451.6589448,5000
-1915.455092841994,-187500.02235174447,8274.839314799228,-187500.02235174447,-187500.02235174447,-187500.02235174447,-187500.02235174447,-187500.02235174447,1730330451.911696,1730330451.6589448,5000
-1949.519151391882,-187500.02235174447,8268.334957162733,-187500.02235174447,-187500.02235174447,-187500.02235174447,-187500.02235174447,-187500.02235174447,1730330451.9157057,1730330451.6589448,5000
-1951.7990293263235,-187500.02235174447,8170.255502492846,-187500.02235174447,-187500.02235174447,-187500.02235174447,-187500.02235174447,-187500.02235174447,1730330451.9197347,1730330451.6589448,5000
-1880.2063918359747,-187500.02235174447,8140.482978878377,-187500.02235174447,-187500.02235174447,-187500.02235174447,-187500.02235174447,-187500.02235174447,1730330451.924725,1730330451.6589448,5000
-1885.615513994159,-187500.02235174447,8193.009578348348,-187500.02235174447,-187500.02235174447,-187500.02235174447,-187500.02235174447,-187500.02235174447,1730330451.928744,1730330451.6589448,5000
-1982.756195396924,-187500.02235174447,8243.211596394967,-187500.02235174447,-187500.02235174447,-187500.02235174447,-187500.02235174447,-187500.02235174447,1730330451.9327471,1730330451.6589448,5000
-1993.4403292465604,-187500.02235174447,8214.891936170094,-187500.02235174447,-187500.02235174447,-187500.02235174447,-187500.02235174447,-187500.02235174447,1730330451.936797,1730330451.6589448,5000
-1896.523165288349,-187500.02235174447,8179.844400864173,-187500.02235174447,-187500.02235174447,-187500.02235174447,-187500.02235174447,-187500.02235174447,1730330451.9407864,1730330451.6589448,5000
-1867.667063196548,-187500.02235174447,8173.272987994313,-187500.02235174447,-187500.02235174447,-187500.02235174447,-187500.02235174447,-187500.02235174447,1730330451.9437902,1730330451.6589448,5000
-1950.368517681184,-187500.02235174447,8178.23507526339,-187500.02235174447,-187500.02235174447,-187500.02235174447,-187500.02235174447,-187500.02235174447,1730330451.9486167,1730330451.6589448,5000
-1973.3684627256944,-187500.02235174447,8154.765743585318,-187500.02235174447,-187500.02235174447,-187500.02235174447,-187500.02235174447,-187500.02235174447,1730330451.9527748,1730330451.6589448,5000
-1897.618400766659,-187500.02235174447,8164.198179745457,-187500.02235174447,-187500.02235174447,-187500.02235174447,-187500.02235174447,-187500.02235174447,1730330451.9567351,1730330451.6589448,5000
-1870.8633626536564,-187500.02235174447,8163.438220433977,-187500.02235174447,-187500.02235174447,-187500.02235174447,-187500.02235174447,-187500.02235174447,1730330451.960827,1730330451.6589448,5000
-1937.6056715972036,-187500.02235174447,8182.817182876728,-187500.02235174447,-187500.02235174447,-187500.02235174447,-187500.02235174447,-187500.02235174447,1730330451.9635816,1730330451.6589448,5000
-1974.709567393013,-187500.02235174447,8164.958139056938,-187500.02235174447,-187500.02235174447,-187500.02235174447,-187500.02235174447,-187500.02235174447,1730330451.9677143,1730330451.6589448,5000
-1924.6193080686696,-187500.02235174447,8133.598641586143,-187500.02235174447,-187500.02235174447,-187500.02235174447,-187500.02235174447,-187500.02235174447,1730330451.9715517,1730330451.6589448,5000
-1879.4464325244944,-187500.02235174447,8161.426563432999,-187500.02235174447,-187500.02235174447,-187500.02235174447,-187500.02235174447,-187500.02235174447,1730330451.975678,1730330451.6589448,5000
-1917.5114533318824,-187500.02235174447,8205.973590132427,-187500.02235174447,-187500.02235174447,-187500.02235174447,-187500.02235174447,-187500.02235174447,1730330451.9805784,1730330451.6589448,5000
-1974.3295877372727,-187500.02235174447,8166.790982102273,-187500.02235174447,-187500.02235174447,-187500.02235174447,-187500.02235174447,-187500.02235174447,1730330451.984672,1730330451.6589448,5000
-1947.351032179717,-187500.02235174447,8135.722057309396,-187500.02235174447,-187500.02235174447,-187500.02235174447,-187500.02235174447,-187500.02235174447,1730330451.988592,1730330451.6589448,5000
-1886.1743076055416,-187500.02235174447,8139.745371311352,-187500.02235174447,-187500.02235174447,-187500.02235174447,-187500.02235174447,-187500.02235174447,1730330451.9916625,1730330451.6589448,5000
-1910.493005572916,-187500.02235174447,8168.646176892063,-187500.02235174447,-187500.02235174447,-187500.02235174447,-187500.02235174447,-187500.02235174447,1730330451.9957051,1730330451.6589448,5000
-1978.7999366283343,-187500.02235174447,8169.2943774812675,-187500.02235174447,-187500.02235174447,-187500.02235174447,-187500.02235174447,-187500.02235174447,1730330451.9997983,1730330451.6589448,5000
-1935.348145407217,-187500.02235174447,8105.837774972651,-187500.02235174447,-187500.02235174447,-187500.02235174447,-187500.02235174447,-187500.02235174447,1730330452.0038085,1730330451.6589448,5000
-1873.098537099187,-187500.02235174447,8096.494745790333,-187500.02235174447,-187500.02235174447,-187500.02235174447,-187500.02235174447,-187500.02235174447,1730330452.008788,1730330451.6589448,5000
-1885.0120168938656,-187500.02235174447,8150.362449927623,-187500.02235174447,-187500.02235174447,-187500.02235174447,-187500.02235174447,-187500.02235174447,1730330452.0127628,1730330451.6589448,5000
-1944.2664914448849,-187500.02235174447,8155.458647663432,-187500.02235174447,-187500.02235174447,-187500.02235174447,-187500.02235174447,-187500.02235174447,1730330452.016852,1730330451.6589448,5000
-1970.3733289686836,-187500.02235174447,8145.08743823617,-187500.02235174447,-187500.02235174447,-187500.02235174447,-187500.02235174447,-187500.02235174447,1730330452.0198877,1730330451.6589448,5000
-1895.070301898754,-187500.02235174447,8143.142836468558,-187500.02235174447,-187500.02235174447,-187500.02235174447,-187500.02235174447,-187500.02235174447,1730330452.0238607,1730330451.6589448,5000
-1865.074260839732,-187500.02235174447,8086.861143930095,-187500.02235174447,-187500.02235174447,-187500.02235174447,-187500.02235174447,-187500.02235174447,1730330452.027894,1730330451.6589448,5000
-1941.1819507100524,-187500.02235174447,8102.708530748908,-187500.02235174447,-187500.02235174447,-187500.02235174447,-187500.02235174447,-187500.02235174447,1730330452.031695,1730330451.6589448,5000
-1959.5774363967705,-187500.02235174447,8098.037016157748,-187500.02235174447,-187500.02235174447,-187500.02235174447,-187500.02235174447,-187500.02235174447,1730330452.0368807,1730330451.6589448,5000
-1904.8827177146336,-187500.02235174447,8103.535545293755,-187500.02235174447,-187500.02235174447,-187500.02235174447,-187500.02235174447,-187500.02235174447,1730330452.0407784,1730330451.6589448,5000
-1884.274409326841,-187500.02235174447,8133.241013674858,-187500.02235174447,-187500.02235174447,-187500.02235174447,-187500.02235174447,-187500.02235174447,1730330452.043736,1730330451.6589448,5000
-1945.741706578935,-187500.02235174447,8106.754196495319,-187500.02235174447,-187500.02235174447,-187500.02235174447,-187500.02235174447,-187500.02235174447,1730330452.0476863,1730330451.6589448,5000
-1967.9593405675105,-187500.02235174447,8063.302405274201,-187500.02235174447,-187500.02235174447,-187500.02235174447,-187500.02235174447,-187500.02235174447,1730330452.0518048,1730330451.6589448,5000
-1900.814700223768,-187500.02235174447,8019.336523930612,-187500.02235174447,-187500.02235174447,-187500.02235174447,-187500.02235174447,-187500.02235174447,1730330452.0557296,1730330451.6589448,5000
-1860.3803945041172,-187500.02235174447,8030.82532058064,-187500.02235174447,-187500.02235174447,-187500.02235174447,-187500.02235174447,-187500.02235174447,1730330452.0599484,1730330451.6589448,5000
-1933.1129709616864,-187500.02235174447,8066.096373331115,-187500.02235174447,-187500.02235174447,-187500.02235174447,-187500.02235174447,-187500.02235174447,1730330452.06482,1730330451.6589448,5000
-1984.8796111201775,-187500.02235174447,8107.156527895514,-187500.02235174447,-187500.02235174447,-187500.02235174447,-187500.02235174447,-187500.02235174447,1730330452.068926,1730330451.6589448,5000
-1919.7019242885024,-187500.02235174447,8092.9855219108495,-187500.02235174447,-187500.02235174447,-187500.02235174447,-187500.02235174447,-187500.02235174447,1730330452.0717268,1730330451.6589448,5000
-1862.36969976064,-187500.02235174447,8037.754361361785,-187500.02235174447,-187500.02235174447,-187500.02235174447,-187500.02235174447,-187500.02235174447,1730330452.075987,1730330451.6589448,5000
-1913.1528631630972,-187500.02235174447,8086.50351601881,-187500.02235174447,-187500.02235174447,-187500.02235174447,-187500.02235174447,-187500.02235174447,1730330452.0797696,1730330451.6589448,5000
-1974.7989743708345,-187500.02235174447,8019.694151841897,-187500.02235174447,-187500.02235174447,-187500.02235174447,-187500.02235174447,-187500.02235174447,1730330452.083948,1730330451.6589448,5000
-1940.2431774429297,-187500.02235174447,7991.240381150292,-187500.02235174447,-187500.02235174447,-187500.02235174447,-187500.02235174447,-187500.02235174447,1730330452.0878167,1730330451.6589448,5000
-1872.2268190654304,-187500.02235174447,7991.173325916926,-187500.02235174447,-187500.02235174447,-187500.02235174447,-187500.02235174447,-187500.02235174447,1730330452.0917833,1730330451.6589448,5000
-1908.3695898496617,-187500.02235174447,8012.407483149467,-187500.02235174447,-187500.02235174447,-187500.02235174447,-187500.02235174447,-187500.02235174447,1730330452.0967977,1730330451.6589448,5000
-1975.1566022821191,-187500.02235174447,8019.671800097442,-187500.02235174447,-187500.02235174447,-187500.02235174447,-187500.02235174447,-187500.02235174447,1730330452.099998,1730330451.6589448,5000
-1967.9369888230551,-187500.02235174447,8003.310323156157,-187500.02235174447,-187500.02235174447,-187500.02235174447,-187500.02235174447,-187500.02235174447,1730330452.104061,1730330451.6589448,5000
-1899.1606711340755,-187500.02235174447,8009.054721481171,-187500.02235174447,-187500.02235174447,-187500.02235174447,-187500.02235174447,-187500.02235174447,1730330452.1078703,1730330451.6589448,5000
-1889.3482553181957,-187500.02235174447,8014.01680875025,-187500.02235174447,-187500.02235174447,-187500.02235174447,-187500.02235174447,-187500.02235174447,1730330452.1118867,1730330451.6589448,5000
-1951.5978636262253,-187500.02235174447,7962.250168591759,-187500.02235174447,-187500.02235174447,-187500.02235174447,-187500.02235174447,-187500.02235174447,1730330452.1159897,1730330451.6589448,5000
-1958.3033869628175,-187500.02235174447,7942.446523004356,-187500.02235174447,-187500.02235174447,-187500.02235174447,-187500.02235174447,-187500.02235174447,1730330452.1199875,1730330451.6589448,5000
-1895.4726332989496,-187500.02235174447,7949.420267274412,-187500.02235174447,-187500.02235174447,-187500.02235174447,-187500.02235174447,-187500.02235174447,1730330452.1250598,1730330451.6589448,5000
-1878.5747144907373,-187500.02235174447,7983.730195013309,-187500.02235174447,-187500.02235174447,-187500.02235174447,-187500.02235174447,-187500.02235174447,1730330452.128002,1730330451.6589448,5000
-1949.3179856917843,-187500.02235174447,7991.709767783853,-187500.02235174447,-187500.02235174447,-187500.02235174447,-187500.02235174447,-187500.02235174447,1730330452.1320112,1730330451.6589448,5000
-1976.810631371812,-187500.02235174447,7979.237494377791,-187500.02235174447,-187500.02235174447,-187500.02235174447,-187500.02235174447,-187500.02235174447,1730330452.1359415,1730330451.6589448,5000
-1899.697113001003,-187500.02235174447,7952.773028942708,-187500.02235174447,-187500.02235174447,-187500.02235174447,-187500.02235174447,-187500.02235174447,1730330452.1400228,1730330451.6589448,5000
-1870.1481068310864,-187500.02235174447,7975.4824013093,-187500.02235174447,-187500.02235174447,-187500.02235174447,-187500.02235174447,-187500.02235174447,1730330452.144065,1730330451.6589448,5000
-1937.9185960195773,-187500.02235174447,7970.296796595669,-187500.02235174447,-187500.02235174447,-187500.02235174447,-187500.02235174447,-187500.02235174447,1730330452.1480165,1730330451.6589448,5000
-1971.870895847189,-187500.02235174447,7975.0577181646495,-187500.02235174447,-187500.02235174447,-187500.02235174447,-187500.02235174447,-187500.02235174447,1730330452.1531224,1730330451.6589448,5000
-1906.916726460067,-187500.02235174447,7947.319203295613,-187500.02235174447,-187500.02235174447,-187500.02235174447,-187500.02235174447,-187500.02235174447,1730330452.1560578,1730330451.6589448,5000
-1878.5970662351929,-187500.02235174447,7919.04424655965,-187500.02235174447,-187500.02235174447,-187500.02235174447,-187500.02235174447,-187500.02235174447,1730330452.1589808,1730330451.6589448,5000
-1935.1469797071195,-187500.02235174447,7947.900348651451,-187500.02235174447,-187500.02235174447,-187500.02235174447,-187500.02235174447,-187500.02235174447,1730330452.163924,1730330451.6589448,5000
-1982.6891401635576,-187500.02235174447,7920.027723315683,-187500.02235174447,-187500.02235174447,-187500.02235174447,-187500.02235174447,-187500.02235174447,1730330452.1680796,1730330451.6589448,5000
-1934.744648306924,-187500.02235174447,7888.46706014479,-187500.02235174447,-187500.02235174447,-187500.02235174447,-187500.02235174447,-187500.02235174447,1730330452.1720028,1730330451.6589448,5000
-1875.8925051561005,-187500.02235174447,7919.290115748658,-187500.02235174447,-187500.02235174447,-187500.02235174447,-187500.02235174447,-187500.02235174447,1730330452.17611,1730330451.6589448,5000
-1912.1470346626088,-187500.02235174447,7960.596139502066,-187500.02235174447,-187500.02235174447,-187500.02235174447,-187500.02235174447,-187500.02235174447,1730330452.179948,1730330451.6589448,5000
-1980.878648862678,-187500.02235174447,7934.623412444999,-187500.02235174447,-187500.02235174447,-187500.02235174447,-187500.02235174447,-187500.02235174447,1730330452.1831143,1730330451.6589448,5000
-1953.1401339936417,-187500.02235174447,7882.2532751862145,-187500.02235174447,-187500.02235174447,-187500.02235174447,-187500.02235174447,-187500.02235174447,1730330452.187023,1730330451.6589448,5000
-1885.973141905444,-187500.02235174447,7873.759612293198,-187500.02235174447,-187500.02235174447,-187500.02235174447,-187500.02235174447,-187500.02235174447,1730330452.1921127,1730330451.6589448,5000
-1904.7262555034467,-187500.02235174447,7919.670095404398,-187500.02235174447,-187500.02235174447,-187500.02235174447,-187500.02235174447,-187500.02235174447,1730330452.1960945,1730330451.6589448,5000
-1974.5307534373703,-187500.02235174447,7932.097665321549,-187500.02235174447,-187500.02235174447,-187500.02235174447,-187500.02235174447,-187500.02235174447,1730330452.2000875,1730330451.6589448,5000
-1968.4734306899825,-187500.02235174447,7863.075478443561,-187500.02235174447,-187500.02235174447,-187500.02235174447,-187500.02235174447,-187500.02235174447,1730330452.2041051,1730330451.6589448,5000
-1889.7729384628465,-187500.02235174447,7832.677105984343,-187500.02235174447,-187500.02235174447,-187500.02235174447,-187500.02235174447,-187500.02235174447,1730330452.208384,1730330451.6589448,5000
-1882.1733453480415,-187500.02235174447,7890.143440978938,-187500.02235174447,-187500.02235174447,-187500.02235174447,-187500.02235174447,-187500.02235174447,1730330452.2111692,1730330451.6589448,5000
-1959.4656776744937,-187500.02235174447,7885.60603685451,-187500.02235174447,-187500.02235174447,-187500.02235174447,-187500.02235174447,-187500.02235174447,1730330452.2152104,1730330451.6589448,5000
-1973.1672970255968,-187500.02235174447,7863.991899966229,-187500.02235174447,-187500.02235174447,-187500.02235174447,-187500.02235174447,-187500.02235174447,1730330452.220209,1730330451.6589448,5000
-1917.064418442776,-187500.02235174447,7883.728490320264,-187500.02235174447,-187500.02235174447,-187500.02235174447,-187500.02235174447,-187500.02235174447,1730330452.224213,1730330451.6589448,5000
-1898.490118800416,-187500.02235174447,7906.214345242303,-187500.02235174447,-187500.02235174447,-187500.02235174447,-187500.02235174447,-187500.02235174447,1730330452.228006,1730330451.6589448,5000
-1970.6639016466024,-187500.02235174447,7901.475775417778,-187500.02235174447,-187500.02235174447,-187500.02235174447,-187500.02235174447,-187500.02235174447,1730330452.2323115,1730330451.6589448,5000
-1998.0224368598983,-187500.02235174447,7860.46032434229,-187500.02235174447,-187500.02235174447,-187500.02235174447,-187500.02235174447,-187500.02235174447,1730330452.2352655,1730330451.6589448,5000
-1910.42595033955,-187500.02235174447,7819.109597099972,-187500.02235174447,-187500.02235174447,-187500.02235174447,-187500.02235174447,-187500.02235174447,1730330452.2391264,1730330451.6589448,5000
-1883.1568221040757,-187500.02235174447,7849.619728281466,-187500.02235174447,-187500.02235174447,-187500.02235174447,-187500.02235174447,-187500.02235174447,1730330452.2435744,1730330451.6589448,5000
-1940.2655291873848,-187500.02235174447,7869.445725613324,-187500.02235174447,-187500.02235174447,-187500.02235174447,-187500.02235174447,-187500.02235174447,1730330452.2481558,1730330451.6589448,5000
-1966.4617736890048,-187500.02235174447,7851.0278881821505,-187500.02235174447,-187500.02235174447,-187500.02235174447,-187500.02235174447,-187500.02235174447,1730330452.252334,1730330451.6589448,5000
-1913.7340085189355,-187500.02235174447,7828.45262628229,-187500.02235174447,-187500.02235174447,-187500.02235174447,-187500.02235174447,-187500.02235174447,1730330452.2561336,1730330451.6589448,5000
-1873.590275477204,-187500.02235174447,7846.021097424162,-187500.02235174447,-187500.02235174447,-187500.02235174447,-187500.02235174447,-187500.02235174447,1730330452.2603445,1730330451.6589448,5000
-1936.398677396617,-187500.02235174447,7869.356318635502,-187500.02235174447,-187500.02235174447,-187500.02235174447,-187500.02235174447,-187500.02235174447,1730330452.2642024,1730330451.6589448,5000
-1992.0098176014208,-187500.02235174447,7839.159111876383,-187500.02235174447,-187500.02235174447,-187500.02235174447,-187500.02235174447,-187500.02235174447,1730330452.2673912,1730330451.6589448,5000
-1947.5969013687256,-187500.02235174447,7811.68881794081,-187500.02235174447,-187500.02235174447,-187500.02235174447,-187500.02235174447,-187500.02235174447,1730330452.271442,1730330451.6589448,5000
-1883.782670948824,-187500.02235174447,7851.296109115614,-187500.02235174447,-187500.02235174447,-187500.02235174447,-187500.02235174447,-187500.02235174447,1730330452.2750845,1730330451.6589448,5000
-1902.2675636133629,-187500.02235174447,7824.116387857961,-187500.02235174447,-187500.02235174447,-187500.02235174447,-187500.02235174447,-187500.02235174447,1730330452.280121,1730330451.6589448,5000
-1975.7600993824128,-187500.02235174447,7813.365198774958,-187500.02235174447,-187500.02235174447,-187500.02235174447,-187500.02235174447,-187500.02235174447,1730330452.2844265,1730330451.6589448,5000
-1959.3315672077615,-187500.02235174447,7794.522678199134,-187500.02235174447,-187500.02235174447,-187500.02235174447,-187500.02235174447,-187500.02235174447,1730330452.2871587,1730330451.6589448,5000
-1893.0586448977765,-187500.02235174447,7802.569306203045,-187500.02235174447,-187500.02235174447,-187500.02235174447,-187500.02235174447,-187500.02235174447,1730330452.2912924,1730330451.6589448,5000
-1913.5104910743823,-187500.02235174447,7837.16980661986,-187500.02235174447,-187500.02235174447,-187500.02235174447,-187500.02235174447,-187500.02235174447,1730330452.2952185,1730330451.6589448,5000
-1980.096337806742,-187500.02235174447,7834.286431585126,-187500.02235174447,-187500.02235174447,-187500.02235174447,-187500.02235174447,-187500.02235174447,1730330452.299331,1730330451.6589448,5000
-1973.5025731924263,-187500.02235174447,7785.537276928101,-187500.02235174447,-187500.02235174447,-187500.02235174447,-187500.02235174447,-187500.02235174447,1730330452.3033648,1730330451.6589448,5000
-1901.082921157232,-187500.02235174447,7752.635509089889,-187500.02235174447,-187500.02235174447,-187500.02235174447,-187500.02235174447,-187500.02235174447,1730330452.308318,1730330451.6589448,5000
-1906.6932090155135,-187500.02235174447,7793.360387487458,-187500.02235174447,-187500.02235174447,-187500.02235174447,-187500.02235174447,-187500.02235174447,1730330452.312364,1730330451.6589448,5000
-1981.6162564297028,-187500.02235174447,7818.774320933142,-187500.02235174447,-187500.02235174447,-187500.02235174447,-187500.02235174447,-187500.02235174447,1730330452.3153312,1730330451.6589448,5000
-1998.648285704647,-187500.02235174447,7773.713204111244,-187500.02235174447,-187500.02235174447,-187500.02235174447,-187500.02235174447,-187500.02235174447,1730330452.319286,1730330451.6589448,5000
-1925.4463226135165,-187500.02235174447,7741.2584711621375,-187500.02235174447,-187500.02235174447,-187500.02235174447,-187500.02235174447,-187500.02235174447,1730330452.3232927,1730330451.6589448,5000
-1902.3793223356397,-187500.02235174447,7774.227294233716,-187500.02235174447,-187500.02235174447,-187500.02235174447,-187500.02235174447,-187500.02235174447,1730330452.327209,1730330451.6589448,5000
-1968.9875208124545,-187500.02235174447,7792.06398630905,-187500.02235174447,-187500.02235174447,-187500.02235174447,-187500.02235174447,-187500.02235174447,1730330452.3312848,1730330451.6589448,5000
-2003.9903526294652,-187500.02235174447,7774.517866911634,-187500.02235174447,-187500.02235174447,-187500.02235174447,-187500.02235174447,-187500.02235174447,1730330452.3366992,1730330451.6589448,5000
-1929.4472848710163,-187500.02235174447,7733.591822813967,-187500.02235174447,-187500.02235174447,-187500.02235174447,-187500.02235174447,-187500.02235174447,1730330452.3402276,1730330451.6589448,5000
-1900.3229618457517,-187500.02235174447,7740.163235683827,-187500.02235174447,-187500.02235174447,-187500.02235174447,-187500.02235174447,-187500.02235174447,1730330452.3433652,1730330451.6589448,5000
-1957.0293375288647,-187500.02235174447,7764.504285395657,-187500.02235174447,-187500.02235174447,-187500.02235174447,-187500.02235174447,-187500.02235174447,1730330452.3472323,1730330451.6589448,5000
-1999.520003738404,-187500.02235174447,7743.515997352123,-187500.02235174447,-187500.02235174447,-187500.02235174447,-187500.02235174447,-187500.02235174447,1730330452.3514032,1730330451.6589448,5000
-1950.7708490813795,-187500.02235174447,7707.28381959007,-187500.02235174447,-187500.02235174447,-187500.02235174447,-187500.02235174447,-187500.02235174447,1730330452.3551805,1730330451.6589448,5000
-1893.1257001311424,-187500.02235174447,7729.702619278743,-187500.02235174447,-187500.02235174447,-187500.02235174447,-187500.02235174447,-187500.02235174447,1730330452.3594255,1730330451.6589448,5000
-1939.662032087092,-187500.02235174447,7761.710317338743,-187500.02235174447,-187500.02235174447,-187500.02235174447,-187500.02235174447,-187500.02235174447,1730330452.363213,1730330451.6589448,5000
-1996.68133219258,-187500.02235174447,7752.903730023352,-187500.02235174447,-187500.02235174447,-187500.02235174447,-187500.02235174447,-187500.02235174447,1730330452.3684337,1730330451.6589448,5000
-1959.8233055857784,-187500.02235174447,7723.019447686607,-187500.02235174447,-187500.02235174447,-187500.02235174447,-187500.02235174447,-187500.02235174447,1730330452.371236,1730330451.6589448,5000
-1883.492098270905,-187500.02235174447,7713.654066759833,-187500.02235174447,-187500.02235174447,-187500.02235174447,-187500.02235174447,-187500.02235174447,1730330452.3754573,1730330451.6589448,5000
-1907.587278793726,-187500.02235174447,7731.691924535266,-187500.02235174447,-187500.02235174447,-187500.02235174447,-187500.02235174447,-187500.02235174447,1730330452.3794224,1730330451.6589448,5000
-1982.5326779523705,-187500.02235174447,7734.865872247919,-187500.02235174447,-187500.02235174447,-187500.02235174447,-187500.02235174447,-187500.02235174447,1730330452.3834572,1730330451.6589448,5000
-1963.9583783100104,-187500.02235174447,7702.791118954554,-187500.02235174447,-187500.02235174447,-187500.02235174447,-187500.02235174447,-187500.02235174447,1730330452.387451,1730330451.6589448,5000
-1903.0945781582093,-187500.02235174447,7701.137089864861,-187500.02235174447,-187500.02235174447,-187500.02235174447,-187500.02235174447,-187500.02235174447,1730330452.3913937,1730330451.6589448,5000
-1898.1548426335864,-187500.02235174447,7726.8192442440095,-187500.02235174447,-187500.02235174447,-187500.02235174447,-187500.02235174447,-187500.02235174447,1730330452.3962364,1730330451.6589448,5000
-1977.9282185945767,-187500.02235174447,7724.561718054023,-187500.02235174447,-187500.02235174447,-187500.02235174447,-187500.02235174447,-187500.02235174447,1730330452.3994868,1730330451.6589448,5000
-1984.2761140198843,-187500.02235174447,7689.849458914931,-187500.02235174447,-187500.02235174447,-187500.02235174447,-187500.02235174447,-187500.02235174447,1730330452.4034777,1730330451.6589448,5000
-1903.4298543250388,-187500.02235174447,7680.260560543605,-187500.02235174447,-187500.02235174447,-187500.02235174447,-187500.02235174447,-187500.02235174447,1730330452.407526,1730330451.6589448,5000
-1895.584392021226,-187500.02235174447,7702.52289802109,-187500.02235174447,-187500.02235174447,-187500.02235174447,-187500.02235174447,-187500.02235174447,1730330452.4115129,1730330451.6589448,5000
-1970.0380528018536,-187500.02235174447,7705.875659689386,-187500.02235174447,-187500.02235174447,-187500.02235174447,-187500.02235174447,-187500.02235174447,1730330452.415492,1730330451.6589448,5000
-1992.6580181906247,-187500.02235174447,7683.166287322794,-187500.02235174447,-187500.02235174447,-187500.02235174447,-187500.02235174447,-187500.02235174447,1730330452.4195347,1730330451.6589448,5000
-1927.0556482142983,-187500.02235174447,7665.03902256954,-187500.02235174447,-187500.02235174447,-187500.02235174447,-187500.02235174447,-187500.02235174447,1730330452.4235184,1730330451.6589448,5000
-1892.23163035293,-187500.02235174447,7695.303284562026,-187500.02235174447,-187500.02235174447,-187500.02235174447,-187500.02235174447,-187500.02235174447,1730330452.4265416,1730330451.6589448,5000
-1954.3471281942284,-187500.02235174447,7720.314886607514,-187500.02235174447,-187500.02235174447,-187500.02235174447,-187500.02235174447,-187500.02235174447,1730330452.4314885,1730330451.6589448,5000
-1991.518079223404,-187500.02235174447,7679.90293263232,-187500.02235174447,-187500.02235174447,-187500.02235174447,-187500.02235174447,-187500.02235174447,1730330452.4353983,1730330451.6589448,5000
-1937.6056715972036,-187500.02235174447,7649.705725873199,-187500.02235174447,-187500.02235174447,-187500.02235174447,-187500.02235174447,-187500.02235174447,1730330452.4394803,1730330451.6589448,5000
-1880.943999403,-187500.02235174447,7684.686205945755,-187500.02235174447,-187500.02235174447,-187500.02235174447,-187500.02235174447,-187500.02235174447,1730330452.4435863,1730330451.6589448,5000
-1935.9963459964213,-187500.02235174447,7694.409214783814,-187500.02235174447,-187500.02235174447,-187500.02235174447,-187500.02235174447,-187500.02235174447,1730330452.4474664,1730330451.6589448,5000
-1995.4296345030828,-187500.02235174447,7670.872827872376,-187500.02235174447,-187500.02235174447,-187500.02235174447,-187500.02235174447,-187500.02235174447,1730330452.4515884,1730330451.6589448,5000
-1942.4112966550945,-187500.02235174447,7653.885502086342,-187500.02235174447,-187500.02235174447,-187500.02235174447,-187500.02235174447,-187500.02235174447,1730330452.4545355,1730330451.6589448,5000
-1877.457127267972,-187500.02235174447,7674.337348262948,-187500.02235174447,-187500.02235174447,-187500.02235174447,-187500.02235174447,-187500.02235174447,1730330452.458542,1730330451.6589448,5000
-1923.0546859567985,-187500.02235174447,7697.76197645211,-187500.02235174447,-187500.02235174447,-187500.02235174447,-187500.02235174447,-187500.02235174447,1730330452.4633448,1730330451.6589448,5000
-1991.6968931790464,-187500.02235174447,7687.56958098049,-187500.02235174447,-187500.02235174447,-187500.02235174447,-187500.02235174447,-187500.02235174447,1730330452.4676042,1730330451.6589448,5000
-1962.8631428317003,-187500.02235174447,7656.746525376621,-187500.02235174447,-187500.02235174447,-187500.02235174447,-187500.02235174447,-187500.02235174447,1730330452.4714055,1730330451.6589448,5000
-1892.56690651976,-187500.02235174447,7670.09051681644,-187500.02235174447,-187500.02235174447,-187500.02235174447,-187500.02235174447,-187500.02235174447,1730330452.4756255,1730330451.6589448,5000
-1917.354991120695,-187500.02235174447,7688.32954029197,-187500.02235174447,-187500.02235174447,-187500.02235174447,-187500.02235174447,-187500.02235174447,1730330452.4794452,1730330451.6589448,5000
-1991.1828030565744,-187500.02235174447,7678.606531453912,-187500.02235174447,-187500.02235174447,-187500.02235174447,-187500.02235174447,-187500.02235174447,1730330452.4826217,1730330451.6589448,5000
-1967.19938125603,-187500.02235174447,7651.247996240616,-187500.02235174447,-187500.02235174447,-187500.02235174447,-187500.02235174447,-187500.02235174447,1730330452.4866428,1730330451.6589448,5000
-1889.7729384628465,-187500.02235174447,7640.787379835532,-187500.02235174447,-187500.02235174447,-187500.02235174447,-187500.02235174447,-187500.02235174447,1730330452.4915931,1730330451.6589448,5000
-1897.171365877553,-187500.02235174447,7693.157517094317,-187500.02235174447,-187500.02235174447,-187500.02235174447,-187500.02235174447,-187500.02235174447,1730330452.495381,1730330451.6589448,5000
-1984.2090587865189,-187500.02235174447,7694.498621761635,-187500.02235174447,-187500.02235174447,-187500.02235174447,-187500.02235174447,-187500.02235174447,1730330452.4997027,1730330451.6589448,5000
-1977.883515105667,-187500.02235174447,7676.70663317521,-187500.02235174447,-187500.02235174447,-187500.02235174447,-187500.02235174447,-187500.02235174447,1730330452.5036843,1730330451.6589448,5000
-1878.3064935572736,-187500.02235174447,7636.093513499918,-187500.02235174447,-187500.02235174447,-187500.02235174447,-187500.02235174447,-187500.02235174447,1730330452.5076096,1730330451.6589448,5000
-1876.1830778340195,-187500.02235174447,7664.681394658255,-187500.02235174447,-187500.02235174447,-187500.02235174447,-187500.02235174447,-187500.02235174447,1730330452.5106857,1730330451.6589448,5000
-1953.520113649382,-187500.02235174447,7681.400499510825,-187500.02235174447,-187500.02235174447,-187500.02235174447,-187500.02235174447,-187500.02235174447,1730330452.5146544,1730330451.6589448,5000
-1974.9107330931108,-187500.02235174447,7652.030307296552,-187500.02235174447,-187500.02235174447,-187500.02235174447,-187500.02235174447,-187500.02235174447,1730330452.5195167,1730330451.6589448,5000
-1909.4424735835164,-187500.02235174447,7643.380182192348,-187500.02235174447,-187500.02235174447,-187500.02235174447,-187500.02235174447,-187500.02235174447,1730330452.523569,1730330451.6589448,5000
-1879.8040604357795,-187500.02235174447,7665.888388858842,-187500.02235174447,-187500.02235174447,-187500.02235174447,-187500.02235174447,-187500.02235174447,1730330452.5276673,1730330451.6589448,5000
-1942.7242210774689,-187500.02235174447,7698.09725261894,-187500.02235174447,-187500.02235174447,-187500.02235174447,-187500.02235174447,-187500.02235174447,1730330452.5314667,1730330451.6589448,5000
-1982.935009352566,-187500.02235174447,7674.382051751859,-187500.02235174447,-187500.02235174447,-187500.02235174447,-187500.02235174447,-187500.02235174447,1730330452.5356205,1730330451.6589448,5000
-1928.6649738150804,-187500.02235174447,7639.289812957027,-187500.02235174447,-187500.02235174447,-187500.02235174447,-187500.02235174447,-187500.02235174447,1730330452.5395944,1730330451.6589448,5000
-1872.9197231435448,-187500.02235174447,7650.197464251217,-187500.02235174447,-187500.02235174447,-187500.02235174447,-187500.02235174447,-187500.02235174447,1730330452.5435777,1730330451.6589448,5000
-1925.0886947022316,-187500.02235174447,7677.488944231146,-187500.02235174447,-187500.02235174447,-187500.02235174447,-187500.02235174447,-187500.02235174447,1730330452.5465236,1730330451.6589448,5000
-1980.8339453737672,-187500.02235174447,7678.271255287083,-187500.02235174447,-187500.02235174447,-187500.02235174447,-187500.02235174447,-187500.02235174447,1730330452.5507443,1730330451.6589448,5000
-1947.4404391575383,-187500.02235174447,7663.51910394658,-187500.02235174447,-187500.02235174447,-187500.02235174447,-187500.02235174447,-187500.02235174447,1730330452.554643,1730330451.6589448,5000
-1883.3803395486284,-187500.02235174447,7666.827162125965,-187500.02235174447,-187500.02235174447,-187500.02235174447,-187500.02235174447,-187500.02235174447,1730330452.558787,1730330451.6589448,5000
-1911.0965026732088,-187500.02235174447,7678.673586687278,-187500.02235174447,-187500.02235174447,-187500.02235174447,-187500.02235174447,-187500.02235174447,1730330452.563603,1730330451.6589448,5000
-1979.8951721066444,-187500.02235174447,7677.466592486691,-187500.02235174447,-187500.02235174447,-187500.02235174447,-187500.02235174447,-187500.02235174447,1730330452.5678413,1730330451.6589448,5000
-1958.5939596407368,-187500.02235174447,7668.749412149122,-187500.02235174447,-187500.02235174447,-187500.02235174447,-187500.02235174447,-187500.02235174447,1730330452.5715408,1730330451.6589448,5000
-1896.1208338881531,-187500.02235174447,7666.067202814484,-187500.02235174447,-187500.02235174447,-187500.02235174447,-187500.02235174447,-187500.02235174447,1730330452.574832,1730330451.6589448,5000
-1906.112063659676,-187500.02235174447,7680.931112877263,-187500.02235174447,-187500.02235174447,-187500.02235174447,-187500.02235174447,-187500.02235174447,1730330452.5787504,1730330451.6589448,5000
-1970.1721632685856,-187500.02235174447,7666.983624337152,-187500.02235174447,-187500.02235174447,-187500.02235174447,-187500.02235174447,-187500.02235174447,1730330452.5827563,1730330451.6589448,5000
-1963.4666399319933,-187500.02235174447,7641.904967058297,-187500.02235174447,-187500.02235174447,-187500.02235174447,-187500.02235174447,-187500.02235174447,1730330452.5867815,1730330451.6589448,5000
-1898.6018775226928,-187500.02235174447,7656.388897465336,-187500.02235174447,-187500.02235174447,-187500.02235174447,-187500.02235174447,-187500.02235174447,1730330452.591818,1730330451.6589448,5000
-1891.8740024416447,-187500.02235174447,7698.365473552403,-187500.02235174447,-187500.02235174447,-187500.02235174447,-187500.02235174447,-187500.02235174447,1730330452.5957525,1730330451.6589448,5000
-1963.9136748211,-187500.02235174447,7697.247886329638,-187500.02235174447,-187500.02235174447,-187500.02235174447,-187500.02235174447,-187500.02235174447,1730330452.5987945,1730330451.6589448,5000
-1980.4763174624825,-187500.02235174447,7647.582310149945,-187500.02235174447,-187500.02235174447,-187500.02235174447,-187500.02235174447,-187500.02235174447,1730330452.602844,1730330451.6589448,5000
-1912.102331173698,-187500.02235174447,7644.60952813739,-187500.02235174447,-187500.02235174447,-187500.02235174447,-187500.02235174447,-187500.02235174447,1730330452.6067042,1730330451.6589448,5000
-1893.729197231436,-187500.02235174447,7684.686205945755,-187500.02235174447,-187500.02235174447,-187500.02235174447,-187500.02235174447,-187500.02235174447,1730330452.6108434,1730330451.6589448,5000
-1959.6221398856808,-187500.02235174447,7694.766842695099,-187500.02235174447,-187500.02235174447,-187500.02235174447,-187500.02235174447,-187500.02235174447,1730330452.6148582,1730330451.6589448,5000
-1987.807689643823,-187500.02235174447,7666.693051659233,-187500.02235174447,-187500.02235174447,-187500.02235174447,-187500.02235174447,-187500.02235174447,1730330452.6187768,1730330451.6589448,5000
-1927.994421481421,-187500.02235174447,7670.314034260993,-187500.02235174447,-187500.02235174447,-187500.02235174447,-187500.02235174447,-187500.02235174447,1730330452.6237996,1730330451.6589448,5000
-1878.4182522795504,-187500.02235174447,7681.981644866663,-187500.02235174447,-187500.02235174447,-187500.02235174447,-187500.02235174447,-187500.02235174447,1730330452.626731,1730330451.6589448,5000
-1937.1809884525528,-187500.02235174447,7682.808659411509,-187500.02235174447,-187500.02235174447,-187500.02235174447,-187500.02235174447,-187500.02235174447,1730330452.6306677,1730330451.6589448,5000
-1976.8329831162675,-187500.02235174447,7676.304301775015,-187500.02235174447,-187500.02235174447,-187500.02235174447,-187500.02235174447,-187500.02235174447,1730330452.6348424,1730330451.6589448,5000
-1925.4463226135165,-187500.02235174447,7669.799944138521,-187500.02235174447,-187500.02235174447,-187500.02235174447,-187500.02235174447,-187500.02235174447,1730330452.63863,1730330451.6589448,5000
-1877.8818104126228,-187500.02235174447,7698.007845641118,-187500.02235174447,-187500.02235174447,-187500.02235174447,-187500.02235174447,-187500.02235174447,1730330452.6428509,1730330451.6589448,5000
-1918.80785451029,-187500.02235174447,7700.198316597738,-187500.02235174447,-187500.02235174447,-187500.02235174447,-187500.02235174447,-187500.02235174447,1730330452.6478505,1730330451.6589448,5000
-1984.2761140198843,-187500.02235174447,7684.306226290015,-187500.02235174447,-187500.02235174447,-187500.02235174447,-187500.02235174447,-187500.02235174447,1730330452.6519098,1730330451.6589448,5000
-1935.1246279626644,-187500.02235174447,7667.52006620408,-187500.02235174447,-187500.02235174447,-187500.02235174447,-187500.02235174447,-187500.02235174447,1730330452.654709,1730330451.6589448,5000
-1879.2452668243968,-187500.02235174447,7689.7153484482,-187500.02235174447,-187500.02235174447,-187500.02235174447,-187500.02235174447,-187500.02235174447,1730330452.6590753,1730330451.6589448,5000
-1912.2587933848847,-187500.02235174447,7711.687113247766,-187500.02235174447,-187500.02235174447,-187500.02235174447,-187500.02235174447,-187500.02235174447,1730330452.662844,1730330451.6589448,5000
-1977.704701150024,-187500.02235174447,7701.293552076048,-187500.02235174447,-187500.02235174447,-187500.02235174447,-187500.02235174447,-187500.02235174447,1730330452.6671588,1730330451.6589448,5000
-1958.884532318656,-187500.02235174447,7682.719252433688,-187500.02235174447,-187500.02235174447,-187500.02235174447,-187500.02235174447,-187500.02235174447,1730330452.6709545,1730330451.6589448,5000
-1885.168479105053,-187500.02235174447,7685.557923979512,-187500.02235174447,-187500.02235174447,-187500.02235174447,-187500.02235174447,-187500.02235174447,1730330452.6749997,1730330451.6589448,5000
-1897.7525112333908,-187500.02235174447,7701.584124753967,-187500.02235174447,-187500.02235174447,-187500.02235174447,-187500.02235174447,-187500.02235174447,1730330452.6797907,1730330451.6589448,5000
-1976.1400790381529,-187500.02235174447,7724.919345965308,-187500.02235174447,-187500.02235174447,-187500.02235174447,-187500.02235174447,-187500.02235174447,1730330452.683329,1730330451.6589448,5000
-1969.970997568488,-187500.02235174447,7694.610380483911,-187500.02235174447,-187500.02235174447,-187500.02235174447,-187500.02235174447,-187500.02235174447,1730330452.686998,1730330451.6589448,5000
-1903.4745578139496,-187500.02235174447,7681.601665210923,-187500.02235174447,-187500.02235174447,-187500.02235174447,-187500.02235174447,-187500.02235174447,1730330452.6909137,1730330451.6589448,5000
-1885.2802378273293,-187500.02235174447,7725.008752943129,-187500.02235174447,-187500.02235174447,-187500.02235174447,-187500.02235174447,-187500.02235174447,1730330452.6948917,1730330451.6589448,5000
-1952.4472299155275,-187500.02235174447,7749.305099166048,-187500.02235174447,-187500.02235174447,-187500.02235174447,-187500.02235174447,-187500.02235174447,1730330452.699108,1730330451.6589448,5000
-1975.3130644933065,-187500.02235174447,7692.33050254947,-187500.02235174447,-187500.02235174447,-187500.02235174447,-187500.02235174447,-187500.02235174447,1730330452.7033963,1730330451.6589448,5000
-1906.4696915709603,-187500.02235174447,7671.811601139499,-187500.02235174447,-187500.02235174447,-187500.02235174447,-187500.02235174447,-187500.02235174447,1730330452.7083228,1730330451.6589448,5000
-1882.1509936035864,-187500.02235174447,7713.430549315281,-187500.02235174447,-187500.02235174447,-187500.02235174447,-187500.02235174447,-187500.02235174447,1730330452.711061,1730330451.6589448,5000
-1949.7873723253456,-187500.02235174447,7725.768712254609,-187500.02235174447,-187500.02235174447,-187500.02235174447,-187500.02235174447,-187500.02235174447,1730330452.7149577,1730330451.6589448,5000
-1984.432576231072,-187500.02235174447,7692.531668249568,-187500.02235174447,-187500.02235174447,-187500.02235174447,-187500.02235174447,-187500.02235174447,1730330452.7193563,1730330451.6589448,5000
-1914.225746896952,-187500.02235174447,7676.237246541649,-187500.02235174447,-187500.02235174447,-187500.02235174447,-187500.02235174447,-187500.02235174447,1730330452.7230642,1730330451.6589448,5000
-1886.8225081947455,-187500.02235174447,7711.1506713808385,-187500.02235174447,-187500.02235174447,-187500.02235174447,-187500.02235174447,-187500.02235174447,1730330452.727174,1730330451.6589448,5000
-1944.691174589536,-187500.02235174447,7759.475142893213,-187500.02235174447,-187500.02235174447,-187500.02235174447,-187500.02235174447,-187500.02235174447,1730330452.730822,1730330451.6589448,5000
-1995.0273031028871,-187500.02235174447,7732.876566991397,-187500.02235174447,-187500.02235174447,-187500.02235174447,-187500.02235174447,-187500.02235174447,1730330452.7360115,1730330451.6589448,5000
-1949.3179856917843,-187500.02235174447,7705.361569566914,-187500.02235174447,-187500.02235174447,-187500.02235174447,-187500.02235174447,-187500.02235174447,1730330452.738902,1730330451.6589448,5000
-1880.720481958447,-187500.02235174447,7709.563697524512,-187500.02235174447,-187500.02235174447,-187500.02235174447,-187500.02235174447,-187500.02235174447,1730330452.7431762,1730330451.6589448,5000
-1929.1567121930973,-187500.02235174447,7725.299325621048,-187500.02235174447,-187500.02235174447,-187500.02235174447,-187500.02235174447,-187500.02235174447,1730330452.7468956,1730330451.6589448,5000
-1990.4675472340043,-187500.02235174447,7724.8299389874865,-187500.02235174447,-187500.02235174447,-187500.02235174447,-187500.02235174447,-187500.02235174447,1730330452.751234,1730330451.6589448,5000
-1945.808761812301,-187500.02235174447,7715.442206316257,-187500.02235174447,-187500.02235174447,-187500.02235174447,-187500.02235174447,-187500.02235174447,1730330452.75488,1730330451.6589448,5000
-1885.3472930606956,-187500.02235174447,7730.641392545866,-187500.02235174447,-187500.02235174447,-187500.02235174447,-187500.02235174447,-187500.02235174447,1730330452.7592745,1730330451.6589448,5000
-1906.357932848684,-187500.02235174447,7752.411991645336,-187500.02235174447,-187500.02235174447,-187500.02235174447,-187500.02235174447,-187500.02235174447,1730330452.7628512,1730330451.6589448,5000
-1973.8825528481664,-187500.02235174447,7753.171950956816,-187500.02235174447,-187500.02235174447,-187500.02235174447,-187500.02235174447,-187500.02235174447,1730330452.7660327,1730330451.6589448,5000
-1947.4180874130832,-187500.02235174447,7725.746360510155,-187500.02235174447,-187500.02235174447,-187500.02235174447,-187500.02235174447,-187500.02235174447,1730330452.771244,1730330451.6589448,5000
-1880.2063918359747,-187500.02235174447,7715.285744105071,-187500.02235174447,-187500.02235174447,-187500.02235174447,-187500.02235174447,-187500.02235174447,1730330452.7750564,1730330451.6589448,5000
-1892.2763338418408,-187500.02235174447,7753.686041079288,-187500.02235174447,-187500.02235174447,-187500.02235174447,-187500.02235174447,-187500.02235174447,1730330452.77931,1730330451.6589448,5000
-1968.4510789455271,-187500.02235174447,7770.896884309875,-187500.02235174447,-187500.02235174447,-187500.02235174447,-187500.02235174447,-187500.02235174447,1730330452.7831612,1730330451.6589448,5000
-1974.3295877372727,-187500.02235174447,7740.833788017487,-187500.02235174447,-187500.02235174447,-187500.02235174447,-187500.02235174447,-187500.02235174447,1730330452.7876427,1730330451.6589448,5000
-1904.301572358796,-187500.02235174447,7727.95918321123,-187500.02235174447,-187500.02235174447,-187500.02235174447,-187500.02235174447,-187500.02235174447,1730330452.7901385,1730330451.6589448,5000
-1878.462955768461,-187500.02235174447,7750.53444511109,-187500.02235174447,-187500.02235174447,-187500.02235174447,-187500.02235174447,-187500.02235174447,1730330452.7942493,1730330451.6589448,5000
-1959.3092154633064,-187500.02235174447,7758.692831837277,-187500.02235174447,-187500.02235174447,-187500.02235174447,-187500.02235174447,-187500.02235174447,1730330452.7979844,1730330451.6589448,5000
-1981.191573285052,-187500.02235174447,7731.334296623982,-187500.02235174447,-187500.02235174447,-187500.02235174447,-187500.02235174447,-187500.02235174447,1730330452.8034625,1730330451.6589448,5000
-1909.6659910280696,-187500.02235174447,7719.979610440685,-187500.02235174447,-187500.02235174447,-187500.02235174447,-187500.02235174447,-187500.02235174447,1730330452.8073416,1730330451.6589448,5000
-1886.1519558610864,-187500.02235174447,7743.717163052222,-187500.02235174447,-187500.02235174447,-187500.02235174447,-187500.02235174447,-187500.02235174447,1730330452.811586,1730330451.6589448,5000
-1950.8155525702896,-187500.02235174447,7762.425573161313,-187500.02235174447,-187500.02235174447,-187500.02235174447,-187500.02235174447,-187500.02235174447,1730330452.81503,1730330451.6589448,5000
-1986.444233232049,-187500.02235174447,7743.739514796676,-187500.02235174447,-187500.02235174447,-187500.02235174447,-187500.02235174447,-187500.02235174447,1730330452.8196075,1730330451.6589448,5000
-1928.1955871815192,-187500.02235174447,7735.424665859302,-187500.02235174447,-187500.02235174447,-187500.02235174447,-187500.02235174447,-187500.02235174447,1730330452.8220782,1730330451.6589448,5000
-1886.8001564502904,-187500.02235174447,7740.073828706006,-187500.02235174447,-187500.02235174447,-187500.02235174447,-187500.02235174447,-187500.02235174447,1730330452.826748,1730330451.6589448,5000
-1936.2422151854296,-187500.02235174447,7758.871645792919,-187500.02235174447,-187500.02235174447,-187500.02235174447,-187500.02235174447,-187500.02235174447,1730330452.830978,1730330451.6589448,5000
-1993.6861984355687,-187500.02235174447,7747.069924720517,-187500.02235174447,-187500.02235174447,-187500.02235174447,-187500.02235174447,-187500.02235174447,1730330452.8350174,1730330451.6589448,5000
-1936.935119263544,-187500.02235174447,7734.016505958618,-187500.02235174447,-187500.02235174447,-187500.02235174447,-187500.02235174447,-187500.02235174447,1730330452.83909,1730330451.6589448,5000
-1876.071319111743,-187500.02235174447,7742.152540940349,-187500.02235174447,-187500.02235174447,-187500.02235174447,-187500.02235174447,-187500.02235174447,1730330452.8436816,1730330451.6589448,5000
-1929.2237674264632,-187500.02235174447,7760.72684058271,-187500.02235174447,-187500.02235174447,-187500.02235174447,-187500.02235174447,-187500.02235174447,1730330452.8461795,1730330451.6589448,5000
-1988.2100210440185,-187500.02235174447,7748.321622410014,-187500.02235174447,-187500.02235174447,-187500.02235174447,-187500.02235174447,-187500.02235174447,1730330452.8502,1730330451.6589448,5000
-1965.7912213553452,-187500.02235174447,7733.055380947039,-187500.02235174447,-187500.02235174447,-187500.02235174447,-187500.02235174447,-187500.02235174447,1730330452.8542502,1730330451.6589448,5000
-1886.129604116631,-187500.02235174447,7758.826942304009,-187500.02235174447,-187500.02235174447,-187500.02235174447,-187500.02235174447,-187500.02235174447,1730330452.85861,1730330451.6589448,5000
-1907.4084648380835,-187500.02235174447,7766.58299763,-187500.02235174447,-187500.02235174447,-187500.02235174447,-187500.02235174447,-187500.02235174447,1730330452.8630772,1730330451.6589448,5000
-1988.433538488572,-187500.02235174447,7763.520808639623,-187500.02235174447,-187500.02235174447,-187500.02235174447,-187500.02235174447,-187500.02235174447,1730330452.8676064,1730330451.6589448,5000
-1971.9155993361,-187500.02235174447,7746.019392731117,-187500.02235174447,-187500.02235174447,-187500.02235174447,-187500.02235174447,-187500.02235174447,1730330452.8705833,1730330451.6589448,5000
-1896.5678687772595,-187500.02235174447,7726.90865122183,-187500.02235174447,-187500.02235174447,-187500.02235174447,-187500.02235174447,-187500.02235174447,1730330452.874653,1730330451.6589448,5000
-1897.193717622008,-187500.02235174447,7750.15446545535,-187500.02235174447,-187500.02235174447,-187500.02235174447,-187500.02235174447,-187500.02235174447,1730330452.8783216,1730330451.6589448,5000
-1970.909770835611,-187500.02235174447,7762.6267388614115,-187500.02235174447,-187500.02235174447,-187500.02235174447,-187500.02235174447,-187500.02235174447,1730330452.8823864,1730330451.6589448,5000
-1972.586151669759,-187500.02235174447,7739.582090327989,-187500.02235174447,-187500.02235174447,-187500.02235174447,-187500.02235174447,-187500.02235174447,1730330452.886292,1730330451.6589448,5000
-1901.4405490685165,-187500.02235174447,7732.295421635559,-187500.02235174447,-187500.02235174447,-187500.02235174447,-187500.02235174447,-187500.02235174447,1730330452.8914812,1730330451.6589448,5000
-1885.8390314387125,-187500.02235174447,7763.811381317542,-187500.02235174447,-187500.02235174447,-187500.02235174447,-187500.02235174447,-187500.02235174447,1730330452.8952672,1730330451.6589448,5000
-1958.549256151826,-187500.02235174447,7774.316701211536,-187500.02235174447,-187500.02235174447,-187500.02235174447,-187500.02235174447,-187500.02235174447,1730330452.8982072,1730330451.6589448,5000
-1985.4384047315605,-187500.02235174447,7755.720049824721,-187500.02235174447,-187500.02235174447,-187500.02235174447,-187500.02235174447,-187500.02235174447,1730330452.9021049,1730330451.6589448,5000
-1912.392903851617,-187500.02235174447,7739.447979861257,-187500.02235174447,-187500.02235174447,-187500.02235174447,-187500.02235174447,-187500.02235174447,1730330452.9062264,1730330451.6589448,5000
-1874.394938277595,-187500.02235174447,7776.037785534595,-187500.02235174447,-187500.02235174447,-187500.02235174447,-187500.02235174447,-187500.02235174447,1730330452.9103336,1730330451.6589448,5000
-1942.2101309549969,-187500.02235174447,7782.430384448813,-187500.02235174447,-187500.02235174447,-187500.02235174447,-187500.02235174447,-187500.02235174447,1730330452.9141057,1730330451.6589448,5000
-1984.030244830876,-187500.02235174447,7752.501398623157,-187500.02235174447,-187500.02235174447,-187500.02235174447,-187500.02235174447,-187500.02235174447,1730330452.919252,1730330451.6589448,5000
-1933.291784917329,-187500.02235174447,7737.458674604735,-187500.02235174447,-187500.02235174447,-187500.02235174447,-187500.02235174447,-187500.02235174447,1730330452.923106,1730330451.6589448,5000
-1884.1179471156536,-187500.02235174447,7759.139866726383,-187500.02235174447,-187500.02235174447,-187500.02235174447,-187500.02235174447,-187500.02235174447,1730330452.926422,1730330451.6589448,5000
-1930.6095755826923,-187500.02235174447,7802.189326547304,-187500.02235174447,-187500.02235174447,-187500.02235174447,-187500.02235174447,-187500.02235174447,1730330452.930142,1730330451.6589448,5000
-1988.165317555108,-187500.02235174447,7787.638340906899,-187500.02235174447,-187500.02235174447,-187500.02235174447,-187500.02235174447,-187500.02235174447,1730330452.934274,1730330451.6589448,5000
-1941.450171643516,-187500.02235174447,7751.987308500685,-187500.02235174447,-187500.02235174447,-187500.02235174447,-187500.02235174447,-187500.02235174447,1730330452.9381151,1730330451.6589448,5000
-1883.000359892888,-187500.02235174447,7747.181683442794,-187500.02235174447,-187500.02235174447,-187500.02235174447,-187500.02235174447,-187500.02235174447,1730330452.9423077,1730330451.6589448,5000
-1922.741761534424,-187500.02235174447,7775.121364011928,-187500.02235174447,-187500.02235174447,-187500.02235174447,-187500.02235174447,-187500.02235174447,1730330452.9471643,1730330451.6589448,5000
-1988.545297210848,-187500.02235174447,7777.557704157556,-187500.02235174447,-187500.02235174447,-187500.02235174447,-187500.02235174447,-187500.02235174447,1730330452.951321,1730330451.6589448,5000
-1958.5939596407368,-187500.02235174447,7762.716145839232,-187500.02235174447,-187500.02235174447,-187500.02235174447,-187500.02235174447,-187500.02235174447,1730330452.9542007,1730330451.6589448,5000
-1886.9342669170223,-187500.02235174447,7770.427497676314,-187500.02235174447,-187500.02235174447,-187500.02235174447,-187500.02235174447,-187500.02235174447,1730330452.958279,1730330451.6589448,5000
-1902.222860124452,-187500.02235174447,7777.378890201913,-187500.02235174447,-187500.02235174447,-187500.02235174447,-187500.02235174447,-187500.02235174447,1730330452.9622204,1730330451.6589448,5000
-1977.101204049731,-187500.02235174447,7784.129117027416,-187500.02235174447,-187500.02235174447,-187500.02235174447,-187500.02235174447,-187500.02235174447,1730330452.9663432,1730330451.6589448,5000
-1974.1507737816305,-187500.02235174447,7762.000890016662,-187500.02235174447,-187500.02235174447,-187500.02235174447,-187500.02235174447,-187500.02235174447,1730330452.9702291,1730330451.6589448,5000
-1902.625191524648,-187500.02235174447,7753.373116656914,-187500.02235174447,-187500.02235174447,-187500.02235174447,-187500.02235174447,-187500.02235174447,1730330452.9752324,1730330451.6589448,5000
-1901.6417147686143,-187500.02235174447,7791.996931075684,-187500.02235174447,-187500.02235174447,-187500.02235174447,-187500.02235174447,-187500.02235174447,1730330452.978377,1730330451.6589448,5000
-1969.456907446016,-187500.02235174447,7798.456585223268,-187500.02235174447,-187500.02235174447,-187500.02235174447,-187500.02235174447,-187500.02235174447,1730330452.9814,1730330451.6589448,5000
-1985.125480309186,-187500.02235174447,7761.777372572109,-187500.02235174447,-187500.02235174447,-187500.02235174447,-187500.02235174447,-187500.02235174447,1730330452.9861927,1730330451.6589448,5000
-1921.288898144829,-187500.02235174447,7767.030032519106,-187500.02235174447,-187500.02235174447,-187500.02235174447,-187500.02235174447,-187500.02235174447,1730330452.990422,1730330451.6589448,5000
-1894.5115082873715,-187500.02235174447,7801.8987538693855,-187500.02235174447,-187500.02235174447,-187500.02235174447,-187500.02235174447,-187500.02235174447,1730330452.9943223,1730330451.6589448,5000
-1956.448192173027,-187500.02235174447,7807.039655094106,-187500.02235174447,-187500.02235174447,-187500.02235174447,-187500.02235174447,-187500.02235174447,1730330452.9983535,1730330451.6589448,5000
-1990.065215833809,-187500.02235174447,7789.001797318673,-187500.02235174447,-187500.02235174447,-187500.02235174447,-187500.02235174447,-187500.02235174447,1730330453.003518,1730330451.6589448,5000
-1929.871968015667,-187500.02235174447,7762.850256305964,-187500.02235174447,-187500.02235174447,-187500.02235174447,-187500.02235174447,-187500.02235174447,1730330453.0063162,1730330451.6589448,5000
-1888.297723328796,-187500.02235174447,7758.245796948171,-187500.02235174447,-187500.02235174447,-187500.02235174447,-187500.02235174447,-187500.02235174447,1730330453.0096648,1730330451.6589448,5000
-1948.6027298692145,-187500.02235174447,7787.772451373631,-187500.02235174447,-187500.02235174447,-187500.02235174447,-187500.02235174447,-187500.02235174447,1730330453.014437,1730330451.6589448,5000
-1993.708550180024,-187500.02235174447,7777.960035557751,-187500.02235174447,-187500.02235174447,-187500.02235174447,-187500.02235174447,-187500.02235174447,1730330453.0181725,1730330451.6589448,5000
-1934.4987791179155,-187500.02235174447,7766.739459841187,-187500.02235174447,-187500.02235174447,-187500.02235174447,-187500.02235174447,-187500.02235174447,1730330453.02221,1730330451.6589448,5000
-1874.238476066408,-187500.02235174447,7800.892925368897,-187500.02235174447,-187500.02235174447,-187500.02235174447,-187500.02235174447,-187500.02235174447,1730330453.0266109,1730330451.6589448,5000
-1919.456055099494,-187500.02235174447,7815.443911009302,-187500.02235174447,-187500.02235174447,-187500.02235174447,-187500.02235174447,-187500.02235174447,1730330453.0315287,1730330451.6589448,5000
-1981.0127593294096,-187500.02235174447,7788.77827987412,-187500.02235174447,-187500.02235174447,-187500.02235174447,-187500.02235174447,-187500.02235174447,1730330453.0342455,1730330451.6589448,5000
-1946.4569624015048,-187500.02235174447,7781.066928037039,-187500.02235174447,-187500.02235174447,-187500.02235174447,-187500.02235174447,-187500.02235174447,1730330453.0382736,1730330451.6589448,5000
-1880.8992959140892,-187500.02235174447,7787.34776822898,-187500.02235174447,-187500.02235174447,-187500.02235174447,-187500.02235174447,-187500.02235174447,1730330453.0429268,1730330451.6589448,5000
-1907.52022356036,-187500.02235174447,7812.292315041103,-187500.02235174447,-187500.02235174447,-187500.02235174447,-187500.02235174447,-187500.02235174447,1730330453.0463269,1730330451.6589448,5000
-1973.0108348144097,-187500.02235174447,7805.095053326494,-187500.02235174447,-187500.02235174447,-187500.02235174447,-187500.02235174447,-187500.02235174447,1730330453.050428,1730330451.6589448,5000
-1966.9758638114768,-187500.02235174447,7782.2292187487155,-187500.02235174447,-187500.02235174447,-187500.02235174447,-187500.02235174447,-187500.02235174447,1730330453.05451,1730330451.6589448,5000
-1893.6621419980695,-187500.02235174447,7789.381776974414,-187500.02235174447,-187500.02235174447,-187500.02235174447,-187500.02235174447,-187500.02235174447,1730330453.059696,1730330451.6589448,5000
-1908.8389764832232,-187500.02235174447,7809.811271406565,-187500.02235174447,-187500.02235174447,-187500.02235174447,-187500.02235174447,-187500.02235174447,1730330453.062572,1730330451.6589448,5000
-1979.0458058173424,-187500.02235174447,7813.029922608129,-187500.02235174447,-187500.02235174447,-187500.02235174447,-187500.02235174447,-187500.02235174447,1730330453.0654795,1730330451.6589448,5000
-1975.6706924045916,-187500.02235174447,7805.072701582039,-187500.02235174447,-187500.02235174447,-187500.02235174447,-187500.02235174447,-187500.02235174447,1730330453.0709212,1730330451.6589448,5000
-1895.2491158543965,-187500.02235174447,7771.053346521062,-187500.02235174447,-187500.02235174447,-187500.02235174447,-187500.02235174447,-187500.02235174447,1730330453.0745037,1730330451.6589448,5000
-1885.5261070163376,-187500.02235174447,7791.25932350866,-187500.02235174447,-187500.02235174447,-187500.02235174447,-187500.02235174447,-187500.02235174447,1730330453.0787818,1730330451.6589448,5000
-1962.6619771316025,-187500.02235174447,7810.034788851117,-187500.02235174447,-187500.02235174447,-187500.02235174447,-187500.02235174447,-187500.02235174447,1730330453.082345,1730330451.6589448,5000
-1984.7678523979007,-187500.02235174447,7787.705396140265,-187500.02235174447,-187500.02235174447,-187500.02235174447,-187500.02235174447,-187500.02235174447,1730330453.087499,1730330451.6589448,5000
-1916.0138864533767,-187500.02235174447,7768.371137186425,-187500.02235174447,-187500.02235174447,-187500.02235174447,-187500.02235174447,-187500.02235174447,1730330453.090438,1730330451.6589448,5000
-1890.9352291745224,-187500.02235174447,7808.894849883896,-187500.02235174447,-187500.02235174447,-187500.02235174447,-187500.02235174447,-187500.02235174447,1730330453.0937529,1730330451.6589448,5000
-1961.1197067641865,-187500.02235174447,7843.249481111704,-187500.02235174447,-187500.02235174447,-187500.02235174447,-187500.02235174447,-187500.02235174447,1730330453.097407,1730330451.6589448,5000
-1995.0720065917976,-187500.02235174447,7802.725768414232,-187500.02235174447,-187500.02235174447,-187500.02235174447,-187500.02235174447,-187500.02235174447,1730330453.1029212,1730330451.6589448,5000
-1939.4608663869935,-187500.02235174447,7772.327395955014,-187500.02235174447,-187500.02235174447,-187500.02235174447,-187500.02235174447,-187500.02235174447,1730330453.106495,1730330451.6589448,5000
-1893.595086764704,-187500.02235174447,7797.696625911788,-187500.02235174447,-187500.02235174447,-187500.02235174447,-187500.02235174447,-187500.02235174447,1730330453.1105852,1730330451.6589448,5000
-1945.518189134382,-187500.02235174447,7806.078530082528,-187500.02235174447,-187500.02235174447,-187500.02235174447,-187500.02235174447,-187500.02235174447,1730330453.1134503,1730330451.6589448,5000
-1995.4743379919933,-187500.02235174447,7792.309855498059,-187500.02235174447,-187500.02235174447,-187500.02235174447,-187500.02235174447,-187500.02235174447,1730330453.1176465,1730330451.6589448,5000
-1947.328680435262,-187500.02235174447,7781.201038503771,-187500.02235174447,-187500.02235174447,-187500.02235174447,-187500.02235174447,-187500.02235174447,1730330453.121428,1730330451.6589448,5000
-1885.9954936498996,-187500.02235174447,7799.6412276794,-187500.02235174447,-187500.02235174447,-187500.02235174447,-187500.02235174447,-187500.02235174447,1730330453.12697,1730330451.6589448,5000
-1926.0721714582648,-187500.02235174447,7826.172748347849,-187500.02235174447,-187500.02235174447,-187500.02235174447,-187500.02235174447,-187500.02235174447,1730330453.1305225,1730330451.6589448,5000
-1997.1507188261412,-187500.02235174447,7803.396320747891,-187500.02235174447,-187500.02235174447,-187500.02235174447,-187500.02235174447,-187500.02235174447,1730330453.1345775,1730330451.6589448,5000
-1955.8223433282783,-187500.02235174447,7775.68015762331,-187500.02235174447,-187500.02235174447,-187500.02235174447,-187500.02235174447,-187500.02235174447,1730330453.138478,1730330451.6589448,5000
-1892.052816397288,-187500.02235174447,7794.410919476858,-187500.02235174447,-187500.02235174447,-187500.02235174447,-187500.02235174447,-187500.02235174447,1730330453.1419551,1730330451.6589448,5000
-1911.52118581786,-187500.02235174447,7828.743198960209,-187500.02235174447,-187500.02235174447,-187500.02235174447,-187500.02235174447,-187500.02235174447,1730330453.145558,1730330451.6589448,5000
-1972.29557899184,-187500.02235174447,7823.021152379651,-187500.02235174447,-187500.02235174447,-187500.02235174447,-187500.02235174447,-187500.02235174447,1730330453.1499872,1730330451.6589448,5000
-1959.4433259300383,-187500.02235174447,7792.73453864271,-187500.02235174447,-187500.02235174447,-187500.02235174447,-187500.02235174447,-187500.02235174447,1730330453.1537013,1730330451.6589448,5000
-1898.490118800416,-187500.02235174447,7780.73165187021,-187500.02235174447,-187500.02235174447,-187500.02235174447,-187500.02235174447,-187500.02235174447,1730330453.1586952,1730330451.6589448,5000
-1896.1431856326087,-187500.02235174447,7817.589678477011,-187500.02235174447,-187500.02235174447,-187500.02235174447,-187500.02235174447,-187500.02235174447,1730330453.1627045,1730330451.6589448,5000
-1970.8427156022449,-187500.02235174447,7837.527434531144,-187500.02235174447,-187500.02235174447,-187500.02235174447,-187500.02235174447,-187500.02235174447,1730330453.1671252,1730330451.6589448,5000
-1981.2362767739628,-187500.02235174447,7805.251515537681,-187500.02235174447,-187500.02235174447,-187500.02235174447,-187500.02235174447,-187500.02235174447,1730330453.1699626,1730330451.6589448,5000
-1910.1577294060864,-187500.02235174447,7783.145640271383,-187500.02235174447,-187500.02235174447,-187500.02235174447,-187500.02235174447,-187500.02235174447,1730330453.1736531,1730330451.6589448,5000
-1889.8176419517567,-187500.02235174447,7813.856937152975,-187500.02235174447,-187500.02235174447,-187500.02235174447,-187500.02235174447,-187500.02235174447,1730330453.1777132,1730330451.6589448,5000
-1963.6678056320916,-187500.02235174447,7827.267983826159,-187500.02235174447,-187500.02235174447,-187500.02235174447,-187500.02235174447,-187500.02235174447,1730330453.1817243,1730330451.6589448,5000
-1992.3674455127057,-187500.02235174447,7791.080509553017,-187500.02235174447,-187500.02235174447,-187500.02235174447,-187500.02235174447,-187500.02235174447,1730330453.1867695,1730330451.6589448,5000
-1920.5736423222595,-187500.02235174447,7787.325416484526,-187500.02235174447,-187500.02235174447,-187500.02235174447,-187500.02235174447,-187500.02235174447,1730330453.1912334,1730330451.6589448,5000
-1887.8059849507792,-187500.02235174447,7817.142643587905,-187500.02235174447,-187500.02235174447,-187500.02235174447,-187500.02235174447,-187500.02235174447,1730330453.1951325,1730330451.6589448,5000
-1952.558988637804,-187500.02235174447,7832.1853676063265,-187500.02235174447,-187500.02235174447,-187500.02235174447,-187500.02235174447,-187500.02235174447,1730330453.197668,1730330451.6589448,5000
-1994.1108815802197,-187500.02235174447,7820.607163978478,-187500.02235174447,-187500.02235174447,-187500.02235174447,-187500.02235174447,-187500.02235174447,1730330453.2019436,1730330451.6589448,5000
-1938.8573692867003,-187500.02235174447,7804.759777159665,-187500.02235174447,-187500.02235174447,-187500.02235174447,-187500.02235174447,-187500.02235174447,1730330453.2055058,1730330451.6589448,5000
-1890.75641521888,-187500.02235174447,7816.650905209888,-187500.02235174447,-187500.02235174447,-187500.02235174447,-187500.02235174447,-187500.02235174447,1730330453.2097716,1730330451.6589448,5000
-1941.0478402433207,-187500.02235174447,7813.834585408519,-187500.02235174447,-187500.02235174447,-187500.02235174447,-187500.02235174447,-187500.02235174447,1730330453.214813,1730330451.6589448,5000
-1996.5919252147587,-187500.02235174447,7807.889021383407,-187500.02235174447,-187500.02235174447,-187500.02235174447,-187500.02235174447,-187500.02235174447,1730330453.2189531,1730330451.6589448,5000
-1950.904959548111,-187500.02235174447,7791.728710142221,-187500.02235174447,-187500.02235174447,-187500.02235174447,-187500.02235174447,-187500.02235174447,1730330453.2215316,1730330451.6589448,5000
-1890.1529181185865,-187500.02235174447,7796.310817755559,-187500.02235174447,-187500.02235174447,-187500.02235174447,-187500.02235174447,-187500.02235174447,1730330453.2257123,1730330451.6589448,5000
-1925.2451569134184,-187500.02235174447,7830.620745494455,-187500.02235174447,-187500.02235174447,-187500.02235174447,-187500.02235174447,-187500.02235174447,1730330453.2296312,1730330451.6589448,5000
-1988.0759105772868,-187500.02235174447,7839.852015954497,-187500.02235174447,-187500.02235174447,-187500.02235174447,-187500.02235174447,-187500.02235174447,1730330453.2339225,1730330451.6589448,5000
-1959.2868637188512,-187500.02235174447,7797.562515445056,-187500.02235174447,-187500.02235174447,-187500.02235174447,-187500.02235174447,-187500.02235174447,1730330453.2378151,1730330451.6589448,5000
-1905.9556014484888,-187500.02235174447,7789.649997907877,-187500.02235174447,-187500.02235174447,-187500.02235174447,-187500.02235174447,-187500.02235174447,1730330453.2417796,1730330451.6589448,5000
-1915.5668515642703,-187500.02235174447,7817.16499533236,-187500.02235174447,-187500.02235174447,-187500.02235174447,-187500.02235174447,-187500.02235174447,1730330453.2465973,1730330451.6589448,5000
-1983.8290791307784,-187500.02235174447,7815.332152287025,-187500.02235174447,-187500.02235174447,-187500.02235174447,-187500.02235174447,-187500.02235174447,1730330453.2499173,1730330451.6589448,5000
-1978.10703255022,-187500.02235174447,7794.142698543394,-187500.02235174447,-187500.02235174447,-187500.02235174447,-187500.02235174447,-187500.02235174447,1730330453.2539573,1730330451.6589448,5000
-1906.8049677377903,-187500.02235174447,7777.244779735181,-187500.02235174447,-187500.02235174447,-187500.02235174447,-187500.02235174447,-187500.02235174447,1730330453.2579842,1730330451.6589448,5000
-1902.7816537358349,-187500.02235174447,7814.862765653464,-187500.02235174447,-187500.02235174447,-187500.02235174447,-187500.02235174447,-187500.02235174447,1730330453.2620609,1730330451.6589448,5000
-1980.2080965290183,-187500.02235174447,7824.138739602416,-187500.02235174447,-187500.02235174447,-187500.02235174447,-187500.02235174447,-187500.02235174447,1730330453.2656035,1730330451.6589448,5000
-1982.622084930192,-187500.02235174447,7795.260285766159,-187500.02235174447,-187500.02235174447,-187500.02235174447,-187500.02235174447,-187500.02235174447,1730330453.2698967,1730330451.6589448,5000
-1907.1178921601645,-187500.02235174447,7790.164088030349,-187500.02235174447,-187500.02235174447,-187500.02235174447,-187500.02235174447,-187500.02235174447,1730330453.2747324,1730330451.6589448,5000
-1889.7729384628465,-187500.02235174447,7817.88025115493,-187500.02235174447,-187500.02235174447,-187500.02235174447,-187500.02235174447,-187500.02235174447,1730330453.2779987,1730330451.6589448,5000
-1957.2528549734184,-187500.02235174447,7841.014306666173,-187500.02235174447,-187500.02235174447,-187500.02235174447,-187500.02235174447,-187500.02235174447,1730330453.280665,1730330451.6589448,5000
-1985.6395704316585,-187500.02235174447,7809.45364349528,-187500.02235174447,-187500.02235174447,-187500.02235174447,-187500.02235174447,-187500.02235174447,1730330453.2857068,1730330451.6589448,5000
-1924.1499214351088,-187500.02235174447,7791.929875842318,-187500.02235174447,-187500.02235174447,-187500.02235174447,-187500.02235174447,-187500.02235174447,1730330453.2897792,1730330451.6589448,5000
-1883.3803395486284,-187500.02235174447,7819.668390711355,-187500.02235174447,-187500.02235174447,-187500.02235174447,-187500.02235174447,-187500.02235174447,1730330453.2941823,1730330451.6589448,5000
-1943.4394769000385,-187500.02235174447,7841.774265977653,-187500.02235174447,-187500.02235174447,-187500.02235174447,-187500.02235174447,-187500.02235174447,1730330453.2978,1730330451.6589448,5000
-1994.4685094915048,-187500.02235174447,7810.21360280676,-187500.02235174447,-187500.02235174447,-187500.02235174447,-187500.02235174447,-187500.02235174447,1730330453.303136,1730330451.6589448,5000
-1949.1838752250524,-187500.02235174447,7782.96682631574,-187500.02235174447,-187500.02235174447,-187500.02235174447,-187500.02235174447,-187500.02235174447,1730330453.3056748,1730330451.6589448,5000
-1895.4055780655835,-187500.02235174447,7812.247611552193,-187500.02235174447,-187500.02235174447,-187500.02235174447,-187500.02235174447,-187500.02235174447,1730330453.310298,1730330451.6589448,5000
-1934.9011105181112,-187500.02235174447,7830.196062349804,-187500.02235174447,-187500.02235174447,-187500.02235174447,-187500.02235174447,-187500.02235174447,1730330453.3138013,1730330451.6589448,5000
-1992.2333350459735,-187500.02235174447,7808.82779465053,-187500.02235174447,-187500.02235174447,-187500.02235174447,-187500.02235174447,-187500.02235174447,1730330453.318112,1730330451.6589448,5000
-1953.676575860569,-187500.02235174447,7799.440061979301,-187500.02235174447,-187500.02235174447,-187500.02235174447,-187500.02235174447,-187500.02235174447,1730330453.324298,1730330451.6589448,5000
-1889.4376622960167,-187500.02235174447,7804.424500992835,-187500.02235174447,-187500.02235174447,-187500.02235174447,-187500.02235174447,-187500.02235174447,1730330453.3271024,1730330451.6589448,5000
-1915.745665519913,-187500.02235174447,7834.197024607304,-187500.02235174447,-187500.02235174447,-187500.02235174447,-187500.02235174447,-187500.02235174447,1730330453.3307,1730330451.6589448,5000
-1988.008855343921,-187500.02235174447,7815.265097053659,-187500.02235174447,-187500.02235174447,-187500.02235174447,-187500.02235174447,-187500.02235174447,1730330453.3339486,1730330451.6589448,5000
-1967.8252301007783,-187500.02235174447,7776.35070995697,-187500.02235174447,-187500.02235174447,-187500.02235174447,-187500.02235174447,-187500.02235174447,1730330453.3374572,1730330451.6589448,5000
-1898.199546122497,-187500.02235174447,7778.094146024484,-187500.02235174447,-187500.02235174447,-187500.02235174447,-187500.02235174447,-187500.02235174447,1730330453.3420477,1730330451.6589448,5000
-1912.61642129617,-187500.02235174447,7833.928803673841,-187500.02235174447,-187500.02235174447,-187500.02235174447,-187500.02235174447,-187500.02235174447,1730330453.3459916,1730330451.6589448,5000
-1983.9855413419652,-187500.02235174447,7846.736353246732,-187500.02235174447,-187500.02235174447,-187500.02235174447,-187500.02235174447,-187500.02235174447,1730330453.3499022,1730330451.6589448,5000
-1979.0458058173424,-187500.02235174447,7790.611122919456,-187500.02235174447,-187500.02235174447,-187500.02235174447,-187500.02235174447,-187500.02235174447,1730330453.353906,1730330451.6589448,5000
-1903.4522060694944,-187500.02235174447,7785.649035650377,-187500.02235174447,-187500.02235174447,-187500.02235174447,-187500.02235174447,-187500.02235174447,1730330453.3581965,1730330451.6589448,5000
-1893.460976297972,-187500.02235174447,7819.847204666997,-187500.02235174447,-187500.02235174447,-187500.02235174447,-187500.02235174447,-187500.02235174447,1730330453.3612254,1730330451.6589448,5000
-1974.3966429706388,-187500.02235174447,7812.78405341912,-187500.02235174447,-187500.02235174447,-187500.02235174447,-187500.02235174447,-187500.02235174447,1730330453.364823,1730330451.6589448,5000
-1999.4305967605824,-187500.02235174447,7791.549896186579,-187500.02235174447,-187500.02235174447,-187500.02235174447,-187500.02235174447,-187500.02235174447,1730330453.3700385,1730330451.6589448,5000
-1925.647488313614,-187500.02235174447,7779.390547202891,-187500.02235174447,-187500.02235174447,-187500.02235174447,-187500.02235174447,-187500.02235174447,1730330453.3742733,1730330451.6589448,5000
-1892.4998512863936,-187500.02235174447,7810.414768506857,-187500.02235174447,-187500.02235174447,-187500.02235174447,-187500.02235174447,-187500.02235174447,1730330453.377948,1730330451.6589448,5000
-1956.7164131064908,-187500.02235174447,7829.257289082681,-187500.02235174447,-187500.02235174447,-187500.02235174447,-187500.02235174447,-187500.02235174447,1730330453.3820257,1730330451.6589448,5000
-1993.8873641356663,-187500.02235174447,7798.411881734358,-187500.02235174447,-187500.02235174447,-187500.02235174447,-187500.02235174447,-187500.02235174447,1730330453.3859673,1730330451.6589448,5000
-1931.9506802500107,-187500.02235174447,7781.960997815251,-187500.02235174447,-187500.02235174447,-187500.02235174447,-187500.02235174447,-187500.02235174447,1730330453.388805,1730330451.6589448,5000
-1896.679627499536,-187500.02235174447,7789.87351535243,-187500.02235174447,-187500.02235174447,-187500.02235174447,-187500.02235174447,-187500.02235174447,1730330453.3932507,1730330451.6589448,5000
-1946.2781484458624,-187500.02235174447,7815.622724964944,-187500.02235174447,-187500.02235174447,-187500.02235174447,-187500.02235174447,-187500.02235174447,1730330453.3978212,1730330451.6589448,5000
-2005.44321601906,-187500.02235174447,7807.151413816383,-187500.02235174447,-187500.02235174447,-187500.02235174447,-187500.02235174447,-187500.02235174447,1730330453.4024322,1730330451.6589448,5000
-1948.558026380304,-187500.02235174447,7778.16120125785,-187500.02235174447,-187500.02235174447,-187500.02235174447,-187500.02235174447,-187500.02235174447,1730330453.405936,1730330451.6589448,5000
-1883.2909325708072,-187500.02235174447,7794.5003264546785,-187500.02235174447,-187500.02235174447,-187500.02235174447,-187500.02235174447,-187500.02235174447,1730330453.4100044,1730330451.6589448,5000
-1925.423970869061,-187500.02235174447,7827.290335570614,-187500.02235174447,-187500.02235174447,-187500.02235174447,-187500.02235174447,-187500.02235174447,1730330453.413882,1730330451.6589448,5000
-1986.8242128877896,-187500.02235174447,7816.159166831871,-187500.02235174447,-187500.02235174447,-187500.02235174447,-187500.02235174447,-187500.02235174447,1730330453.4172273,1730330451.6589448,5000
-1952.2460642154292,-187500.02235174447,7800.177669546327,-187500.02235174447,-187500.02235174447,-187500.02235174447,-187500.02235174447,-187500.02235174447,1730330453.4209845,1730330451.6589448,5000
-1890.5328977743263,-187500.02235174447,7793.472146209735,-187500.02235174447,-187500.02235174447,-187500.02235174447,-187500.02235174447,-187500.02235174447,1730330453.4261584,1730330451.6589448,5000
-1915.231575397441,-187500.02235174447,7823.892870413408,-187500.02235174447,-187500.02235174447,-187500.02235174447,-187500.02235174447,-187500.02235174447,1730330453.4298332,1730330451.6589448,5000
-1982.8232506302893,-187500.02235174447,7827.603259992989,-187500.02235174447,-187500.02235174447,-187500.02235174447,-187500.02235174447,-187500.02235174447,1730330453.4342377,1730330451.6589448,5000
-1965.075965532776,-187500.02235174447,7788.152431029372,-187500.02235174447,-187500.02235174447,-187500.02235174447,-187500.02235174447,-187500.02235174447,1730330453.4378974,1730330451.6589448,5000
-1896.9254966885444,-187500.02235174447,7780.306968725559,-187500.02235174447,-187500.02235174447,-187500.02235174447,-187500.02235174447,-187500.02235174447,1730330453.4422083,1730330451.6589448,5000
-1905.7544357483907,-187500.02235174447,7817.567326732556,-187500.02235174447,-187500.02235174447,-187500.02235174447,-187500.02235174447,-187500.02235174447,1730330453.44525,1730330451.6589448,5000
-1977.481183705471,-187500.02235174447,7829.927841416341,-187500.02235174447,-187500.02235174447,-187500.02235174447,-187500.02235174447,-187500.02235174447,1730330453.4493735,1730330451.6589448,5000
-1982.5773814412807,-187500.02235174447,7799.976503846229,-187500.02235174447,-187500.02235174447,-187500.02235174447,-187500.02235174447,-187500.02235174447,1730330453.4531217,1730330451.6589448,5000
-1909.844804983712,-187500.02235174447,7787.124250784427,-187500.02235174447,-187500.02235174447,-187500.02235174447,-187500.02235174447,-187500.02235174447,1730330453.4581497,1730330451.6589448,5000
-1894.578563520737,-187500.02235174447,7820.78597793412,-187500.02235174447,-187500.02235174447,-187500.02235174447,-187500.02235174447,-187500.02235174447,1730330453.462164,1730330451.6589448,5000
-1968.8534103457223,-187500.02235174447,7844.255309612193,-187500.02235174447,-187500.02235174447,-187500.02235174447,-187500.02235174447,-187500.02235174447,1730330453.4650905,1730330451.6589448,5000
-1993.0379978463648,-187500.02235174447,7790.63347466391,-187500.02235174447,-187500.02235174447,-187500.02235174447,-187500.02235174447,-187500.02235174447,1730330453.469479,1730330451.6589448,5000
-1930.7660377938796,-187500.02235174447,7773.82496283352,-187500.02235174447,-187500.02235174447,-187500.02235174447,-187500.02235174447,-187500.02235174447,1730330453.4731429,1730330451.6589448,5000
-1891.3822640636283,-187500.02235174447,7806.056178338073,-187500.02235174447,-187500.02235174447,-187500.02235174447,-187500.02235174447,-187500.02235174447,1730330453.477651,1730330451.6589448,5000
-1960.4044509416165,-187500.02235174447,7821.478882012235,-187500.02235174447,-187500.02235174447,-187500.02235174447,-187500.02235174447,-187500.02235174447,1730330453.482738,1730330451.6589448,5000
-1997.351884526239,-187500.02235174447,7816.02505636514,-187500.02235174447,-187500.02235174447,-187500.02235174447,-187500.02235174447,-187500.02235174447,1730330453.4863276,1730330451.6589448,5000
-1929.1790639375529,-187500.02235174447,7789.046500807584,-187500.02235174447,-187500.02235174447,-187500.02235174447,-187500.02235174447,-187500.02235174447,1730330453.4901457,1730330451.6589448,5000
-1880.519316258349,-187500.02235174447,7792.667483409344,-187500.02235174447,-187500.02235174447,-187500.02235174447,-187500.02235174447,-187500.02235174447,1730330453.4941783,1730330451.6589448,5000
-1946.09933449022,-187500.02235174447,7841.103713643994,-187500.02235174447,-187500.02235174447,-187500.02235174447,-187500.02235174447,-187500.02235174447,1730330453.4970071,1730330451.6589448,5000
-1996.3460560257504,-187500.02235174447,7828.251460582192,-187500.02235174447,-187500.02235174447,-187500.02235174447,-187500.02235174447,-187500.02235174447,1730330453.5016007,1730330451.6589448,5000
-1953.810686327301,-187500.02235174447,7776.216599490238,-187500.02235174447,-187500.02235174447,-187500.02235174447,-187500.02235174447,-187500.02235174447,1730330453.5050087,1730330451.6589448,5000
-1888.56594426226,-187500.02235174447,7792.421614220335,-187500.02235174447,-187500.02235174447,-187500.02235174447,-187500.02235174447,-187500.02235174447,1730330453.509646,1730330451.6589448,5000
-1923.5911278237256,-187500.02235174447,7828.676143726843,-187500.02235174447,-187500.02235174447,-187500.02235174447,-187500.02235174447,-187500.02235174447,1730330453.5139687,1730330451.6589448,5000
-2004.2362218184735,-187500.02235174447,7811.800576663087,-187500.02235174447,-187500.02235174447,-187500.02235174447,-187500.02235174447,-187500.02235174447,1730330453.518336,1730330451.6589448,5000
-1969.0098725569096,-187500.02235174447,7787.101899039972,-187500.02235174447,-187500.02235174447,-187500.02235174447,-187500.02235174447,-187500.02235174447,1730330453.5209908,1730330451.6589448,5000
-1898.3783600781396,-187500.02235174447,7801.027035835628,-187500.02235174447,-187500.02235174447,-187500.02235174447,-187500.02235174447,-187500.02235174447,1730330453.525188,1730330451.6589448,5000
-1924.0158109683769,-187500.02235174447,7831.783036206131,-187500.02235174447,-187500.02235174447,-187500.02235174447,-187500.02235174447,-187500.02235174447,1730330453.529369,1730330451.6589448,5000
-1995.0943583362528,-187500.02235174447,7825.301030314092,-187500.02235174447,-187500.02235174447,-187500.02235174447,-187500.02235174447,-187500.02235174447,1730330453.533592,1730330451.6589448,5000
-1974.8660296042003,-187500.02235174447,7789.717053141243,-187500.02235174447,-187500.02235174447,-187500.02235174447,-187500.02235174447,-187500.02235174447,1730330453.5376048,1730330451.6589448,5000
-1901.038217668321,-187500.02235174447,7804.156280059372,-187500.02235174447,-187500.02235174447,-187500.02235174447,-187500.02235174447,-187500.02235174447,1730330453.5424912,1730330451.6589448,5000
-1902.7816537358349,-187500.02235174447,7836.812178708575,-187500.02235174447,-187500.02235174447,-187500.02235174447,-187500.02235174447,-187500.02235174447,1730330453.54604,1730330451.6589448,5000
-1973.3014074923287,-187500.02235174447,7842.26600435567,-187500.02235174447,-187500.02235174447,-187500.02235174447,-187500.02235174447,-187500.02235174447,1730330453.549661,1730330451.6589448,5000
-1982.8679541192,-187500.02235174447,7825.569251247555,-187500.02235174447,-187500.02235174447,-187500.02235174447,-187500.02235174447,-187500.02235174447,1730330453.553612,1730330451.6589448,5000
-1905.463863070472,-187500.02235174447,7817.366161032458,-187500.02235174447,-187500.02235174447,-187500.02235174447,-187500.02235174447,-187500.02235174447,1730330453.5573037,1730330451.6589448,5000
-1883.9391331600111,-187500.02235174447,7838.622670009455,-187500.02235174447,-187500.02235174447,-187500.02235174447,-187500.02235174447,-187500.02235174447,1730330453.5616848,1730330451.6589448,5000
-1962.773735853879,-187500.02235174447,7855.945271962318,-187500.02235174447,-187500.02235174447,-187500.02235174447,-187500.02235174447,-187500.02235174447,1730330453.5652144,1730330451.6589448,5000
-1989.0817390777756,-187500.02235174447,7830.486635027723,-187500.02235174447,-187500.02235174447,-187500.02235174447,-187500.02235174447,-187500.02235174447,1730330453.570272,1730330451.6589448,5000
-1925.7815987803456,-187500.02235174447,7821.344771545502,-187500.02235174447,-187500.02235174447,-187500.02235174447,-187500.02235174447,-187500.02235174447,1730330453.574375,1730330451.6589448,5000
-1886.6883977280136,-187500.02235174447,7852.681917271843,-187500.02235174447,-187500.02235174447,-187500.02235174447,-187500.02235174447,-187500.02235174447,1730330453.5772767,1730330451.6589448,5000
-1949.8991310476224,-187500.02235174447,7854.827684739553,-187500.02235174447,-187500.02235174447,-187500.02235174447,-187500.02235174447,-187500.02235174447,1730330453.5813105,1730330451.6589448,5000
-1998.804747915834,-187500.02235174447,7833.370010062458,-187500.02235174447,-187500.02235174447,-187500.02235174447,-187500.02235174447,-187500.02235174447,1730330453.5852416,1730330451.6589448,5000
-1946.1440379791304,-187500.02235174447,7822.082379112528,-187500.02235174447,-187500.02235174447,-187500.02235174447,-187500.02235174447,-187500.02235174447,1730330453.5892093,1730330451.6589448,5000
-1891.784595463824,-187500.02235174447,7838.823835709552,-187500.02235174447,-187500.02235174447,-187500.02235174447,-187500.02235174447,-187500.02235174447,1730330453.5933154,1730330451.6589448,5000
-1935.8175320407788,-187500.02235174447,7865.847094756019,-187500.02235174447,-187500.02235174447,-187500.02235174447,-187500.02235174447,-187500.02235174447,1730330453.598199,1730330451.6589448,5000
-1998.2459543044515,-187500.02235174447,7846.60224278,-187500.02235174447,-187500.02235174447,-187500.02235174447,-187500.02235174447,-187500.02235174447,1730330453.6015053,1730330451.6589448,5000
-1958.3257387072729,-187500.02235174447,7810.325361529036,-187500.02235174447,-187500.02235174447,-187500.02235174447,-187500.02235174447,-187500.02235174447,1730330453.6042724,1730330451.6589448,5000
-1895.4949850434048,-187500.02235174447,7825.971582647751,-187500.02235174447,-187500.02235174447,-187500.02235174447,-187500.02235174447,-187500.02235174447,1730330453.609542,1730330451.6589448,5000
-1928.3744011371616,-187500.02235174447,7853.240710883226,-187500.02235174447,-187500.02235174447,-187500.02235174447,-187500.02235174447,-187500.02235174447,1730330453.6132147,1730330451.6589448,5000
-2001.352846783739,-187500.02235174447,7845.596414279511,-187500.02235174447,-187500.02235174447,-187500.02235174447,-187500.02235174447,-187500.02235174447,1730330453.6176624,1730330451.6589448,5000
-1975.0448435598428,-187500.02235174447,7830.285469327626,-187500.02235174447,-187500.02235174447,-187500.02235174447,-187500.02235174447,-187500.02235174447,1730330453.6211357,1730330451.6589448,5000
-1905.776787492846,-187500.02235174447,7836.4098473083795,-187500.02235174447,-187500.02235174447,-187500.02235174447,-187500.02235174447,-187500.02235174447,1730330453.6269152,1730330451.6589448,5000
-1917.0197149538656,-187500.02235174447,7854.246539383715,-187500.02235174447,-187500.02235174447,-187500.02235174447,-187500.02235174447,-187500.02235174447,1730330453.6292737,1730330451.6589448,5000
-1990.288733278362,-187500.02235174447,7854.0230219391615,-187500.02235174447,-187500.02235174447,-187500.02235174447,-187500.02235174447,-187500.02235174447,1730330453.6323695,1730330451.6589448,5000
-1987.4947652214487,-187500.02235174447,7823.35642854648,-187500.02235174447,-187500.02235174447,-187500.02235174447,-187500.02235174447,-187500.02235174447,1730330453.6373515,1730330451.6589448,5000
-1906.42498808205,-187500.02235174447,7826.150396603393,-187500.02235174447,-187500.02235174447,-187500.02235174447,-187500.02235174447,-187500.02235174447,1730330453.641734,1730330451.6589448,5000
-1900.166499634564,-187500.02235174447,7858.001632452207,-187500.02235174447,-187500.02235174447,-187500.02235174447,-187500.02235174447,-187500.02235174447,1730330453.6453457,1730330451.6589448,5000
-1973.4802214479712,-187500.02235174447,7871.32327214757,-187500.02235174447,-187500.02235174447,-187500.02235174447,-187500.02235174447,-187500.02235174447,1730330453.6491835,1730330451.6589448,5000
-1992.032169345876,-187500.02235174447,7844.434123567835,-187500.02235174447,-187500.02235174447,-187500.02235174447,-187500.02235174447,-187500.02235174447,1730330453.6537485,1730330451.6589448,5000
-1923.4346656125388,-187500.02235174447,7812.471128996745,-187500.02235174447,-187500.02235174447,-187500.02235174447,-187500.02235174447,-187500.02235174447,1730330453.657913,1730330451.6589448,5000
-1896.3443513327063,-187500.02235174447,7839.896719443407,-187500.02235174447,-187500.02235174447,-187500.02235174447,-187500.02235174447,-187500.02235174447,1730330453.6606696,1730330451.6589448,5000
-1966.4394219445492,-187500.02235174447,7863.097830188016,-187500.02235174447,-187500.02235174447,-187500.02235174447,-187500.02235174447,-187500.02235174447,1730330453.6653793,1730330451.6589448,5000
-2003.8785939071888,-187500.02235174447,7829.838434438519,-187500.02235174447,-187500.02235174447,-187500.02235174447,-187500.02235174447,-187500.02235174447,1730330453.6696668,1730330451.6589448,5000
-1945.0264507563647,-187500.02235174447,7811.331190029525,-187500.02235174447,-187500.02235174447,-187500.02235174447,-187500.02235174447,-187500.02235174447,1730330453.6733437,1730330451.6589448,5000
-1907.6319822826365,-187500.02235174447,7839.628498509944,-187500.02235174447,-187500.02235174447,-187500.02235174447,-187500.02235174447,-187500.02235174447,1730330453.6778464,1730330451.6589448,5000
-1959.9797677969657,-187500.02235174447,7876.1512489499155,-187500.02235174447,-187500.02235174447,-187500.02235174447,-187500.02235174447,-187500.02235174447,1730330453.681372,1730330451.6589448,5000
-2002.4480822620487,-187500.02235174447,7853.486580072235,-187500.02235174447,-187500.02235174447,-187500.02235174447,-187500.02235174447,-187500.02235174447,1730330453.6854565,1730330451.6589448,5000
-1951.486104903949,-187500.02235174447,7825.345733803003,-187500.02235174447,-187500.02235174447,-187500.02235174447,-187500.02235174447,-187500.02235174447,1730330453.6882896,1730330451.6589448,5000
-1891.3152088302625,-187500.02235174447,7847.496312558212,-187500.02235174447,-187500.02235174447,-187500.02235174447,-187500.02235174447,-187500.02235174447,1730330453.6927228,1730330451.6589448,5000
-1938.499741375416,-187500.02235174447,7875.860676271996,-187500.02235174447,-187500.02235174447,-187500.02235174447,-187500.02235174447,-187500.02235174447,1730330453.697185,1730330451.6589448,5000
-1993.976771113488,-187500.02235174447,7857.331080118547,-187500.02235174447,-187500.02235174447,-187500.02235174447,-187500.02235174447,-187500.02235174447,1730330453.7017384,1730330451.6589448,5000
-1952.9166165490888,-187500.02235174447,7828.005591393184,-187500.02235174447,-187500.02235174447,-187500.02235174447,-187500.02235174447,-187500.02235174447,1730330453.7052417,1730330451.6589448,5000
-1883.3803395486284,-187500.02235174447,7850.670260270866,-187500.02235174447,-187500.02235174447,-187500.02235174447,-187500.02235174447,-187500.02235174447,1730330453.7097273,1730330451.6589448,5000
-1911.4317788400388,-187500.02235174447,7892.13274623546,-187500.02235174447,-187500.02235174447,-187500.02235174447,-187500.02235174447,-187500.02235174447,1730330453.713264,1730330451.6589448,5000
-1991.3392652677612,-187500.02235174447,7861.533208076145,-187500.02235174447,-187500.02235174447,-187500.02235174447,-187500.02235174447,-187500.02235174447,1730330453.7170177,1730330451.6589448,5000
-1967.9369888230551,-187500.02235174447,7825.524547758645,-187500.02235174447,-187500.02235174447,-187500.02235174447,-187500.02235174447,-187500.02235174447,1730330453.720464,1730330451.6589448,5000
-1893.103348386687,-187500.02235174447,7833.682934484832,-187500.02235174447,-187500.02235174447,-187500.02235174447,-187500.02235174447,-187500.02235174447,1730330453.7254438,1730330451.6589448,5000
-1910.8059299952904,-187500.02235174447,7874.251350671215,-187500.02235174447,-187500.02235174447,-187500.02235174447,-187500.02235174447,-187500.02235174447,1730330453.7294,1730330451.6589448,5000
-1990.735768167468,-187500.02235174447,7872.351452392513,-187500.02235174447,-187500.02235174447,-187500.02235174447,-187500.02235174447,-187500.02235174447,1730330453.7336085,1730330451.6589448,5000
-1994.7367304249683,-187500.02235174447,7833.392361806913,-187500.02235174447,-187500.02235174447,-187500.02235174447,-187500.02235174447,-187500.02235174447,1730330453.73702,1730330451.6589448,5000
-1911.655296284592,-187500.02235174447,7813.633419708422,-187500.02235174447,-187500.02235174447,-187500.02235174447,-187500.02235174447,-187500.02235174447,1730330453.740935,1730330451.6589448,5000
-1900.3229618457517,-187500.02235174447,7846.669298013366,-187500.02235174447,-187500.02235174447,-187500.02235174447,-187500.02235174447,-187500.02235174447,1730330453.7444355,1730330451.6589448,5000
-1979.5598959398144,-187500.02235174447,7864.483638344245,-187500.02235174447,-187500.02235174447,-187500.02235174447,-187500.02235174447,-187500.02235174447,1730330453.748618,1730330451.6589448,5000
-2003.677428207091,-187500.02235174447,7858.180446407849,-187500.02235174447,-187500.02235174447,-187500.02235174447,-187500.02235174447,-187500.02235174447,1730330453.7540016,1730330451.6589448,5000
-1930.2742994158623,-187500.02235174447,7836.633364752933,-187500.02235174447,-187500.02235174447,-187500.02235174447,-187500.02235174447,-187500.02235174447,1730330453.7580743,1730330451.6589448,5000
-1894.8244327097457,-187500.02235174447,7840.321402588058,-187500.02235174447,-187500.02235174447,-187500.02235174447,-187500.02235174447,-187500.02235174447,1730330453.7619374,1730330451.6589448,5000
-1959.9797677969657,-187500.02235174447,7859.74506851972,-187500.02235174447,-187500.02235174447,-187500.02235174447,-187500.02235174447,-187500.02235174447,1730330453.7644336,1730330451.6589448,5000
-2003.096282851253,-187500.02235174447,7839.941422932318,-187500.02235174447,-187500.02235174447,-187500.02235174447,-187500.02235174447,-187500.02235174447,1730330453.768549,1730330451.6589448,5000
-1941.1819507100524,-187500.02235174447,7822.618820979455,-187500.02235174447,-187500.02235174447,-187500.02235174447,-187500.02235174447,-187500.02235174447,1730330453.7724297,1730330451.6589448,5000
-1894.109176887176,-187500.02235174447,7839.896719443407,-187500.02235174447,-187500.02235174447,-187500.02235174447,-187500.02235174447,-187500.02235174447,1730330453.7769775,1730330451.6589448,5000
-1948.379212424661,-187500.02235174447,7867.501123845712,-187500.02235174447,-187500.02235174447,-187500.02235174447,-187500.02235174447,-187500.02235174447,1730330453.781492,1730330451.6589448,5000
-2003.811538673823,-187500.02235174447,7844.07649565655,-187500.02235174447,-187500.02235174447,-187500.02235174447,-187500.02235174447,-187500.02235174447,1730330453.785622,1730330451.6589448,5000
-1958.549256151826,-187500.02235174447,7828.989068149218,-187500.02235174447,-187500.02235174447,-187500.02235174447,-187500.02235174447,-187500.02235174447,1730330453.789462,1730330451.6589448,5000
-1898.6912845005136,-187500.02235174447,7837.706248486787,-187500.02235174447,-187500.02235174447,-187500.02235174447,-187500.02235174447,-187500.02235174447,1730330453.792739,1730330451.6589448,5000
-1942.053668743809,-187500.02235174447,7856.615824295977,-187500.02235174447,-187500.02235174447,-187500.02235174447,-187500.02235174447,-187500.02235174447,1730330453.7964392,1730330451.6589448,5000
-2011.8805184221887,-187500.02235174447,7858.403963852402,-187500.02235174447,-187500.02235174447,-187500.02235174447,-187500.02235174447,-187500.02235174447,1730330453.8009875,1730330451.6589448,5000
-1972.7873173698567,-187500.02235174447,7827.491501270712,-187500.02235174447,-187500.02235174447,-187500.02235174447,-187500.02235174447,-187500.02235174447,1730330453.8043709,1730330451.6589448,5000
-1900.032389167832,-187500.02235174447,7828.162053604371,-187500.02235174447,-187500.02235174447,-187500.02235174447,-187500.02235174447,-187500.02235174447,1730330453.8088944,1730330451.6589448,5000
-1923.5017208459049,-187500.02235174447,7853.620690538966,-187500.02235174447,-187500.02235174447,-187500.02235174447,-187500.02235174447,-187500.02235174447,1730330453.814482,1730330451.6589448,5000
-1997.463643248516,-187500.02235174447,7861.644966798422,-187500.02235174447,-187500.02235174447,-187500.02235174447,-187500.02235174447,-187500.02235174447,1730330453.8189962,1730330451.6589448,5000
-1983.270285519396,-187500.02235174447,7847.272795113658,-187500.02235174447,-187500.02235174447,-187500.02235174447,-187500.02235174447,-187500.02235174447,1730330453.8214917,1730330451.6589448,5000
-1908.3695898496617,-187500.02235174447,7836.700419986299,-187500.02235174447,-187500.02235174447,-187500.02235174447,-187500.02235174447,-187500.02235174447,1730330453.824658,1730330451.6589448,5000
-1921.266546400374,-187500.02235174447,7837.616841508966,-187500.02235174447,-187500.02235174447,-187500.02235174447,-187500.02235174447,-187500.02235174447,1730330453.8290453,1730330451.6589448,5000
-1986.064253576309,-187500.02235174447,7843.875329956452,-187500.02235174447,-187500.02235174447,-187500.02235174447,-187500.02235174447,-187500.02235174447,1730330453.8330443,1730330451.6589448,5000
-1994.6920269360576,-187500.02235174447,7826.26215532567,-187500.02235174447,-187500.02235174447,-187500.02235174447,-187500.02235174447,-187500.02235174447,1730330453.8369856,1730330451.6589448,5000
-1919.2101859104855,-187500.02235174447,7823.758759946676,-187500.02235174447,-187500.02235174447,-187500.02235174447,-187500.02235174447,-187500.02235174447,1730330453.8417025,1730330451.6589448,5000
-1902.8934124581117,-187500.02235174447,7847.384553835936,-187500.02235174447,-187500.02235174447,-187500.02235174447,-187500.02235174447,-187500.02235174447,1730330453.845043,1730330451.6589448,5000
-1974.4189947150944,-187500.02235174447,7854.917091717374,-187500.02235174447,-187500.02235174447,-187500.02235174447,-187500.02235174447,-187500.02235174447,1730330453.849185,1730330451.6589448,5000
-1992.7027216795352,-187500.02235174447,7839.896719443407,-187500.02235174447,-187500.02235174447,-187500.02235174447,-187500.02235174447,-187500.02235174447,1730330453.8526864,1730330451.6589448,5000
-1922.7641132788797,-187500.02235174447,7819.444873266802,-187500.02235174447,-187500.02235174447,-187500.02235174447,-187500.02235174447,-187500.02235174447,1730330453.8566988,1730330451.6589448,5000
-1887.3813018061285,-187500.02235174447,7824.697533213799,-187500.02235174447,-187500.02235174447,-187500.02235174447,-187500.02235174447,-187500.02235174447,1730330453.8606896,1730330451.6589448,5000
-1960.4938579194377,-187500.02235174447,7861.868484242975,-187500.02235174447,-187500.02235174447,-187500.02235174447,-187500.02235174447,-187500.02235174447,1730330453.8647113,1730330451.6589448,5000
-2010.49471026596,-187500.02235174447,7845.5517107906,-187500.02235174447,-187500.02235174447,-187500.02235174447,-187500.02235174447,-187500.02235174447,1730330453.8696582,1730330451.6589448,5000
-1945.0488025008208,-187500.02235174447,7813.320495286048,-187500.02235174447,-187500.02235174447,-187500.02235174447,-187500.02235174447,-187500.02235174447,1730330453.8726273,1730330451.6589448,5000
-1890.0188076518543,-187500.02235174447,7839.203815365293,-187500.02235174447,-187500.02235174447,-187500.02235174447,-187500.02235174447,-187500.02235174447,1730330453.876614,1730330451.6589448,5000
-1941.0254884988651,-187500.02235174447,7869.110449446493,-187500.02235174447,-187500.02235174447,-187500.02235174447,-187500.02235174447,-187500.02235174447,1730330453.880556,1730330451.6589448,5000
-2004.996181129954,-187500.02235174447,7852.301937616103,-187500.02235174447,-187500.02235174447,-187500.02235174447,-187500.02235174447,-187500.02235174447,1730330453.8846965,1730330451.6589448,5000
-1967.8252301007783,-187500.02235174447,7819.042541866606,-187500.02235174447,-187500.02235174447,-187500.02235174447,-187500.02235174447,-187500.02235174447,1730330453.8884647,1730330451.6589448,5000
-1907.095540415709,-187500.02235174447,7836.208681608282,-187500.02235174447,-187500.02235174447,-187500.02235174447,-187500.02235174447,-187500.02235174447,1730330453.8926687,1730330451.6589448,5000
-1936.711601818991,-187500.02235174447,7854.470056828268,-187500.02235174447,-187500.02235174447,-187500.02235174447,-187500.02235174447,-187500.02235174447,1730330453.897719,1730330451.6589448,5000
-2001.2857915503728,-187500.02235174447,7853.17365564986,-187500.02235174447,-187500.02235174447,-187500.02235174447,-187500.02235174447,-187500.02235174447,1730330453.9006944,1730330451.6589448,5000
-1974.8213261152896,-187500.02235174447,7821.747102945698,-187500.02235174447,-187500.02235174447,-187500.02235174447,-187500.02235174447,-187500.02235174447,1730330453.9045515,1730330451.6589448,5000
-1907.944906705011,-187500.02235174447,7809.677160939832,-187500.02235174447,-187500.02235174447,-187500.02235174447,-187500.02235174447,-187500.02235174447,1730330453.9087589,1730330451.6589448,5000
-1932.353011650206,-187500.02235174447,7841.7519142331985,-187500.02235174447,-187500.02235174447,-187500.02235174447,-187500.02235174447,-187500.02235174447,1730330453.912487,1730330451.6589448,5000
-2007.2760590643957,-187500.02235174447,7851.676088771354,-187500.02235174447,-187500.02235174447,-187500.02235174447,-187500.02235174447,-187500.02235174447,1730330453.9171464,1730330451.6589448,5000
-1988.4782419774824,-187500.02235174447,7821.92591690134,-187500.02235174447,-187500.02235174447,-187500.02235174447,-187500.02235174447,-187500.02235174447,1730330453.9208584,1730330451.6589448,5000
-1914.8515957417007,-187500.02235174447,7813.521660986145,-187500.02235174447,-187500.02235174447,-187500.02235174447,-187500.02235174447,-187500.02235174447,1730330453.925876,1730330451.6589448,5000
-1903.9439444475108,-187500.02235174447,7838.399152564902,-187500.02235174447,-187500.02235174447,-187500.02235174447,-187500.02235174447,-187500.02235174447,1730330453.928952,1730330451.6589448,5000
-1978.285846505862,-187500.02235174447,7848.79271373662,-187500.02235174447,-187500.02235174447,-187500.02235174447,-187500.02235174447,-187500.02235174447,1730330453.9317267,1730330451.6589448,5000
-2002.8951171511555,-187500.02235174447,7822.462358768268,-187500.02235174447,-187500.02235174447,-187500.02235174447,-187500.02235174447,-187500.02235174447,1730330453.9367807,1730330451.6589448,5000
-1938.7679623088795,-187500.02235174447,7805.318570771047,-187500.02235174447,-187500.02235174447,-187500.02235174447,-187500.02235174447,-187500.02235174447,1730330453.9407773,1730330451.6589448,5000
-1915.1198166751644,-187500.02235174447,7833.101789128994,-187500.02235174447,-187500.02235174447,-187500.02235174447,-187500.02235174447,-187500.02235174447,1730330453.9447832,1730330451.6589448,5000
-1976.2518377604288,-187500.02235174447,7865.824743011563,-187500.02235174447,-187500.02235174447,-187500.02235174447,-187500.02235174447,-187500.02235174447,1730330453.9488204,1730330451.6589448,5000
-2013.422788789605,-187500.02235174447,7825.502196014189,-187500.02235174447,-187500.02235174447,-187500.02235174447,-187500.02235174447,-187500.02235174447,1730330453.953974,1730330451.6589448,5000
-1948.9603577804996,-187500.02235174447,7808.358408016969,-187500.02235174447,-187500.02235174447,-187500.02235174447,-187500.02235174447,-187500.02235174447,1730330453.9567485,1730330451.6589448,5000
-1901.105272901687,-187500.02235174447,7831.291297828115,-187500.02235174447,-187500.02235174447,-187500.02235174447,-187500.02235174447,-187500.02235174447,1730330453.959793,1730330451.6589448,5000
-1953.5648171382925,-187500.02235174447,7859.36508886398,-187500.02235174447,-187500.02235174447,-187500.02235174447,-187500.02235174447,-187500.02235174447,1730330453.9647305,1730330451.6589448,5000
-1996.435463003572,-187500.02235174447,7836.722771730754,-187500.02235174447,-187500.02235174447,-187500.02235174447,-187500.02235174447,-187500.02235174447,1730330453.9688585,1730330451.6589448,5000
-1951.9778432819655,-187500.02235174447,7822.618820979455,-187500.02235174447,-187500.02235174447,-187500.02235174447,-187500.02235174447,-187500.02235174447,1730330453.9727995,1730330451.6589448,5000
-1894.7350257319245,-187500.02235174447,7836.946289175307,-187500.02235174447,-187500.02235174447,-187500.02235174447,-187500.02235174447,-187500.02235174447,1730330453.9768567,1730330451.6589448,5000
-1943.3500699222168,-187500.02235174447,7858.292205130126,-187500.02235174447,-187500.02235174447,-187500.02235174447,-187500.02235174447,-187500.02235174447,1730330453.9807065,1730330451.6589448,5000
-2006.6949137085576,-187500.02235174447,7845.417600323868,-187500.02235174447,-187500.02235174447,-187500.02235174447,-187500.02235174447,-187500.02235174447,1730330453.9838512,1730330451.6589448,5000
-1976.6541691606249,-187500.02235174447,7821.233012823226,-187500.02235174447,-187500.02235174447,-187500.02235174447,-187500.02235174447,-187500.02235174447,1730330453.987641,1730330451.6589448,5000
-1904.3462758477065,-187500.02235174447,7842.936556689329,-187500.02235174447,-187500.02235174447,-187500.02235174447,-187500.02235174447,-187500.02235174447,1730330453.9928849,1730330451.6589448,5000
-1922.294726645318,-187500.02235174447,7858.627481296955,-187500.02235174447,-187500.02235174447,-187500.02235174447,-187500.02235174447,-187500.02235174447,1730330453.996726,1730330451.6589448,5000
-2008.1030736092416,-187500.02235174447,7849.418562581368,-187500.02235174447,-187500.02235174447,-187500.02235174447,-187500.02235174447,-187500.02235174447,1730330454.0008664,1730330451.6589448,5000
-1992.3450937682503,-187500.02235174447,7830.441931538812,-187500.02235174447,-187500.02235174447,-187500.02235174447,-187500.02235174447,-187500.02235174447,1730330454.004747,1730330451.6589448,5000
-1912.683476529536,-187500.02235174447,7827.647963481899,-187500.02235174447,-187500.02235174447,-187500.02235174447,-187500.02235174447,-187500.02235174447,1730330454.0088544,1730330451.6589448,5000
-1923.9040522461,-187500.02235174447,7858.26985338567,-187500.02235174447,-187500.02235174447,-187500.02235174447,-187500.02235174447,-187500.02235174447,1730330454.0118048,1730330451.6589448,5000
-1994.2449920469517,-187500.02235174447,7864.863617999986,-187500.02235174447,-187500.02235174447,-187500.02235174447,-187500.02235174447,-187500.02235174447,1730330454.0158436,1730330451.6589448,5000
-2000.30231479434,-187500.02235174447,7835.716943230265,-187500.02235174447,-187500.02235174447,-187500.02235174447,-187500.02235174447,-187500.02235174447,1730330454.0207157,1730330451.6589448,5000
-1927.2344621699408,-187500.02235174447,7834.107617629483,-187500.02235174447,-187500.02235174447,-187500.02235174447,-187500.02235174447,-187500.02235174447,1730330454.0248132,1730330451.6589448,5000
-1914.3151538747732,-187500.02235174447,7860.929710975852,-187500.02235174447,-187500.02235174447,-187500.02235174447,-187500.02235174447,-187500.02235174447,1730330454.0289333,1730330451.6589448,5000
-1986.5112884654152,-187500.02235174447,7866.607054067499,-187500.02235174447,-187500.02235174447,-187500.02235174447,-187500.02235174447,-187500.02235174447,1730330454.0328567,1730330451.6589448,5000
-2009.1759573430968,-187500.02235174447,7832.855919939986,-187500.02235174447,-187500.02235174447,-187500.02235174447,-187500.02235174447,-187500.02235174447,1730330454.0358255,1730330451.6589448,5000
-1935.459904129494,-187500.02235174447,7830.888966427919,-187500.02235174447,-187500.02235174447,-187500.02235174447,-187500.02235174447,-187500.02235174447,1730330454.0401037,1730330451.6589448,5000
-1908.7048660164912,-187500.02235174447,7861.913187731885,-187500.02235174447,-187500.02235174447,-187500.02235174447,-187500.02235174447,-187500.02235174447,1730330454.0439253,1730330451.6589448,5000
-1977.3917767276496,-187500.02235174447,7870.026870969162,-187500.02235174447,-187500.02235174447,-187500.02235174447,-187500.02235174447,-187500.02235174447,1730330454.0478752,1730330451.6589448,5000
