Fp1,Fp2,C3,C4,P7,P8,O1,O2,time_board,time_marker,marker
-18.686058364636704,-187500.02235174447,578.2843325477044,-187500.02235174447,-187500.02235174447,-187500.02235174447,-187500.02235174447,-187500.02235174447,1730245791.8285644,1730245791.8270986,5000
-47.4751052230722,-187500.02235174447,576.295027291182,-187500.02235174447,-187500.02235174447,-187500.02235174447,-187500.02235174447,-187500.02235174447,1730245791.8325975,1730245791.8270986,5000
-65.64707346523684,-187500.02235174447,548.198884510861,-187500.02235174447,-187500.02235174447,-187500.02235174447,-187500.02235174447,-187500.02235174447,1730245791.8355908,1730245791.8270986,5000
-49.59852094632637,-187500.02235174447,548.6906228888778,-187500.02235174447,-187500.02235174447,-187500.02235174447,-187500.02235174447,-187500.02235174447,1730245791.8395424,1730245791.8270986,5000
-24.29634622291878,-187500.02235174447,582.5088122497574,-187500.02235174447,-187500.02235174447,-187500.02235174447,-187500.02235174447,-187500.02235174447,1730245791.8434649,1730245791.8270986,5000
-28.45377069160589,-187500.02235174447,588.5884867416008,-187500.02235174447,-187500.02235174447,-187500.02235174447,-187500.02235174447,-187500.02235174447,1730245791.8485682,1730245791.8270986,5000
-51.07373608037664,-187500.02235174447,553.6750619024112,-187500.02235174447,-187500.02235174447,-187500.02235174447,-187500.02235174447,-187500.02235174447,1730245791.8526232,1730245791.8270986,5000
-27.425590446661765,-187500.02235174447,550.2775967452046,-187500.02235174447,-187500.02235174447,-187500.02235174447,-187500.02235174447,-187500.02235174447,1730245791.8566628,1730245791.8270986,5000
-27.827921846857294,-187500.02235174447,574.618646457034,-187500.02235174447,-187500.02235174447,-187500.02235174447,-187500.02235174447,-187500.02235174447,1730245791.8605158,1730245791.8270986,5000
-50.09025932434313,-187500.02235174447,587.6944169633886,-187500.02235174447,-187500.02235174447,-187500.02235174447,-187500.02235174447,-187500.02235174447,1730245791.8635526,1730245791.8270986,5000
-53.755945415013485,-187500.02235174447,556.6478439149671,-187500.02235174447,-187500.02235174447,-187500.02235174447,-187500.02235174447,-187500.02235174447,1730245791.867608,1730245791.8270986,5000
-38.82498011886837,-187500.02235174447,542.9015210749533,-187500.02235174447,-187500.02235174447,-187500.02235174447,-187500.02235174447,-187500.02235174447,1730245791.8715787,1730245791.8270986,5000
-30.66659339268129,-187500.02235174447,564.6721201744223,-187500.02235174447,-187500.02235174447,-187500.02235174447,-187500.02235174447,-187500.02235174447,1730245791.876695,1730245791.8270986,5000
-46.80455288941299,-187500.02235174447,588.9014111639751,-187500.02235174447,-187500.02235174447,-187500.02235174447,-187500.02235174447,-187500.02235174447,1730245791.880627,1730245791.8270986,5000
-61.4002420187285,-187500.02235174447,562.973387595819,-187500.02235174447,-187500.02235174447,-187500.02235174447,-187500.02235174447,-187500.02235174447,1730245791.884673,1730245791.8270986,5000
-53.66653843719226,-187500.02235174447,531.0998000025511,-187500.02235174447,-187500.02235174447,-187500.02235174447,-187500.02235174447,-187500.02235174447,1730245791.888589,1730245791.8270986,5000
-9.946526282611645,-187500.02235174447,551.2163700123275,-187500.02235174447,-187500.02235174447,-187500.02235174447,-187500.02235174447,-187500.02235174447,1730245791.891729,1730245791.8270986,5000
-25.6374508902372,-187500.02235174447,595.5398792672014,-187500.02235174447,-187500.02235174447,-187500.02235174447,-187500.02235174447,-187500.02235174447,1730245791.8957384,1730245791.8270986,5000
-52.41484074769506,-187500.02235174447,579.5583819816568,-187500.02235174447,-187500.02235174447,-187500.02235174447,-187500.02235174447,-187500.02235174447,1730245791.8997524,1730245791.8270986,5000
-46.625738933770535,-187500.02235174447,537.5818058945902,-187500.02235174447,-187500.02235174447,-187500.02235174447,-187500.02235174447,-187500.02235174447,1730245791.903761,1730245791.8270986,5000
-37.05919230689911,-187500.02235174447,541.8509890855538,-187500.02235174447,-187500.02235174447,-187500.02235174447,-187500.02235174447,-187500.02235174447,1730245791.9087255,1730245791.8270986,5000
-22.39644794421768,-187500.02235174447,578.9995883702742,-187500.02235174447,-187500.02235174447,-187500.02235174447,-187500.02235174447,-187500.02235174447,1730245791.912586,1730245791.8270986,5000
-30.66659339268129,-187500.02235174447,571.6011609555675,-187500.02235174447,-187500.02235174447,-187500.02235174447,-187500.02235174447,-187500.02235174447,1730245791.9167683,1730245791.8270986,5000
-33.5499684274159,-187500.02235174447,534.2290442262941,-187500.02235174447,-187500.02235174447,-187500.02235174447,-187500.02235174447,-187500.02235174447,1730245791.9197702,1730245791.8270986,5000
4.000962257499964,-187500.02235174447,546.4554484433471,-187500.02235174447,-187500.02235174447,-187500.02235174447,-187500.02235174447,-187500.02235174447,1730245791.9237888,1730245791.8270986,5000
-24.564567156382463,-187500.02235174447,577.2561523027603,-187500.02235174447,-187500.02235174447,-187500.02235174447,-187500.02235174447,-187500.02235174447,1730245791.927816,1730245791.8270986,5000
-43.116515054287326,-187500.02235174447,569.0977655765731,-187500.02235174447,-187500.02235174447,-187500.02235174447,-187500.02235174447,-187500.02235174447,1730245791.9318144,1730245791.8270986,5000
-44.3011575104186,-187500.02235174447,531.1221517470065,-187500.02235174447,-187500.02235174447,-187500.02235174447,-187500.02235174447,-187500.02235174447,1730245791.9367943,1730245791.8270986,5000
-34.62285216127064,-187500.02235174447,525.5789191220903,-187500.02235174447,-187500.02235174447,-187500.02235174447,-187500.02235174447,-187500.02235174447,1730245791.9408035,1730245791.8270986,5000
-3.509223879483209,-187500.02235174447,552.8927508464755,-187500.02235174447,-187500.02235174447,-187500.02235174447,-187500.02235174447,-187500.02235174447,1730245791.9438045,1730245791.8270986,5000
-19.71423860958083,-187500.02235174447,559.2406462717827,-187500.02235174447,-187500.02235174447,-187500.02235174447,-187500.02235174447,-187500.02235174447,1730245791.9478335,1730245791.8270986,5000
-57.73455592805814,-187500.02235174447,536.6206808830119,-187500.02235174447,-187500.02235174447,-187500.02235174447,-187500.02235174447,-187500.02235174447,1730245791.9518244,1730245791.8270986,5000
-31.35949747079581,-187500.02235174447,531.3680209360148,-187500.02235174447,-187500.02235174447,-187500.02235174447,-187500.02235174447,-187500.02235174447,1730245791.9559104,1730245791.8270986,5000
4.984439013533475,-187500.02235174447,565.6779486749111,-187500.02235174447,-187500.02235174447,-187500.02235174447,-187500.02235174447,-187500.02235174447,1730245791.9599135,1730245791.8270986,5000
3.57627911284913,-187500.02235174447,581.5476872381792,-187500.02235174447,-187500.02235174447,-187500.02235174447,-187500.02235174447,-187500.02235174447,1730245791.963759,1730245791.8270986,5000
-28.38671545823997,-187500.02235174447,556.0890503035844,-187500.02235174447,-187500.02235174447,-187500.02235174447,-187500.02235174447,-187500.02235174447,1730245791.9689257,1730245791.8270986,5000
-21.14475025472048,-187500.02235174447,530.5633581356237,-187500.02235174447,-187500.02235174447,-187500.02235174447,-187500.02235174447,-187500.02235174447,1730245791.9717777,1730245791.8270986,5000
1.765787811969258,-187500.02235174447,554.5691316806235,-187500.02235174447,-187500.02235174447,-187500.02235174447,-187500.02235174447,-187500.02235174447,1730245791.9759097,1730245791.8270986,5000
-18.90957580918977,-187500.02235174447,581.6147424715451,-187500.02235174447,-187500.02235174447,-187500.02235174447,-187500.02235174447,-187500.02235174447,1730245791.979741,1730245791.8270986,5000
-41.93187259815605,-187500.02235174447,565.3203207636262,-187500.02235174447,-187500.02235174447,-187500.02235174447,-187500.02235174447,-187500.02235174447,1730245791.983936,1730245791.8270986,5000
-34.84636960582371,-187500.02235174447,535.7266111047996,-187500.02235174447,-187500.02235174447,-187500.02235174447,-187500.02235174447,-187500.02235174447,1730245791.98779,1730245791.8270986,5000
13.276936206452396,-187500.02235174447,551.2610735012381,-187500.02235174447,-187500.02235174447,-187500.02235174447,-187500.02235174447,-187500.02235174447,1730245791.991783,1730245791.8270986,5000
28.744343369524884,-187500.02235174447,580.1171755930395,-187500.02235174447,-187500.02235174447,-187500.02235174447,-187500.02235174447,-187500.02235174447,1730245791.9967985,1730245791.8270986,5000
-29.414895703184094,-187500.02235174447,556.6925474038777,-187500.02235174447,-187500.02235174447,-187500.02235174447,-187500.02235174447,-187500.02235174447,1730245791.9999592,1730245791.8270986,5000
-40.25549176400802,-187500.02235174447,526.2494714557495,-187500.02235174447,-187500.02235174447,-187500.02235174447,-187500.02235174447,-187500.02235174447,1730245792.0040112,1730245791.8270986,5000
-9.29832569340774,-187500.02235174447,545.6507856429561,-187500.02235174447,-187500.02235174447,-187500.02235174447,-187500.02235174447,-187500.02235174447,1730245792.007964,1730245791.8270986,5000
8.784235570935676,-187500.02235174447,577.1890970693943,-187500.02235174447,-187500.02235174447,-187500.02235174447,-187500.02235174447,-187500.02235174447,1730245792.0117848,1730245791.8270986,5000
-6.459654147583741,-187500.02235174447,572.8528586450647,-187500.02235174447,-187500.02235174447,-187500.02235174447,-187500.02235174447,-187500.02235174447,1730245792.0159895,1730245791.8270986,5000
-19.378962442751224,-187500.02235174447,538.8111518396321,-187500.02235174447,-187500.02235174447,-187500.02235174447,-187500.02235174447,-187500.02235174447,1730245792.0199828,1730245791.8270986,5000
-3.0398372459217606,-187500.02235174447,537.8276750835986,-187500.02235174447,-187500.02235174447,-187500.02235174447,-187500.02235174447,-187500.02235174447,1730245792.0249908,1730245791.8270986,5000
18.97663104255569,-187500.02235174447,568.9413033653859,-187500.02235174447,-187500.02235174447,-187500.02235174447,-187500.02235174447,-187500.02235174447,1730245792.0279293,1730245791.8270986,5000
0.6034971002932907,-187500.02235174447,573.6798731899111,-187500.02235174447,-187500.02235174447,-187500.02235174447,-187500.02235174447,-187500.02235174447,1730245792.0319693,1730245791.8270986,5000
-26.687982879636632,-187500.02235174447,544.0414600421739,-187500.02235174447,-187500.02235174447,-187500.02235174447,-187500.02235174447,-187500.02235174447,1730245792.0359724,1730245791.8270986,5000
-10.147691982709407,-187500.02235174447,536.553625649646,-187500.02235174447,-187500.02235174447,-187500.02235174447,-187500.02235174447,-187500.02235174447,1730245792.040017,1730245791.8270986,5000
12.494625150516647,-187500.02235174447,568.3825097540033,-187500.02235174447,-187500.02235174447,-187500.02235174447,-187500.02235174447,-187500.02235174447,1730245792.04404,1730245791.8270986,5000
13.813378073379765,-187500.02235174447,585.0122076287518,-187500.02235174447,-187500.02235174447,-187500.02235174447,-187500.02235174447,-187500.02235174447,1730245792.0480044,1730245791.8270986,5000
-1.855194789790486,-187500.02235174447,559.3971084829699,-187500.02235174447,-187500.02235174447,-187500.02235174447,-187500.02235174447,-187500.02235174447,1730245792.051992,1730245791.8270986,5000
-2.168119212164785,-187500.02235174447,540.331070462593,-187500.02235174447,-187500.02235174447,-187500.02235174447,-187500.02235174447,-187500.02235174447,1730245792.054898,1730245791.8270986,5000
19.02133453146631,-187500.02235174447,567.6449021869781,-187500.02235174447,-187500.02235174447,-187500.02235174447,-187500.02235174447,-187500.02235174447,1730245792.060047,1730245791.8270986,5000
13.433398417639545,-187500.02235174447,580.9888936267964,-187500.02235174447,-187500.02235174447,-187500.02235174447,-187500.02235174447,-187500.02235174447,1730245792.064014,1730245791.8270986,5000
-5.744398325013915,-187500.02235174447,553.295082246671,-187500.02235174447,-187500.02235174447,-187500.02235174447,-187500.02235174447,-187500.02235174447,1730245792.067952,1730245791.8270986,5000
-47.363346500795664,-187500.02235174447,525.2212912108054,-187500.02235174447,-187500.02235174447,-187500.02235174447,-187500.02235174447,-187500.02235174447,1730245792.0719793,1730245791.8270986,5000
-12.24875596150827,-187500.02235174447,556.0666985591291,-187500.02235174447,-187500.02235174447,-187500.02235174447,-187500.02235174447,-187500.02235174447,1730245792.0759358,1730245791.8270986,5000
10.997058272011074,-187500.02235174447,585.5039460067685,-187500.02235174447,-187500.02235174447,-187500.02235174447,-187500.02235174447,-187500.02235174447,1730245792.0799234,1730245791.8270986,5000
1.363456411773731,-187500.02235174447,560.2688265167268,-187500.02235174447,-187500.02235174447,-187500.02235174447,-187500.02235174447,-187500.02235174447,1730245792.082932,1730245791.8270986,5000
-21.39061944372886,-187500.02235174447,529.490474401769,-187500.02235174447,-187500.02235174447,-187500.02235174447,-187500.02235174447,-187500.02235174447,1730245792.087016,1730245791.8270986,5000
-19.915404309678596,-187500.02235174447,547.908311832942,-187500.02235174447,-187500.02235174447,-187500.02235174447,-187500.02235174447,-187500.02235174447,1730245792.0919335,1730245791.8270986,5000
-16.003849029999856,-187500.02235174447,576.6303034580116,-187500.02235174447,-187500.02235174447,-187500.02235174447,-187500.02235174447,-187500.02235174447,1730245792.095932,1730245791.8270986,5000
-23.84931133381264,-187500.02235174447,559.7547363942548,-187500.02235174447,-187500.02235174447,-187500.02235174447,-187500.02235174447,-187500.02235174447,1730245792.100042,1730245791.8270986,5000
-38.57911092985999,-187500.02235174447,521.5109016312244,-187500.02235174447,-187500.02235174447,-187500.02235174447,-187500.02235174447,-187500.02235174447,1730245792.1039772,1730245791.8270986,5000
-17.50141590850543,-187500.02235174447,530.5410063911685,-187500.02235174447,-187500.02235174447,-187500.02235174447,-187500.02235174447,-187500.02235174447,1730245792.1079812,1730245791.8270986,5000
0.0,-187500.02235174447,559.4194602274251,-187500.02235174447,-187500.02235174447,-187500.02235174447,-187500.02235174447,-187500.02235174447,1730245792.111124,1730245791.8270986,5000
-9.834767560335107,-187500.02235174447,553.6303584135006,-187500.02235174447,-187500.02235174447,-187500.02235174447,-187500.02235174447,-187500.02235174447,1730245792.1151044,1730245791.8270986,5000
-12.002886772499892,-187500.02235174447,523.5002068877467,-187500.02235174447,-187500.02235174447,-187500.02235174447,-187500.02235174447,-187500.02235174447,1730245792.1201258,1730245791.8270986,5000
11.175872227653532,-187500.02235174447,520.1250934749953,-187500.02235174447,-187500.02235174447,-187500.02235174447,-187500.02235174447,-187500.02235174447,1730245792.124176,1730245791.8270986,5000
20.071866520865743,-187500.02235174447,558.1007073045621,-187500.02235174447,-187500.02235174447,-187500.02235174447,-187500.02235174447,-187500.02235174447,1730245792.128167,1730245791.8270986,5000
5.722046580558608,-187500.02235174447,566.4379079863916,-187500.02235174447,-187500.02235174447,-187500.02235174447,-187500.02235174447,-187500.02235174447,1730245792.132202,1730245791.8270986,5000
-12.427569917150729,-187500.02235174447,530.138674990973,-187500.02235174447,-187500.02235174447,-187500.02235174447,-187500.02235174447,-187500.02235174447,1730245792.1362493,1730245791.8270986,5000
26.352706712807027,-187500.02235174447,519.588651608068,-187500.02235174447,-187500.02235174447,-187500.02235174447,-187500.02235174447,-187500.02235174447,1730245792.1392643,1730245791.8270986,5000
11.578203627849058,-187500.02235174447,548.48945718878,-187500.02235174447,-187500.02235174447,-187500.02235174447,-187500.02235174447,-187500.02235174447,1730245792.1432235,1730245791.8270986,5000
0.3799796557402201,-187500.02235174447,568.7624894097435,-187500.02235174447,-187500.02235174447,-187500.02235174447,-187500.02235174447,-187500.02235174447,1730245792.148174,1730245791.8270986,5000
-22.70937236659197,-187500.02235174447,527.2105964673277,-187500.02235174447,-187500.02235174447,-187500.02235174447,-187500.02235174447,-187500.02235174447,1730245792.1522305,1730245791.8270986,5000
-14.886261807234504,-187500.02235174447,519.2086719523278,-187500.02235174447,-187500.02235174447,-187500.02235174447,-187500.02235174447,-187500.02235174447,1730245792.1561933,1730245791.8270986,5000
6.4373024031284345,-187500.02235174447,550.8363903565872,-187500.02235174447,-187500.02235174447,-187500.02235174447,-187500.02235174447,-187500.02235174447,1730245792.1593883,1730245791.8270986,5000
14.215709473575291,-187500.02235174447,570.327111521615,-187500.02235174447,-187500.02235174447,-187500.02235174447,-187500.02235174447,-187500.02235174447,1730245792.163026,1730245791.8270986,5000
-0.6705523336592119,-187500.02235174447,534.7207826043109,-187500.02235174447,-187500.02235174447,-187500.02235174447,-187500.02235174447,-187500.02235174447,1730245792.1671827,1730245791.8270986,5000
-1.162290711675967,-187500.02235174447,508.6810003138781,-187500.02235174447,-187500.02235174447,-187500.02235174447,-187500.02235174447,-187500.02235174447,1730245792.1710696,1730245791.8270986,5000
13.768674584469151,-187500.02235174447,536.7547913497438,-187500.02235174447,-187500.02235174447,-187500.02235174447,-187500.02235174447,-187500.02235174447,1730245792.176254,1730245791.8270986,5000
24.3634014562847,-187500.02235174447,557.0725270596179,-187500.02235174447,-187500.02235174447,-187500.02235174447,-187500.02235174447,-187500.02235174447,1730245792.180035,1730245791.8270986,5000
12.315811194874192,-187500.02235174447,538.0735442726069,-187500.02235174447,-187500.02235174447,-187500.02235174447,-187500.02235174447,-187500.02235174447,1730245792.1842847,1730245791.8270986,5000
2.883375034734611,-187500.02235174447,505.7752735346882,-187500.02235174447,-187500.02235174447,-187500.02235174447,-187500.02235174447,-187500.02235174447,1730245792.1880908,1730245791.8270986,5000
34.421686461172875,-187500.02235174447,516.8393870400652,-187500.02235174447,-187500.02235174447,-187500.02235174447,-187500.02235174447,-187500.02235174447,1730245792.1922858,1730245791.8270986,5000
43.16121854319794,-187500.02235174447,552.4010124684587,-187500.02235174447,-187500.02235174447,-187500.02235174447,-187500.02235174447,-187500.02235174447,1730245792.1960893,1730245791.8270986,5000
2.9951337570111463,-187500.02235174447,552.3563089795481,-187500.02235174447,-187500.02235174447,-187500.02235174447,-187500.02235174447,-187500.02235174447,1730245792.19925,1730245791.8270986,5000
2.5704506123603124,-187500.02235174447,521.6003086090457,-187500.02235174447,-187500.02235174447,-187500.02235174447,-187500.02235174447,-187500.02235174447,1730245792.2032237,1730245791.8270986,5000
27.69381138012545,-187500.02235174447,530.943337791364,-187500.02235174447,-187500.02235174447,-187500.02235174447,-187500.02235174447,-187500.02235174447,1730245792.208192,1730245791.8270986,5000
33.63937540523713,-187500.02235174447,570.5953324550787,-187500.02235174447,-187500.02235174447,-187500.02235174447,-187500.02235174447,-187500.02235174447,1730245792.212149,1730245791.8270986,5000
18.70841010909201,-187500.02235174447,569.9024283769642,-187500.02235174447,-187500.02235174447,-187500.02235174447,-187500.02235174447,-187500.02235174447,1730245792.2151556,1730245791.8270986,5000
10.214747216075327,-187500.02235174447,536.7100878608331,-187500.02235174447,-187500.02235174447,-187500.02235174447,-187500.02235174447,-187500.02235174447,1730245792.2191317,1730245791.8270986,5000
21.2118054880864,-187500.02235174447,530.8539308135428,-187500.02235174447,-187500.02235174447,-187500.02235174447,-187500.02235174447,-187500.02235174447,1730245792.2231965,1730245791.8270986,5000
65.17768683167539,-187500.02235174447,567.5778469536123,-187500.02235174447,-187500.02235174447,-187500.02235174447,-187500.02235174447,-187500.02235174447,1730245792.227208,1730245791.8270986,5000
40.5237126974717,-187500.02235174447,566.7061289198552,-187500.02235174447,-187500.02235174447,-187500.02235174447,-187500.02235174447,-187500.02235174447,1730245792.2313335,1730245791.8270986,5000
-6.861985547779268,-187500.02235174447,531.0550965136405,-187500.02235174447,-187500.02235174447,-187500.02235174447,-187500.02235174447,-187500.02235174447,1730245792.2363515,1730245791.8270986,5000
18.79781708691324,-187500.02235174447,529.5351778906796,-187500.02235174447,-187500.02235174447,-187500.02235174447,-187500.02235174447,-187500.02235174447,1730245792.2403648,1730245791.8270986,5000
46.692794167136455,-187500.02235174447,554.5020764472577,-187500.02235174447,-187500.02235174447,-187500.02235174447,-187500.02235174447,-187500.02235174447,1730245792.2433765,1730245791.8270986,5000
69.71509095610273,-187500.02235174447,567.9131231204418,-187500.02235174447,-187500.02235174447,-187500.02235174447,-187500.02235174447,-187500.02235174447,1730245792.2473104,1730245791.8270986,5000
20.407142687695348,-187500.02235174447,550.3893554674811,-187500.02235174447,-187500.02235174447,-187500.02235174447,-187500.02235174447,-187500.02235174447,1730245792.2513845,1730245791.8270986,5000
11.935831539133972,-187500.02235174447,528.9763842792969,-187500.02235174447,-187500.02235174447,-187500.02235174447,-187500.02235174447,-187500.02235174447,1730245792.2552068,1730245791.8270986,5000
29.750171870013705,-187500.02235174447,550.2775967452046,-187500.02235174447,-187500.02235174447,-187500.02235174447,-187500.02235174447,-187500.02235174447,1730245792.2593384,1730245791.8270986,5000
31.29244223742989,-187500.02235174447,572.3164167781373,-187500.02235174447,-187500.02235174447,-187500.02235174447,-187500.02235174447,-187500.02235174447,1730245792.2644749,1730245791.8270986,5000
15.400351929706568,-187500.02235174447,547.2601112437382,-187500.02235174447,-187500.02235174447,-187500.02235174447,-187500.02235174447,-187500.02235174447,1730245792.2683864,1730245791.8270986,5000
18.529596153449557,-187500.02235174447,517.040552740163,-187500.02235174447,-187500.02235174447,-187500.02235174447,-187500.02235174447,-187500.02235174447,1730245792.271236,1730245791.8270986,5000
44.0105848324996,-187500.02235174447,539.7722768512102,-187500.02235174447,-187500.02235174447,-187500.02235174447,-187500.02235174447,-187500.02235174447,1730245792.275267,1730245791.8270986,5000
55.23116054906375,-187500.02235174447,578.8654779035423,-187500.02235174447,-187500.02235174447,-187500.02235174447,-187500.02235174447,-187500.02235174447,1730245792.2792594,1730245791.8270986,5000
31.560663170893573,-187500.02235174447,559.8217916276207,-187500.02235174447,-187500.02235174447,-187500.02235174447,-187500.02235174447,-187500.02235174447,1730245792.283456,1730245791.8270986,5000
-2.168119212164785,-187500.02235174447,528.7528668347438,-187500.02235174447,-187500.02235174447,-187500.02235174447,-187500.02235174447,-187500.02235174447,1730245792.287335,1730245791.8270986,5000
36.72391614006951,-187500.02235174447,546.0531170431516,-187500.02235174447,-187500.02235174447,-187500.02235174447,-187500.02235174447,-187500.02235174447,1730245792.2924385,1730245791.8270986,5000
49.91144536870067,-187500.02235174447,571.5788092111122,-187500.02235174447,-187500.02235174447,-187500.02235174447,-187500.02235174447,-187500.02235174447,1730245792.2954416,1730245791.8270986,5000
-1.162290711675967,-187500.02235174447,554.5914834250789,-187500.02235174447,-187500.02235174447,-187500.02235174447,-187500.02235174447,-187500.02235174447,1730245792.2982905,1730245791.8270986,5000
6.794930314413347,-187500.02235174447,538.3417652060706,-187500.02235174447,-187500.02235174447,-187500.02235174447,-187500.02235174447,-187500.02235174447,1730245792.3033104,1730245791.8270986,5000
33.5499684274159,-187500.02235174447,544.0414600421739,-187500.02235174447,-187500.02235174447,-187500.02235174447,-187500.02235174447,-187500.02235174447,1730245792.3073373,1730245791.8270986,5000
40.65782316420355,-187500.02235174447,566.8402393865871,-187500.02235174447,-187500.02235174447,-187500.02235174447,-187500.02235174447,-187500.02235174447,1730245792.3114643,1730245791.8270986,5000
22.619965388770748,-187500.02235174447,561.0511375726626,-187500.02235174447,-187500.02235174447,-187500.02235174447,-187500.02235174447,-187500.02235174447,1730245792.3154564,1730245791.8270986,5000
3.6656860906703583,-187500.02235174447,522.0249917536964,-187500.02235174447,-187500.02235174447,-187500.02235174447,-187500.02235174447,-187500.02235174447,1730245792.3212705,1730245791.8270986,5000
15.400351929706568,-187500.02235174447,517.1523114624395,-187500.02235174447,-187500.02235174447,-187500.02235174447,-187500.02235174447,-187500.02235174447,1730245792.324416,1730245791.8270986,5000
32.633546904748314,-187500.02235174447,547.3048147326488,-187500.02235174447,-187500.02235174447,-187500.02235174447,-187500.02235174447,-187500.02235174447,1730245792.32846,1730245791.8270986,5000
29.794875358924315,-187500.02235174447,557.6983759043666,-187500.02235174447,-187500.02235174447,-187500.02235174447,-187500.02235174447,-187500.02235174447,1730245792.3314571,1730245791.8270986,5000
19.9377560541339,-187500.02235174447,522.4943783872579,-187500.02235174447,-187500.02235174447,-187500.02235174447,-187500.02235174447,-187500.02235174447,1730245792.335436,1730245791.8270986,5000
9.790064071424494,-187500.02235174447,515.1630062059172,-187500.02235174447,-187500.02235174447,-187500.02235174447,-187500.02235174447,-187500.02235174447,1730245792.3395045,1730245791.8270986,5000
20.92123281016741,-187500.02235174447,561.4534689728581,-187500.02235174447,-187500.02235174447,-187500.02235174447,-187500.02235174447,-187500.02235174447,1730245792.3455071,1730245791.8270986,5000
14.975668785055731,-187500.02235174447,577.5690767251346,-187500.02235174447,-187500.02235174447,-187500.02235174447,-187500.02235174447,-187500.02235174447,1730245792.3484333,1730245791.8270986,5000
-6.839633803323961,-187500.02235174447,543.7061838753443,-187500.02235174447,-187500.02235174447,-187500.02235174447,-187500.02235174447,-187500.02235174447,1730245792.3517456,1730245791.8270986,5000
9.29832569340774,-187500.02235174447,525.8918435444646,-187500.02235174447,-187500.02235174447,-187500.02235174447,-187500.02235174447,-187500.02235174447,1730245792.355369,1730245791.8270986,5000
34.287575994441035,-187500.02235174447,549.651747900456,-187500.02235174447,-187500.02235174447,-187500.02235174447,-187500.02235174447,-187500.02235174447,1730245792.3595328,1730245791.8270986,5000
32.61119516029301,-187500.02235174447,574.6633499459446,-187500.02235174447,-187500.02235174447,-187500.02235174447,-187500.02235174447,-187500.02235174447,1730245792.3633716,1730245791.8270986,5000
9.231270460041817,-187500.02235174447,553.4291927134029,-187500.02235174447,-187500.02235174447,-187500.02235174447,-187500.02235174447,-187500.02235174447,1730245792.367556,1730245791.8270986,5000
18.12726475325403,-187500.02235174447,523.813131310121,-187500.02235174447,-187500.02235174447,-187500.02235174447,-187500.02235174447,-187500.02235174447,1730245792.371389,1730245791.8270986,5000
41.082506308854384,-187500.02235174447,551.6410531569783,-187500.02235174447,-187500.02235174447,-187500.02235174447,-187500.02235174447,-187500.02235174447,1730245792.3755927,1730245791.8270986,5000
53.57713145937103,-187500.02235174447,584.9898558842964,-187500.02235174447,-187500.02235174447,-187500.02235174447,-187500.02235174447,-187500.02235174447,1730245792.3795185,1730245791.8270986,5000
13.880433306745688,-187500.02235174447,561.4534689728581,-187500.02235174447,-187500.02235174447,-187500.02235174447,-187500.02235174447,-187500.02235174447,1730245792.3826897,1730245791.8270986,5000
-19.60247988730429,-187500.02235174447,526.7412098337662,-187500.02235174447,-187500.02235174447,-187500.02235174447,-187500.02235174447,-187500.02235174447,1730245792.387498,1730245791.8270986,5000
29.571357914371244,-187500.02235174447,536.5759773941013,-187500.02235174447,-187500.02235174447,-187500.02235174447,-187500.02235174447,-187500.02235174447,1730245792.3916433,1730245791.8270986,5000
13.679267606647922,-187500.02235174447,563.5545329516569,-187500.02235174447,-187500.02235174447,-187500.02235174447,-187500.02235174447,-187500.02235174447,1730245792.3965852,1730245791.8270986,5000
-7.398427414706638,-187500.02235174447,555.8655328590313,-187500.02235174447,-187500.02235174447,-187500.02235174447,-187500.02235174447,-187500.02235174447,1730245792.4006748,1730245791.8270986,5000
-5.833805302835144,-187500.02235174447,530.2727854577048,-187500.02235174447,-187500.02235174447,-187500.02235174447,-187500.02235174447,-187500.02235174447,1730245792.4036446,1730245791.8270986,5000
2.9727820125558395,-187500.02235174447,541.3368989630817,-187500.02235174447,-187500.02235174447,-187500.02235174447,-187500.02235174447,-187500.02235174447,1730245792.406666,1730245791.8270986,5000
23.06700027787689,-187500.02235174447,571.2658847887379,-187500.02235174447,-187500.02235174447,-187500.02235174447,-187500.02235174447,-187500.02235174447,1730245792.410733,1730245791.8270986,5000
12.718142595069718,-187500.02235174447,567.2425707867826,-187500.02235174447,-187500.02235174447,-187500.02235174447,-187500.02235174447,-187500.02235174447,1730245792.4147017,1730245791.8270986,5000
4.090369235321193,-187500.02235174447,527.8587970565316,-187500.02235174447,-187500.02235174447,-187500.02235174447,-187500.02235174447,-187500.02235174447,1730245792.4197693,1730245791.8270986,5000
5.722046580558608,-187500.02235174447,517.1970149513501,-187500.02235174447,-187500.02235174447,-187500.02235174447,-187500.02235174447,-187500.02235174447,1730245792.4237857,1730245791.8270986,5000
11.42174141666191,-187500.02235174447,555.7761258812101,-187500.02235174447,-187500.02235174447,-187500.02235174447,-187500.02235174447,-187500.02235174447,1730245792.427652,1730245791.8270986,5000
9.030104759944054,-187500.02235174447,566.9519981088637,-187500.02235174447,-187500.02235174447,-187500.02235174447,-187500.02235174447,-187500.02235174447,1730245792.4304843,1730245791.8270986,5000
-4.671514591159176,-187500.02235174447,533.8714163150092,-187500.02235174447,-187500.02235174447,-187500.02235174447,-187500.02235174447,-187500.02235174447,1730245792.434692,1730245791.8270986,5000
2.212822701075399,-187500.02235174447,513.4419218828585,-187500.02235174447,-187500.02235174447,-187500.02235174447,-187500.02235174447,-187500.02235174447,1730245792.4385169,1730245791.8270986,5000
21.45767467709478,-187500.02235174447,536.0842390160846,-187500.02235174447,-187500.02235174447,-187500.02235174447,-187500.02235174447,-187500.02235174447,1730245792.4427023,1730245791.8270986,5000
28.76669511398019,-187500.02235174447,548.9588438223415,-187500.02235174447,-187500.02235174447,-187500.02235174447,-187500.02235174447,-187500.02235174447,1730245792.4475276,1730245791.8270986,5000
3.933907024134043,-187500.02235174447,516.5264626176909,-187500.02235174447,-187500.02235174447,-187500.02235174447,-187500.02235174447,-187500.02235174447,1730245792.451635,1730245791.8270986,5000
16.74145659702499,-187500.02235174447,507.362247391015,-187500.02235174447,-187500.02235174447,-187500.02235174447,-187500.02235174447,-187500.02235174447,1730245792.4555774,1730245791.8270986,5000
31.203035259608654,-187500.02235174447,532.0609250141293,-187500.02235174447,-187500.02235174447,-187500.02235174447,-187500.02235174447,-187500.02235174447,1730245792.4585404,1730245791.8270986,5000
10.95235478310046,-187500.02235174447,551.7975153681655,-187500.02235174447,-187500.02235174447,-187500.02235174447,-187500.02235174447,-187500.02235174447,1730245792.4624698,1730245791.8270986,5000
7.979572770544621,-187500.02235174447,525.9141952889199,-187500.02235174447,-187500.02235174447,-187500.02235174447,-187500.02235174447,-187500.02235174447,1730245792.466606,1730245791.8270986,5000
10.058285004888178,-187500.02235174447,500.9472967323419,-187500.02235174447,-187500.02235174447,-187500.02235174447,-187500.02235174447,-187500.02235174447,1730245792.4705017,1730245791.8270986,5000
15.579165885349022,-187500.02235174447,518.5604713631238,-187500.02235174447,-187500.02235174447,-187500.02235174447,-187500.02235174447,-187500.02235174447,1730245792.4758751,1730245791.8270986,5000
39.13790454124267,-187500.02235174447,543.102686775051,-187500.02235174447,-187500.02235174447,-187500.02235174447,-187500.02235174447,-187500.02235174447,1730245792.4795177,1730245791.8270986,5000
3.933907024134043,-187500.02235174447,529.6692883574115,-187500.02235174447,-187500.02235174447,-187500.02235174447,-187500.02235174447,-187500.02235174447,1730245792.4836335,1730245791.8270986,5000
-27.69381138012545,-187500.02235174447,497.169851919395,-187500.02235174447,-187500.02235174447,-187500.02235174447,-187500.02235174447,-187500.02235174447,1730245792.4867122,1730245791.8270986,5000
25.61509914578189,-187500.02235174447,506.1105497015178,-187500.02235174447,-187500.02235174447,-187500.02235174447,-187500.02235174447,-187500.02235174447,1730245792.4907053,1730245791.8270986,5000
57.35457627231792,-187500.02235174447,539.682869873389,-187500.02235174447,-187500.02235174447,-187500.02235174447,-187500.02235174447,-187500.02235174447,1730245792.4947317,1730245791.8270986,5000
18.283726964441176,-187500.02235174447,535.5477971491572,-187500.02235174447,-187500.02235174447,-187500.02235174447,-187500.02235174447,-187500.02235174447,1730245792.4986887,1730245791.8270986,5000
26.24094799053049,-187500.02235174447,495.4040641074257,-187500.02235174447,-187500.02235174447,-187500.02235174447,-187500.02235174447,-187500.02235174447,1730245792.5037534,1730245791.8270986,5000
57.30987278340731,-187500.02235174447,498.1980321643391,-187500.02235174447,-187500.02235174447,-187500.02235174447,-187500.02235174447,-187500.02235174447,1730245792.5076003,1730245791.8270986,5000
30.53248292594945,-187500.02235174447,539.0346692841852,-187500.02235174447,-187500.02235174447,-187500.02235174447,-187500.02235174447,-187500.02235174447,1730245792.5117717,1730245791.8270986,5000
16.249718219008233,-187500.02235174447,538.9899657952745,-187500.02235174447,-187500.02235174447,-187500.02235174447,-187500.02235174447,-187500.02235174447,1730245792.5147512,1730245791.8270986,5000
-7.241965203519488,-187500.02235174447,503.5400990891575,-187500.02235174447,-187500.02235174447,-187500.02235174447,-187500.02235174447,-187500.02235174447,1730245792.5187576,1730245791.8270986,5000
-9.43243616013958,-187500.02235174447,490.7772530051772,-187500.02235174447,-187500.02235174447,-187500.02235174447,-187500.02235174447,-187500.02235174447,1730245792.5227578,1730245791.8270986,5000
13.500453651005468,-187500.02235174447,531.3233174471042,-187500.02235174447,-187500.02235174447,-187500.02235174447,-187500.02235174447,-187500.02235174447,1730245792.5267563,1730245791.8270986,5000
29.30313698090756,-187500.02235174447,544.6226053980118,-187500.02235174447,-187500.02235174447,-187500.02235174447,-187500.02235174447,-187500.02235174447,1730245792.5307765,1730245791.8270986,5000
42.37890748726219,-187500.02235174447,509.0609799696184,-187500.02235174447,-187500.02235174447,-187500.02235174447,-187500.02235174447,-187500.02235174447,1730245792.5357437,1730245791.8270986,5000
31.51595968198296,-187500.02235174447,479.4896220552471,-187500.02235174447,-187500.02235174447,-187500.02235174447,-187500.02235174447,-187500.02235174447,1730245792.5397882,1730245791.8270986,5000
59.63445420675925,-187500.02235174447,513.0172387382077,-187500.02235174447,-187500.02235174447,-187500.02235174447,-187500.02235174447,-187500.02235174447,1730245792.5427809,1730245791.8270986,5000
29.07961953635449,-187500.02235174447,555.5079049477464,-187500.02235174447,-187500.02235174447,-187500.02235174447,-187500.02235174447,-187500.02235174447,1730245792.5466297,1730245791.8270986,5000
5.565584369371458,-187500.02235174447,516.6829248288781,-187500.02235174447,-187500.02235174447,-187500.02235174447,-187500.02235174447,-187500.02235174447,1730245792.5507915,1730245791.8270986,5000
11.42174141666191,-187500.02235174447,492.1854129058616,-187500.02235174447,-187500.02235174447,-187500.02235174447,-187500.02235174447,-187500.02235174447,1730245792.5546312,1730245791.8270986,5000
44.21175053259737,-187500.02235174447,522.8743580429981,-187500.02235174447,-187500.02235174447,-187500.02235174447,-187500.02235174447,-187500.02235174447,1730245792.5588236,1730245791.8270986,5000
55.96876811608888,-187500.02235174447,560.9170271059307,-187500.02235174447,-187500.02235174447,-187500.02235174447,-187500.02235174447,-187500.02235174447,1730245792.56384,1730245791.8270986,5000
92.20094587814164,-187500.02235174447,520.4380178973696,-187500.02235174447,-187500.02235174447,-187500.02235174447,-187500.02235174447,-187500.02235174447,1730245792.5668144,1730245791.8270986,5000
68.0834136108653,-187500.02235174447,465.2739125816718,-187500.02235174447,-187500.02235174447,-187500.02235174447,-187500.02235174447,-187500.02235174447,1730245792.570684,1730245791.8270986,5000
72.39730029073958,-187500.02235174447,481.1660028893952,-187500.02235174447,-187500.02235174447,-187500.02235174447,-187500.02235174447,-187500.02235174447,1730245792.574926,1730245791.8270986,5000
48.05625057891019,-187500.02235174447,541.6051198965455,-187500.02235174447,-187500.02235174447,-187500.02235174447,-187500.02235174447,-187500.02235174447,1730245792.5790205,1730245791.8270986,5000
-15.06507576287696,-187500.02235174447,550.3670037230258,-187500.02235174447,-187500.02235174447,-187500.02235174447,-187500.02235174447,-187500.02235174447,1730245792.5827916,1730245791.8270986,5000
-1.5869738563268014,-187500.02235174447,497.750997275233,-187500.02235174447,-187500.02235174447,-187500.02235174447,-187500.02235174447,-187500.02235174447,1730245792.5869377,1730245791.8270986,5000
36.29923299541867,-187500.02235174447,499.8520612540319,-187500.02235174447,-187500.02235174447,-187500.02235174447,-187500.02235174447,-187500.02235174447,1730245792.593041,1730245791.8270986,5000
45.01641333298842,-187500.02235174447,516.4147038954144,-187500.02235174447,-187500.02235174447,-187500.02235174447,-187500.02235174447,-187500.02235174447,1730245792.5957513,1730245791.8270986,5000
16.540290896927225,-187500.02235174447,439.0553163355966,-187500.02235174447,-187500.02235174447,-187500.02235174447,-187500.02235174447,-187500.02235174447,1730245792.5999396,1730245791.8270986,5000
31.784180615446644,-187500.02235174447,469.2748748391718,-187500.02235174447,-187500.02235174447,-187500.02235174447,-187500.02235174447,-187500.02235174447,1730245792.6028926,1730245791.8270986,5000
57.64514895023692,-187500.02235174447,497.9298112308754,-187500.02235174447,-187500.02235174447,-187500.02235174447,-187500.02235174447,-187500.02235174447,1730245792.6070302,1730245791.8270986,5000
50.403183746717424,-187500.02235174447,585.325132051126,-187500.02235174447,-187500.02235174447,-187500.02235174447,-187500.02235174447,-187500.02235174447,1730245792.610952,1730245791.8270986,5000
50.269073279985584,-187500.02235174447,584.1851930839053,-187500.02235174447,-187500.02235174447,-187500.02235174447,-187500.02235174447,-187500.02235174447,1730245792.6149433,1730245791.8270986,5000
0.2235174445530706,-187500.02235174447,560.2464747722715,-187500.02235174447,-187500.02235174447,-187500.02235174447,-187500.02235174447,-187500.02235174447,1730245792.6199565,1730245791.8270986,5000
36.187474273142136,-187500.02235174447,545.2484542427604,-187500.02235174447,-187500.02235174447,-187500.02235174447,-187500.02235174447,-187500.02235174447,1730245792.622903,1730245791.8270986,5000
69.0221868779882,-187500.02235174447,540.7557536072437,-187500.02235174447,-187500.02235174447,-187500.02235174447,-187500.02235174447,-187500.02235174447,1730245792.6259427,1730245791.8270986,5000
52.973634359077735,-187500.02235174447,424.3255167395493,-187500.02235174447,-187500.02235174447,-187500.02235174447,-187500.02235174447,-187500.02235174447,1730245792.630994,1730245791.8270986,5000
70.78797468995747,-187500.02235174447,484.0940814130404,-187500.02235174447,-187500.02235174447,-187500.02235174447,-187500.02235174447,-187500.02235174447,1730245792.6349845,1730245791.8270986,5000
61.48964899654973,-187500.02235174447,549.58469266709,-187500.02235174447,-187500.02235174447,-187500.02235174447,-187500.02235174447,-187500.02235174447,1730245792.6388533,1730245791.8270986,5000
53.57713145937103,-187500.02235174447,522.2708609427049,-187500.02235174447,-187500.02235174447,-187500.02235174447,-187500.02235174447,-187500.02235174447,1730245792.6429644,1730245791.8270986,5000
22.865834577779125,-187500.02235174447,577.4126145139473,-187500.02235174447,-187500.02235174447,-187500.02235174447,-187500.02235174447,-187500.02235174447,1730245792.6467712,1730245791.8270986,5000
57.84631465033468,-187500.02235174447,498.3768461199816,-187500.02235174447,-187500.02235174447,-187500.02235174447,-187500.02235174447,-187500.02235174447,1730245792.649961,1730245791.8270986,5000
182.14436556629727,-187500.02235174447,483.8258604795767,-187500.02235174447,-187500.02235174447,-187500.02235174447,-187500.02235174447,-187500.02235174447,1730245792.6559718,1730245791.8270986,5000
118.64305956876989,-187500.02235174447,550.0317275561962,-187500.02235174447,-187500.02235174447,-187500.02235174447,-187500.02235174447,-187500.02235174447,1730245792.6588576,1730245791.8270986,5000
-40.92604409766723,-187500.02235174447,580.3406930375926,-187500.02235174447,-187500.02235174447,-187500.02235174447,-187500.02235174447,-187500.02235174447,1730245792.6628993,1730245791.8270986,5000
-8.046628003910543,-187500.02235174447,555.5079049477464,-187500.02235174447,-187500.02235174447,-187500.02235174447,-187500.02235174447,-187500.02235174447,1730245792.666992,1730245791.8270986,5000
-29.481950936550017,-187500.02235174447,546.2542827432493,-187500.02235174447,-187500.02235174447,-187500.02235174447,-187500.02235174447,-187500.02235174447,1730245792.670818,1730245791.8270986,5000
-4.33623842432957,-187500.02235174447,570.6400359439893,-187500.02235174447,-187500.02235174447,-187500.02235174447,-187500.02235174447,-187500.02235174447,1730245792.6740131,1730245791.8270986,5000
74.78893694745743,-187500.02235174447,564.7391754077883,-187500.02235174447,-187500.02235174447,-187500.02235174447,-187500.02235174447,-187500.02235174447,1730245792.6779966,1730245791.8270986,5000
51.02903259146603,-187500.02235174447,511.9220032598977,-187500.02235174447,-187500.02235174447,-187500.02235174447,-187500.02235174447,-187500.02235174447,1730245792.6822236,1730245791.8270986,5000
-12.606383872793185,-187500.02235174447,467.1291073714623,-187500.02235174447,-187500.02235174447,-187500.02235174447,-187500.02235174447,-187500.02235174447,1730245792.6870584,1730245791.8270986,5000
20.98828804353333,-187500.02235174447,451.6617002083898,-187500.02235174447,-187500.02235174447,-187500.02235174447,-187500.02235174447,-187500.02235174447,1730245792.691088,1730245791.8270986,5000
72.73257645756918,-187500.02235174447,528.909329045931,-187500.02235174447,-187500.02235174447,-187500.02235174447,-187500.02235174447,-187500.02235174447,1730245792.6949403,1730245791.8270986,5000
96.98421919157734,-187500.02235174447,527.6129278675232,-187500.02235174447,-187500.02235174447,-187500.02235174447,-187500.02235174447,-187500.02235174447,1730245792.699058,1730245791.8270986,5000
90.21164062161932,-187500.02235174447,484.1164331574957,-187500.02235174447,-187500.02235174447,-187500.02235174447,-187500.02235174447,-187500.02235174447,1730245792.7021663,1730245791.8270986,5000
86.25538185302996,-187500.02235174447,503.85302351153183,-187500.02235174447,-187500.02235174447,-187500.02235174447,-187500.02235174447,-187500.02235174447,1730245792.7060878,1730245791.8270986,5000
43.22827377656386,-187500.02235174447,563.3533672515592,-187500.02235174447,-187500.02235174447,-187500.02235174447,-187500.02235174447,-187500.02235174447,1730245792.710102,1730245791.8270986,5000
-26.33035496835172,-187500.02235174447,558.2124660268386,-187500.02235174447,-187500.02235174447,-187500.02235174447,-187500.02235174447,-187500.02235174447,1730245792.7140567,1730245791.8270986,5000
14.886261807234504,-187500.02235174447,511.2738026706937,-187500.02235174447,-187500.02235174447,-187500.02235174447,-187500.02235174447,-187500.02235174447,1730245792.719102,1730245791.8270986,5000
-22.93288981114505,-187500.02235174447,473.3205405855824,-187500.02235174447,-187500.02235174447,-187500.02235174447,-187500.02235174447,-187500.02235174447,1730245792.723012,1730245791.8270986,5000
-1.4975668785055731,-187500.02235174447,506.4011223794368,-187500.02235174447,-187500.02235174447,-187500.02235174447,-187500.02235174447,-187500.02235174447,1730245792.7271285,1730245791.8270986,5000
-18.59665138681548,-187500.02235174447,538.587634395079,-187500.02235174447,-187500.02235174447,-187500.02235174447,-187500.02235174447,-187500.02235174447,1730245792.7310755,1730245791.8270986,5000
-48.59269244583756,-187500.02235174447,482.3729970899817,-187500.02235174447,-187500.02235174447,-187500.02235174447,-187500.02235174447,-187500.02235174447,1730245792.734084,1730245791.8270986,5000
-63.3001402974296,-187500.02235174447,487.0668634255962,-187500.02235174447,-187500.02235174447,-187500.02235174447,-187500.02235174447,-187500.02235174447,1730245792.7379344,1730245791.8270986,5000
51.43136399166155,-187500.02235174447,524.5507388771462,-187500.02235174447,-187500.02235174447,-187500.02235174447,-187500.02235174447,-187500.02235174447,1730245792.7431023,1730245791.8270986,5000
62.942512386144685,-187500.02235174447,537.4700471723137,-187500.02235174447,-187500.02235174447,-187500.02235174447,-187500.02235174447,-187500.02235174447,1730245792.747158,1730245791.8270986,5000
-21.368267699273552,-187500.02235174447,528.6411081124674,-187500.02235174447,-187500.02235174447,-187500.02235174447,-187500.02235174447,-187500.02235174447,1730245792.7511735,1730245791.8270986,5000
97.25244012504103,-187500.02235174447,524.5060353882355,-187500.02235174447,-187500.02235174447,-187500.02235174447,-187500.02235174447,-187500.02235174447,1730245792.7539363,1730245791.8270986,5000
172.93544685071075,-187500.02235174447,507.25048866873846,-187500.02235174447,-187500.02235174447,-187500.02235174447,-187500.02235174447,-187500.02235174447,1730245792.7581332,1730245791.8270986,5000
-84.53429752997131,-187500.02235174447,515.3865236504703,-187500.02235174447,-187500.02235174447,-187500.02235174447,-187500.02235174447,-187500.02235174447,1730245792.7622154,1730245791.8270986,5000
-111.89283274326716,-187500.02235174447,544.6896606313778,-187500.02235174447,-187500.02235174447,-187500.02235174447,-187500.02235174447,-187500.02235174447,1730245792.766152,1730245791.8270986,5000
-48.346823256829175,-187500.02235174447,516.1911864508613,-187500.02235174447,-187500.02235174447,-187500.02235174447,-187500.02235174447,-187500.02235174447,1730245792.7700596,1730245791.8270986,5000
29.616061403281854,-187500.02235174447,509.08333171407367,-187500.02235174447,-187500.02235174447,-187500.02235174447,-187500.02235174447,-187500.02235174447,1730245792.7751536,1730245791.8270986,5000
103.66739078371415,-187500.02235174447,547.8189048551208,-187500.02235174447,-187500.02235174447,-187500.02235174447,-187500.02235174447,-187500.02235174447,1730245792.7790923,1730245791.8270986,5000
60.66263445170337,-187500.02235174447,517.3087736736267,-187500.02235174447,-187500.02235174447,-187500.02235174447,-187500.02235174447,-187500.02235174447,1730245792.7832053,1730245791.8270986,5000
-15.959145541089242,-187500.02235174447,516.3700004065038,-187500.02235174447,-187500.02235174447,-187500.02235174447,-187500.02235174447,-187500.02235174447,1730245792.78725,1730245791.8270986,5000
-2.7492645680027685,-187500.02235174447,516.6158695955121,-187500.02235174447,-187500.02235174447,-187500.02235174447,-187500.02235174447,-187500.02235174447,1730245792.7913218,1730245791.8270986,5000
-45.642262177737024,-187500.02235174447,545.6284338985007,-187500.02235174447,-187500.02235174447,-187500.02235174447,-187500.02235174447,-187500.02235174447,1730245792.7942853,1730245791.8270986,5000
-82.38853006226184,-187500.02235174447,568.6954341763776,-187500.02235174447,-187500.02235174447,-187500.02235174447,-187500.02235174447,-187500.02235174447,1730245792.7983408,1730245791.8270986,5000
-79.90748642772274,-187500.02235174447,507.6304683244787,-187500.02235174447,-187500.02235174447,-187500.02235174447,-187500.02235174447,-187500.02235174447,1730245792.8031983,1730245791.8270986,5000
-52.39248900323975,-187500.02235174447,513.1960526938501,-187500.02235174447,-187500.02235174447,-187500.02235174447,-187500.02235174447,-187500.02235174447,1730245792.8073325,1730245791.8270986,5000
7.733703581536243,-187500.02235174447,557.877189860009,-187500.02235174447,-187500.02235174447,-187500.02235174447,-187500.02235174447,-187500.02235174447,1730245792.810525,1730245791.8270986,5000
39.00379407451082,-187500.02235174447,536.3524599495482,-187500.02235174447,-187500.02235174447,-187500.02235174447,-187500.02235174447,-187500.02235174447,1730245792.8140967,1730245791.8270986,5000
-18.529596153449557,-187500.02235174447,507.0940264575513,-187500.02235174447,-187500.02235174447,-187500.02235174447,-187500.02235174447,-187500.02235174447,1730245792.8181653,1730245791.8270986,5000
-52.57130295888221,-187500.02235174447,519.4992446302467,-187500.02235174447,-187500.02235174447,-187500.02235174447,-187500.02235174447,-187500.02235174447,1730245792.8222334,1730245791.8270986,5000
-28.118494524776285,-187500.02235174447,543.683832130889,-187500.02235174447,-187500.02235174447,-187500.02235174447,-187500.02235174447,-187500.02235174447,1730245792.8265977,1730245791.8270986,5000
1.877546534245793,-187500.02235174447,570.0141870992408,-187500.02235174447,-187500.02235174447,-187500.02235174447,-187500.02235174447,-187500.02235174447,1730245792.8314023,1730245791.8270986,5000
-56.37109951628441,-187500.02235174447,519.6780585858892,-187500.02235174447,-187500.02235174447,-187500.02235174447,-187500.02235174447,-187500.02235174447,1730245792.8354523,1730245791.8270986,5000
-42.51301795399403,-187500.02235174447,472.2476568517277,-187500.02235174447,-187500.02235174447,-187500.02235174447,-187500.02235174447,-187500.02235174447,1730245792.8381329,1730245791.8270986,5000
30.152503270209227,-187500.02235174447,533.6478988704562,-187500.02235174447,-187500.02235174447,-187500.02235174447,-187500.02235174447,-187500.02235174447,1730245792.8423731,1730245791.8270986,5000
41.61894817578175,-187500.02235174447,549.0482508001627,-187500.02235174447,-187500.02235174447,-187500.02235174447,-187500.02235174447,-187500.02235174447,1730245792.8462043,1730245791.8270986,5000
-36.45569520660582,-187500.02235174447,516.5041108732356,-187500.02235174447,-187500.02235174447,-187500.02235174447,-187500.02235174447,-187500.02235174447,1730245792.8501568,1730245791.8270986,5000
-94.05614066793213,-187500.02235174447,482.0153691786968,-187500.02235174447,-187500.02235174447,-187500.02235174447,-187500.02235174447,-187500.02235174447,1730245792.8541632,1730245791.8270986,5000
-42.02127957597728,-187500.02235174447,494.59940130703467,-187500.02235174447,-187500.02235174447,-187500.02235174447,-187500.02235174447,-187500.02235174447,1730245792.8583815,1730245791.8270986,5000
-22.50820666649421,-187500.02235174447,566.6837771754,-187500.02235174447,-187500.02235174447,-187500.02235174447,-187500.02235174447,-187500.02235174447,1730245792.863175,1730245791.8270986,5000
3.3304099238407523,-187500.02235174447,549.428230455903,-187500.02235174447,-187500.02235174447,-187500.02235174447,-187500.02235174447,-187500.02235174447,1730245792.8662915,1730245791.8270986,5000
11.466444905572525,-187500.02235174447,492.654799539423,-187500.02235174447,-187500.02235174447,-187500.02235174447,-187500.02235174447,-187500.02235174447,1730245792.8704867,1730245791.8270986,5000
37.6626894071924,-187500.02235174447,506.57993633507925,-187500.02235174447,-187500.02235174447,-187500.02235174447,-187500.02235174447,-187500.02235174447,1730245792.874685,1730245791.8270986,5000
45.35168949981803,-187500.02235174447,529.9375092908751,-187500.02235174447,-187500.02235174447,-187500.02235174447,-187500.02235174447,-187500.02235174447,1730245792.8786025,1730245791.8270986,5000
10.818244316368618,-187500.02235174447,535.0113552822298,-187500.02235174447,-187500.02235174447,-187500.02235174447,-187500.02235174447,-187500.02235174447,1730245792.8822904,1730245791.8270986,5000
-9.410084415684274,-187500.02235174447,520.6615353419227,-187500.02235174447,-187500.02235174447,-187500.02235174447,-187500.02235174447,-187500.02235174447,1730245792.8872592,1730245791.8270986,5000
-18.59665138681548,-187500.02235174447,516.4370556398696,-187500.02235174447,-187500.02235174447,-187500.02235174447,-187500.02235174447,-187500.02235174447,1730245792.8905797,1730245791.8270986,5000
-51.65488143621462,-187500.02235174447,553.2056752688497,-187500.02235174447,-187500.02235174447,-187500.02235174447,-187500.02235174447,-187500.02235174447,1730245792.8933132,1730245791.8270986,5000
-14.148654240209371,-187500.02235174447,552.3339572350928,-187500.02235174447,-187500.02235174447,-187500.02235174447,-187500.02235174447,-187500.02235174447,1730245792.8983283,1730245791.8270986,5000
-80.91331492821156,-187500.02235174447,512.6819625713781,-187500.02235174447,-187500.02235174447,-187500.02235174447,-187500.02235174447,-187500.02235174447,1730245792.90276,1730245791.8270986,5000
-63.21073331960837,-187500.02235174447,509.7985875366435,-187500.02235174447,-187500.02235174447,-187500.02235174447,-187500.02235174447,-187500.02235174447,1730245792.9064832,1730245791.8270986,5000
-19.28955546493,-187500.02235174447,567.7119574203441,-187500.02235174447,-187500.02235174447,-187500.02235174447,-187500.02235174447,-187500.02235174447,1730245792.9108388,1730245791.8270986,5000
11.533500138938445,-187500.02235174447,563.4204224849251,-187500.02235174447,-187500.02235174447,-187500.02235174447,-187500.02235174447,-187500.02235174447,1730245792.914369,1730245791.8270986,5000
43.27297726547447,-187500.02235174447,519.4321893968809,-187500.02235174447,-187500.02235174447,-187500.02235174447,-187500.02235174447,-187500.02235174447,1730245792.9184768,1730245791.8270986,5000
-26.46446543508356,-187500.02235174447,524.8636632995205,-187500.02235174447,-187500.02235174447,-187500.02235174447,-187500.02235174447,-187500.02235174447,1730245792.9212832,1730245791.8270986,5000
-58.315701283896125,-187500.02235174447,554.7032421473554,-187500.02235174447,-187500.02235174447,-187500.02235174447,-187500.02235174447,-187500.02235174447,1730245792.9265769,1730245791.8270986,5000
-9.767712326969187,-187500.02235174447,558.7265561493107,-187500.02235174447,-187500.02235174447,-187500.02235174447,-187500.02235174447,-187500.02235174447,1730245792.9302723,1730245791.8270986,5000
-18.64135487572609,-187500.02235174447,545.360212965037,-187500.02235174447,-187500.02235174447,-187500.02235174447,-187500.02235174447,-187500.02235174447,1730245792.934441,1730245791.8270986,5000
58.96390187310004,-187500.02235174447,503.65185781143407,-187500.02235174447,-187500.02235174447,-187500.02235174447,-187500.02235174447,-187500.02235174447,1730245792.9383743,1730245791.8270986,5000
53.375965759273264,-187500.02235174447,497.9298112308754,-187500.02235174447,-187500.02235174447,-187500.02235174447,-187500.02235174447,-187500.02235174447,1730245792.9427717,1730245791.8270986,5000
-69.42451827818374,-187500.02235174447,519.3204306746043,-187500.02235174447,-187500.02235174447,-187500.02235174447,-187500.02235174447,-187500.02235174447,1730245792.946328,1730245791.8270986,5000
-15.333296696340645,-187500.02235174447,474.5051830417136,-187500.02235174447,-187500.02235174447,-187500.02235174447,-187500.02235174447,-187500.02235174447,1730245792.94969,1730245791.8270986,5000
-7.823110559357472,-187500.02235174447,566.7284806643106,-187500.02235174447,-187500.02235174447,-187500.02235174447,-187500.02235174447,-187500.02235174447,1730245792.9543571,1730245791.8270986,5000
-24.676325878659,-187500.02235174447,569.9694836103301,-187500.02235174447,-187500.02235174447,-187500.02235174447,-187500.02235174447,-187500.02235174447,1730245792.9585595,1730245791.8270986,5000
-0.6034971002932907,-187500.02235174447,607.5427660397013,-187500.02235174447,-187500.02235174447,-187500.02235174447,-187500.02235174447,-187500.02235174447,1730245792.9623077,1730245791.8270986,5000
9.141863482220588,-187500.02235174447,571.3999952554698,-187500.02235174447,-187500.02235174447,-187500.02235174447,-187500.02235174447,-187500.02235174447,1730245792.9665432,1730245791.8270986,5000
-33.237044005041604,-187500.02235174447,551.1940182678721,-187500.02235174447,-187500.02235174447,-187500.02235174447,-187500.02235174447,-187500.02235174447,1730245792.9706044,1730245791.8270986,5000
-25.212767745586365,-187500.02235174447,560.2241230278162,-187500.02235174447,-187500.02235174447,-187500.02235174447,-187500.02235174447,-187500.02235174447,1730245792.974607,1730245791.8270986,5000
-4.269183190963649,-187500.02235174447,590.0860536201064,-187500.02235174447,-187500.02235174447,-187500.02235174447,-187500.02235174447,-187500.02235174447,1730245792.977574,1730245791.8270986,5000
-47.542160456438125,-187500.02235174447,592.8576699325645,-187500.02235174447,-187500.02235174447,-187500.02235174447,-187500.02235174447,-187500.02235174447,1730245792.9818048,1730245791.8270986,5000
-58.91919838418941,-187500.02235174447,557.58661718209,-187500.02235174447,-187500.02235174447,-187500.02235174447,-187500.02235174447,-187500.02235174447,1730245792.986622,1730245791.8270986,5000
-38.57911092985999,-187500.02235174447,578.261980803249,-187500.02235174447,-187500.02235174447,-187500.02235174447,-187500.02235174447,-187500.02235174447,1730245792.9905436,1730245791.8270986,5000
19.04368627592162,-187500.02235174447,583.134661094506,-187500.02235174447,-187500.02235174447,-187500.02235174447,-187500.02235174447,-187500.02235174447,1730245792.9949038,1730245791.8270986,5000
1.6540290896927226,-187500.02235174447,587.0462163741847,-187500.02235174447,-187500.02235174447,-187500.02235174447,-187500.02235174447,-187500.02235174447,1730245792.9975245,1730245791.8270986,5000
-10.304154193896556,-187500.02235174447,549.651747900456,-187500.02235174447,-187500.02235174447,-187500.02235174447,-187500.02235174447,-187500.02235174447,1730245793.0015075,1730245791.8270986,5000
1.452863389594959,-187500.02235174447,547.7742013662101,-187500.02235174447,-187500.02235174447,-187500.02235174447,-187500.02235174447,-187500.02235174447,1730245793.0054605,1730245791.8270986,5000
12.695790850614411,-187500.02235174447,566.393204497481,-187500.02235174447,-187500.02235174447,-187500.02235174447,-187500.02235174447,-187500.02235174447,1730245793.0096316,1730245791.8270986,5000
-16.048552518910473,-187500.02235174447,557.810134626643,-187500.02235174447,-187500.02235174447,-187500.02235174447,-187500.02235174447,-187500.02235174447,1730245793.0134172,1730245791.8270986,5000
-21.54708165491601,-187500.02235174447,537.7606198502326,-187500.02235174447,-187500.02235174447,-187500.02235174447,-187500.02235174447,-187500.02235174447,1730245793.018577,1730245791.8270986,5000
32.052401548910325,-187500.02235174447,526.8082650671322,-187500.02235174447,-187500.02235174447,-187500.02235174447,-187500.02235174447,-187500.02235174447,1730245793.0225213,1730245791.8270986,5000
79.61691374980376,-187500.02235174447,570.908256877453,-187500.02235174447,-187500.02235174447,-187500.02235174447,-187500.02235174447,-187500.02235174447,1730245793.0255823,1730245791.8270986,5000
8.761883826480368,-187500.02235174447,576.6750069469222,-187500.02235174447,-187500.02235174447,-187500.02235174447,-187500.02235174447,-187500.02235174447,1730245793.0294683,1730245791.8270986,5000
-2.838671545823997,-187500.02235174447,497.72864553077767,-187500.02235174447,-187500.02235174447,-187500.02235174447,-187500.02235174447,-187500.02235174447,1730245793.0337305,1730245791.8270986,5000
-35.56162542839353,-187500.02235174447,575.5797714686122,-187500.02235174447,-187500.02235174447,-187500.02235174447,-187500.02235174447,-187500.02235174447,1730245793.0374362,1730245791.8270986,5000
43.585901687848775,-187500.02235174447,596.970390912341,-187500.02235174447,-187500.02235174447,-187500.02235174447,-187500.02235174447,-187500.02235174447,1730245793.0426447,1730245791.8270986,5000
-28.90080558071203,-187500.02235174447,589.4155012864472,-187500.02235174447,-187500.02235174447,-187500.02235174447,-187500.02235174447,-187500.02235174447,1730245793.0474594,1730245791.8270986,5000
-6.593764614315584,-187500.02235174447,551.9316258348973,-187500.02235174447,-187500.02235174447,-187500.02235174447,-187500.02235174447,-187500.02235174447,1730245793.0515215,1730245791.8270986,5000
-32.20886376009748,-187500.02235174447,510.2903259146602,-187500.02235174447,-187500.02235174447,-187500.02235174447,-187500.02235174447,-187500.02235174447,1730245793.054521,1730245791.8270986,5000
31.22538700406397,-187500.02235174447,569.9471318658748,-187500.02235174447,-187500.02235174447,-187500.02235174447,-187500.02235174447,-187500.02235174447,1730245793.0578983,1730245791.8270986,5000
73.4254805356837,-187500.02235174447,597.4621292903578,-187500.02235174447,-187500.02235174447,-187500.02235174447,-187500.02235174447,-187500.02235174447,1730245793.061669,1730245791.8270986,5000
-52.54895121442691,-187500.02235174447,557.9218933489196,-187500.02235174447,-187500.02235174447,-187500.02235174447,-187500.02235174447,-187500.02235174447,1730245793.0656247,1730245791.8270986,5000
-73.33607355786248,-187500.02235174447,494.26412514020507,-187500.02235174447,-187500.02235174447,-187500.02235174447,-187500.02235174447,-187500.02235174447,1730245793.069685,1730245791.8270986,5000
30.66659339268129,-187500.02235174447,556.0666985591291,-187500.02235174447,-187500.02235174447,-187500.02235174447,-187500.02235174447,-187500.02235174447,1730245793.0750248,1730245791.8270986,5000
28.811398602890804,-187500.02235174447,551.9316258348973,-187500.02235174447,-187500.02235174447,-187500.02235174447,-187500.02235174447,-187500.02235174447,1730245793.0786572,1730245791.8270986,5000
-70.81032643441277,-187500.02235174447,466.7938312046327,-187500.02235174447,-187500.02235174447,-187500.02235174447,-187500.02235174447,-187500.02235174447,1730245793.0818715,1730245791.8270986,5000
-38.31088999639631,-187500.02235174447,527.232948211783,-187500.02235174447,-187500.02235174447,-187500.02235174447,-187500.02235174447,-187500.02235174447,1730245793.085916,1730245791.8270986,5000
19.17779674265346,-187500.02235174447,610.4931963078018,-187500.02235174447,-187500.02235174447,-187500.02235174447,-187500.02235174447,-187500.02235174447,1730245793.0898185,1730245791.8270986,5000
27.179721257653387,-187500.02235174447,587.6720652189333,-187500.02235174447,-187500.02235174447,-187500.02235174447,-187500.02235174447,-187500.02235174447,1730245793.0937347,1730245791.8270986,5000
-4.872680291256939,-187500.02235174447,444.10681058249605,-187500.02235174447,-187500.02235174447,-187500.02235174447,-187500.02235174447,-187500.02235174447,1730245793.0975957,1730245791.8270986,5000
-14.394523429217749,-187500.02235174447,473.365244074493,-187500.02235174447,-187500.02235174447,-187500.02235174447,-187500.02235174447,-187500.02235174447,1730245793.1027544,1730245791.8270986,5000
-9.58889837132673,-187500.02235174447,597.8868124350087,-187500.02235174447,-187500.02235174447,-187500.02235174447,-187500.02235174447,-187500.02235174447,1730245793.1055863,1730245791.8270986,5000
43.67530866567,-187500.02235174447,645.4736763803573,-187500.02235174447,-187500.02235174447,-187500.02235174447,-187500.02235174447,-187500.02235174447,1730245793.1097584,1730245791.8270986,5000
4.000962257499964,-187500.02235174447,656.3142724411813,-187500.02235174447,-187500.02235174447,-187500.02235174447,-187500.02235174447,-187500.02235174447,1730245793.11354,1730245791.8270986,5000
-21.14475025472048,-187500.02235174447,589.5049082642685,-187500.02235174447,-187500.02235174447,-187500.02235174447,-187500.02235174447,-187500.02235174447,1730245793.117746,1730245791.8270986,5000
39.83080861935719,-187500.02235174447,540.554587907146,-187500.02235174447,-187500.02235174447,-187500.02235174447,-187500.02235174447,-187500.02235174447,1730245793.1216192,1730245791.8270986,5000
8.717180337569754,-187500.02235174447,577.9490563808747,-187500.02235174447,-187500.02235174447,-187500.02235174447,-187500.02235174447,-187500.02235174447,1730245793.1256373,1730245791.8270986,5000
-46.49162846703869,-187500.02235174447,581.5029837492685,-187500.02235174447,-187500.02235174447,-187500.02235174447,-187500.02235174447,-187500.02235174447,1730245793.1306124,1730245791.8270986,5000
4.380941913240184,-187500.02235174447,570.8188498996318,-187500.02235174447,-187500.02235174447,-187500.02235174447,-187500.02235174447,-187500.02235174447,1730245793.1337595,1730245791.8270986,5000
5.118549480265317,-187500.02235174447,511.5420236041575,-187500.02235174447,-187500.02235174447,-187500.02235174447,-187500.02235174447,-187500.02235174447,1730245793.1367688,1730245791.8270986,5000
-38.48970395203876,-187500.02235174447,531.2562622137383,-187500.02235174447,-187500.02235174447,-187500.02235174447,-187500.02235174447,-187500.02235174447,1730245793.1416812,1730245791.8270986,5000
15.109779251787574,-187500.02235174447,554.7255938918107,-187500.02235174447,-187500.02235174447,-187500.02235174447,-187500.02235174447,-187500.02235174447,1730245793.1455832,1730245791.8270986,5000
32.588843415837694,-187500.02235174447,553.5633031801348,-187500.02235174447,-187500.02235174447,-187500.02235174447,-187500.02235174447,-187500.02235174447,1730245793.1517131,1730245791.8270986,5000
-11.04176176092169,-187500.02235174447,507.9880962357636,-187500.02235174447,-187500.02235174447,-187500.02235174447,-187500.02235174447,-187500.02235174447,1730245793.1546593,1730245791.8270986,5000
31.627718404259493,-187500.02235174447,535.2348727267829,-187500.02235174447,-187500.02235174447,-187500.02235174447,-187500.02235174447,-187500.02235174447,1730245793.158772,1730245791.8270986,5000
73.82781193587923,-187500.02235174447,588.3202658081372,-187500.02235174447,-187500.02235174447,-187500.02235174447,-187500.02235174447,-187500.02235174447,1730245793.161811,1730245791.8270986,5000
-3.73274132403628,-187500.02235174447,581.2124110713496,-187500.02235174447,-187500.02235174447,-187500.02235174447,-187500.02235174447,-187500.02235174447,1730245793.16578,1730245791.8270986,5000
-8.001924514999928,-187500.02235174447,528.1940732233612,-187500.02235174447,-187500.02235174447,-187500.02235174447,-187500.02235174447,-187500.02235174447,1730245793.1698413,1730245791.8270986,5000
40.14373304173149,-187500.02235174447,511.5867270930681,-187500.02235174447,-187500.02235174447,-187500.02235174447,-187500.02235174447,-187500.02235174447,1730245793.1738153,1730245791.8270986,5000
51.83369539185708,-187500.02235174447,569.6118556990452,-187500.02235174447,-187500.02235174447,-187500.02235174447,-187500.02235174447,-187500.02235174447,1730245793.177778,1730245791.8270986,5000
26.06213403488804,-187500.02235174447,589.5272600087238,-187500.02235174447,-187500.02235174447,-187500.02235174447,-187500.02235174447,-187500.02235174447,1730245793.1818607,1730245791.8270986,5000
11.242927461019452,-187500.02235174447,541.8733408300092,-187500.02235174447,-187500.02235174447,-187500.02235174447,-187500.02235174447,-187500.02235174447,1730245793.186872,1730245791.8270986,5000
28.096142780320974,-187500.02235174447,518.0910847295625,-187500.02235174447,-187500.02235174447,-187500.02235174447,-187500.02235174447,-187500.02235174447,1730245793.189813,1730245791.8270986,5000
-10.840596060823923,-187500.02235174447,545.0025850537521,-187500.02235174447,-187500.02235174447,-187500.02235174447,-187500.02235174447,-187500.02235174447,1730245793.1928036,1730245791.8270986,5000
-6.99609601451111,-187500.02235174447,551.8869223459867,-187500.02235174447,-187500.02235174447,-187500.02235174447,-187500.02235174447,-187500.02235174447,1730245793.197852,1730245791.8270986,5000
6.660819847681505,-187500.02235174447,518.426360896392,-187500.02235174447,-187500.02235174447,-187500.02235174447,-187500.02235174447,-187500.02235174447,1730245793.2017496,1730245791.8270986,5000
44.81524763289066,-187500.02235174447,476.11450864249576,-187500.02235174447,-187500.02235174447,-187500.02235174447,-187500.02235174447,-187500.02235174447,1730245793.205846,1730245791.8270986,5000
31.694773637625413,-187500.02235174447,513.2407561827607,-187500.02235174447,-187500.02235174447,-187500.02235174447,-187500.02235174447,-187500.02235174447,1730245793.2099247,1730245791.8270986,5000
-24.87749157875676,-187500.02235174447,565.9685213528302,-187500.02235174447,-187500.02235174447,-187500.02235174447,-187500.02235174447,-187500.02235174447,1730245793.2149425,1730245791.8270986,5000
-36.63450916224828,-187500.02235174447,527.6799831008891,-187500.02235174447,-187500.02235174447,-187500.02235174447,-187500.02235174447,-187500.02235174447,1730245793.2179425,1730245791.8270986,5000
11.131168738742916,-187500.02235174447,509.2397939252608,-187500.02235174447,-187500.02235174447,-187500.02235174447,-187500.02235174447,-187500.02235174447,1730245793.22282,1730245791.8270986,5000
0.9834767560335108,-187500.02235174447,537.1794744943946,-187500.02235174447,-187500.02235174447,-187500.02235174447,-187500.02235174447,-187500.02235174447,1730245793.2259505,1730245791.8270986,5000
61.15437282972013,-187500.02235174447,559.9559020943525,-187500.02235174447,-187500.02235174447,-187500.02235174447,-187500.02235174447,-187500.02235174447,1730245793.2298036,1730245791.8270986,5000
55.78995416044643,-187500.02235174447,517.3758289069925,-187500.02235174447,-187500.02235174447,-187500.02235174447,-187500.02235174447,-187500.02235174447,1730245793.233969,1730245791.8270986,5000
-63.6130647198039,-187500.02235174447,431.9921650877196,-187500.02235174447,-187500.02235174447,-187500.02235174447,-187500.02235174447,-187500.02235174447,1730245793.237801,1730245791.8270986,5000
-44.72584065506943,-187500.02235174447,473.4546510523142,-187500.02235174447,-187500.02235174447,-187500.02235174447,-187500.02235174447,-187500.02235174447,1730245793.2408752,1730245791.8270986,5000
-5.85615704729045,-187500.02235174447,622.3619726135698,-187500.02235174447,-187500.02235174447,-187500.02235174447,-187500.02235174447,-187500.02235174447,1730245793.2451744,1730245791.8270986,5000
-3.3527616682960595,-187500.02235174447,568.7401376652882,-187500.02235174447,-187500.02235174447,-187500.02235174447,-187500.02235174447,-187500.02235174447,1730245793.2490492,1730245791.8270986,5000
-22.50820666649421,-187500.02235174447,523.0531719986406,-187500.02235174447,-187500.02235174447,-187500.02235174447,-187500.02235174447,-187500.02235174447,1730245793.2538617,1730245791.8270986,5000
31.94064282663379,-187500.02235174447,533.0444017701628,-187500.02235174447,-187500.02235174447,-187500.02235174447,-187500.02235174447,-187500.02235174447,1730245793.25809,1730245791.8270986,5000
41.97657608706666,-187500.02235174447,580.0948238485842,-187500.02235174447,-187500.02235174447,-187500.02235174447,-187500.02235174447,-187500.02235174447,1730245793.26204,1730245791.8270986,5000
-10.438264660628398,-187500.02235174447,584.8557454175645,-187500.02235174447,-187500.02235174447,-187500.02235174447,-187500.02235174447,-187500.02235174447,1730245793.266196,1730245791.8270986,5000
18.551947897904864,-187500.02235174447,534.1843407373835,-187500.02235174447,-187500.02235174447,-187500.02235174447,-187500.02235174447,-187500.02235174447,1730245793.269349,1730245791.8270986,5000
70.16212584520888,-187500.02235174447,527.7246865897997,-187500.02235174447,-187500.02235174447,-187500.02235174447,-187500.02235174447,-187500.02235174447,1730245793.2729132,1730245791.8270986,5000
49.59852094632637,-187500.02235174447,557.4301549709029,-187500.02235174447,-187500.02235174447,-187500.02235174447,-187500.02235174447,-187500.02235174447,1730245793.277377,1730245791.8270986,5000
23.044648533421583,-187500.02235174447,558.9053701049531,-187500.02235174447,-187500.02235174447,-187500.02235174447,-187500.02235174447,-187500.02235174447,1730245793.281082,1730245791.8270986,5000
-1.9893052565223288,-187500.02235174447,524.617794110512,-187500.02235174447,-187500.02235174447,-187500.02235174447,-187500.02235174447,-187500.02235174447,1730245793.2863188,1730245791.8270986,5000
-7.241965203519488,-187500.02235174447,511.9890584932636,-187500.02235174447,-187500.02235174447,-187500.02235174447,-187500.02235174447,-187500.02235174447,1730245793.290464,1730245791.8270986,5000
-3.620982601759744,-187500.02235174447,541.9180443189198,-187500.02235174447,-187500.02235174447,-187500.02235174447,-187500.02235174447,-187500.02235174447,1730245793.2945678,1730245791.8270986,5000
23.7375526115361,-187500.02235174447,567.1308120645061,-187500.02235174447,-187500.02235174447,-187500.02235174447,-187500.02235174447,-187500.02235174447,1730245793.2968855,1730245791.8270986,5000
-2.928078523645225,-187500.02235174447,532.1503319919506,-187500.02235174447,-187500.02235174447,-187500.02235174447,-187500.02235174447,-187500.02235174447,1730245793.302112,1730245791.8270986,5000
-6.526709380949662,-187500.02235174447,493.9959042067414,-187500.02235174447,-187500.02235174447,-187500.02235174447,-187500.02235174447,-187500.02235174447,1730245793.3060057,1730245791.8270986,5000
15.8250350743574,-187500.02235174447,543.5050181752465,-187500.02235174447,-187500.02235174447,-187500.02235174447,-187500.02235174447,-187500.02235174447,1730245793.3091629,1730245791.8270986,5000
-15.199186229608802,-187500.02235174447,562.1463730509727,-187500.02235174447,-187500.02235174447,-187500.02235174447,-187500.02235174447,-187500.02235174447,1730245793.31399,1730245791.8270986,5000
-28.1631980136869,-187500.02235174447,526.4282854113919,-187500.02235174447,-187500.02235174447,-187500.02235174447,-187500.02235174447,-187500.02235174447,1730245793.318458,1730245791.8270986,5000
7.353723925796023,-187500.02235174447,498.5333083311687,-187500.02235174447,-187500.02235174447,-187500.02235174447,-187500.02235174447,-187500.02235174447,1730245793.3221078,1730245791.8270986,5000
4.984439013533475,-187500.02235174447,531.8821110584869,-187500.02235174447,-187500.02235174447,-187500.02235174447,-187500.02235174447,-187500.02235174447,1730245793.3252318,1730245791.8270986,5000
7.331372181340717,-187500.02235174447,558.8159631271319,-187500.02235174447,-187500.02235174447,-187500.02235174447,-187500.02235174447,-187500.02235174447,1730245793.3289907,1730245791.8270986,5000
3.799796557402201,-187500.02235174447,521.4885498867691,-187500.02235174447,-187500.02235174447,-187500.02235174447,-187500.02235174447,-187500.02235174447,1730245793.3330112,1730245791.8270986,5000
12.271107705963578,-187500.02235174447,493.9735524622861,-187500.02235174447,-187500.02235174447,-187500.02235174447,-187500.02235174447,-187500.02235174447,1730245793.3371284,1730245791.8270986,5000
8.024276259455236,-187500.02235174447,504.881203756476,-187500.02235174447,-187500.02235174447,-187500.02235174447,-187500.02235174447,-187500.02235174447,1730245793.342358,1730245791.8270986,5000
64.79770717593517,-187500.02235174447,552.4680677018247,-187500.02235174447,-187500.02235174447,-187500.02235174447,-187500.02235174447,-187500.02235174447,1730245793.3460083,1730245791.8270986,5000
-1.3187529228631167,-187500.02235174447,554.6138351695341,-187500.02235174447,-187500.02235174447,-187500.02235174447,-187500.02235174447,-187500.02235174447,1730245793.3492625,1730245791.8270986,5000
-34.98048007255555,-187500.02235174447,517.9793260072859,-187500.02235174447,-187500.02235174447,-187500.02235174447,-187500.02235174447,-187500.02235174447,1730245793.3529394,1730245791.8270986,5000
32.834712604846075,-187500.02235174447,487.1115669145068,-187500.02235174447,-187500.02235174447,-187500.02235174447,-187500.02235174447,-187500.02235174447,1730245793.3572938,1730245791.8270986,5000
26.12918926825396,-187500.02235174447,528.9763842792969,-187500.02235174447,-187500.02235174447,-187500.02235174447,-187500.02235174447,-187500.02235174447,1730245793.3614829,1730245791.8270986,5000
-35.31575623938516,-187500.02235174447,549.9199688339197,-187500.02235174447,-187500.02235174447,-187500.02235174447,-187500.02235174447,-187500.02235174447,1730245793.3651795,1730245791.8270986,5000
-43.63060517675939,-187500.02235174447,513.1066457160289,-187500.02235174447,-187500.02235174447,-187500.02235174447,-187500.02235174447,-187500.02235174447,1730245793.3689868,1730245791.8270986,5000
18.619003131270784,-187500.02235174447,498.846232753543,-187500.02235174447,-187500.02235174447,-187500.02235174447,-187500.02235174447,-187500.02235174447,1730245793.3744757,1730245791.8270986,5000
26.75503811300256,-187500.02235174447,554.2785590027046,-187500.02235174447,-187500.02235174447,-187500.02235174447,-187500.02235174447,-187500.02235174447,1730245793.3774073,1730245791.8270986,5000
-51.49841922502748,-187500.02235174447,545.7178408763219,-187500.02235174447,-187500.02235174447,-187500.02235174447,-187500.02235174447,-187500.02235174447,1730245793.3827007,1730245791.8270986,5000
-15.132130996242882,-187500.02235174447,498.1309769309732,-187500.02235174447,-187500.02235174447,-187500.02235174447,-187500.02235174447,-187500.02235174447,1730245793.3850183,1730245791.8270986,5000
23.312869466885267,-187500.02235174447,511.2514509262384,-187500.02235174447,-187500.02235174447,-187500.02235174447,-187500.02235174447,-187500.02235174447,1730245793.3890252,1730245791.8270986,5000
-48.97267210157777,-187500.02235174447,555.3961462254699,-187500.02235174447,-187500.02235174447,-187500.02235174447,-187500.02235174447,-187500.02235174447,1730245793.393226,1730245791.8270986,5000
-23.26816597797465,-187500.02235174447,564.8062306411541,-187500.02235174447,-187500.02235174447,-187500.02235174447,-187500.02235174447,-187500.02235174447,1730245793.3971107,1730245791.8270986,5000
-12.695790850614411,-187500.02235174447,540.9569193073415,-187500.02235174447,-187500.02235174447,-187500.02235174447,-187500.02235174447,-187500.02235174447,1730245793.4027357,1730245791.8270986,5000
4.783273313435712,-187500.02235174447,530.8539308135428,-187500.02235174447,-187500.02235174447,-187500.02235174447,-187500.02235174447,-187500.02235174447,1730245793.4050584,1730245791.8270986,5000
30.107799781298613,-187500.02235174447,534.4078581819366,-187500.02235174447,-187500.02235174447,-187500.02235174447,-187500.02235174447,-187500.02235174447,1730245793.4092171,1730245791.8270986,5000
13.813378073379765,-187500.02235174447,565.1862102968944,-187500.02235174447,-187500.02235174447,-187500.02235174447,-187500.02235174447,-187500.02235174447,1730245793.413076,1730245791.8270986,5000
-28.83375034734611,-187500.02235174447,538.2523582282494,-187500.02235174447,-187500.02235174447,-187500.02235174447,-187500.02235174447,-187500.02235174447,1730245793.4171906,1730245791.8270986,5000
17.166139741675824,-187500.02235174447,492.92302047288666,-187500.02235174447,-187500.02235174447,-187500.02235174447,-187500.02235174447,-187500.02235174447,1730245793.4211264,1730245791.8270986,5000
79.52750677198253,-187500.02235174447,545.6731373874113,-187500.02235174447,-187500.02235174447,-187500.02235174447,-187500.02235174447,-187500.02235174447,1730245793.425424,1730245791.8270986,5000
-20.04951477641044,-187500.02235174447,606.2463648612935,-187500.02235174447,-187500.02235174447,-187500.02235174447,-187500.02235174447,-187500.02235174447,1730245793.4301164,1730245791.8270986,5000
-46.759849400502375,-187500.02235174447,556.2678642592268,-187500.02235174447,-187500.02235174447,-187500.02235174447,-187500.02235174447,-187500.02235174447,1730245793.4332724,1730245791.8270986,5000
-57.53339022796038,-187500.02235174447,520.1027417305401,-187500.02235174447,-187500.02235174447,-187500.02235174447,-187500.02235174447,-187500.02235174447,1730245793.437112,1730245791.8270986,5000
-10.326505938351865,-187500.02235174447,529.1775499793947,-187500.02235174447,-187500.02235174447,-187500.02235174447,-187500.02235174447,-187500.02235174447,1730245793.4413557,1730245791.8270986,5000
52.99598610353305,-187500.02235174447,586.4650710183467,-187500.02235174447,-187500.02235174447,-187500.02235174447,-187500.02235174447,-187500.02235174447,1730245793.4452925,1730245791.8270986,5000
17.791988586424424,-187500.02235174447,583.7605099392546,-187500.02235174447,-187500.02235174447,-187500.02235174447,-187500.02235174447,-187500.02235174447,1730245793.4493396,1730245791.8270986,5000
1.5869738563268014,-187500.02235174447,530.7868755801768,-187500.02235174447,-187500.02235174447,-187500.02235174447,-187500.02235174447,-187500.02235174447,1730245793.4533165,1730245791.8270986,5000
-3.4198169016619806,-187500.02235174447,516.1017794730401,-187500.02235174447,-187500.02235174447,-187500.02235174447,-187500.02235174447,-187500.02235174447,1730245793.4584148,1730245791.8270986,5000
12.449921661606034,-187500.02235174447,564.0015678407631,-187500.02235174447,-187500.02235174447,-187500.02235174447,-187500.02235174447,-187500.02235174447,1730245793.461507,1730245791.8270986,5000
-26.17389275716457,-187500.02235174447,573.3893005119921,-187500.02235174447,-187500.02235174447,-187500.02235174447,-187500.02235174447,-187500.02235174447,1730245793.4654276,1730245791.8270986,5000
-48.16800930118672,-187500.02235174447,541.6274716410007,-187500.02235174447,-187500.02235174447,-187500.02235174447,-187500.02235174447,-187500.02235174447,1730245793.4695368,1730245791.8270986,5000
21.97176479956684,-187500.02235174447,556.0666985591291,-187500.02235174447,-187500.02235174447,-187500.02235174447,-187500.02235174447,-187500.02235174447,1730245793.473214,1730245791.8270986,5000
57.06400359439893,-187500.02235174447,593.1705943549389,-187500.02235174447,-187500.02235174447,-187500.02235174447,-187500.02235174447,-187500.02235174447,1730245793.4775093,1730245791.8270986,5000
33.92994808315612,-187500.02235174447,588.2308588303159,-187500.02235174447,-187500.02235174447,-187500.02235174447,-187500.02235174447,-187500.02235174447,1730245793.481316,1730245791.8270986,5000
3.442168646117288,-187500.02235174447,562.1240213065173,-187500.02235174447,-187500.02235174447,-187500.02235174447,-187500.02235174447,-187500.02235174447,1730245793.4853451,1730245791.8270986,5000
-10.035933260432872,-187500.02235174447,558.1901142823833,-187500.02235174447,-187500.02235174447,-187500.02235174447,-187500.02235174447,-187500.02235174447,1730245793.4881716,1730245791.8270986,5000
25.995078801522112,-187500.02235174447,579.2678093037379,-187500.02235174447,-187500.02235174447,-187500.02235174447,-187500.02235174447,-187500.02235174447,1730245793.4924684,1730245791.8270986,5000
45.73166915555825,-187500.02235174447,593.3047048216707,-187500.02235174447,-187500.02235174447,-187500.02235174447,-187500.02235174447,-187500.02235174447,1730245793.497252,1730245791.8270986,5000
54.53825647094924,-187500.02235174447,518.6275265964898,-187500.02235174447,-187500.02235174447,-187500.02235174447,-187500.02235174447,-187500.02235174447,1730245793.501606,1730245791.8270986,5000
4.492700635516719,-187500.02235174447,526.4506371558473,-187500.02235174447,-187500.02235174447,-187500.02235174447,-187500.02235174447,-187500.02235174447,1730245793.5052955,1730245791.8270986,5000
-19.35661069829592,-187500.02235174447,564.2921405186821,-187500.02235174447,-187500.02235174447,-187500.02235174447,-187500.02235174447,-187500.02235174447,1730245793.5095637,1730245791.8270986,5000
-1.363456411773731,-187500.02235174447,572.8975621339753,-187500.02235174447,-187500.02235174447,-187500.02235174447,-187500.02235174447,-187500.02235174447,1730245793.5132432,1730245791.8270986,5000
-18.59665138681548,-187500.02235174447,592.678855976922,-187500.02235174447,-187500.02235174447,-187500.02235174447,-187500.02235174447,-187500.02235174447,1730245793.516626,1730245791.8270986,5000
-1.162290711675967,-187500.02235174447,541.3816024519924,-187500.02235174447,-187500.02235174447,-187500.02235174447,-187500.02235174447,-187500.02235174447,1730245793.5202825,1730245791.8270986,5000
33.28174749395222,-187500.02235174447,527.3894104229702,-187500.02235174447,-187500.02235174447,-187500.02235174447,-187500.02235174447,-187500.02235174447,1730245793.5254548,1730245791.8270986,5000
28.90080558071203,-187500.02235174447,584.7663384397433,-187500.02235174447,-187500.02235174447,-187500.02235174447,-187500.02235174447,-187500.02235174447,1730245793.5292275,1730245791.8270986,5000
-0.7599593114804402,-187500.02235174447,571.9140853779418,-187500.02235174447,-187500.02235174447,-187500.02235174447,-187500.02235174447,-187500.02235174447,1730245793.5334148,1730245791.8270986,5000
4.9397355246228605,-187500.02235174447,533.4467331703584,-187500.02235174447,-187500.02235174447,-187500.02235174447,-187500.02235174447,-187500.02235174447,1730245793.537223,1730245791.8270986,5000
11.153520483198225,-187500.02235174447,551.6634049014336,-187500.02235174447,-187500.02235174447,-187500.02235174447,-187500.02235174447,-187500.02235174447,1730245793.5418031,1730245791.8270986,5000
62.22725656357486,-187500.02235174447,592.7682629547432,-187500.02235174447,-187500.02235174447,-187500.02235174447,-187500.02235174447,-187500.02235174447,1730245793.5445957,1730245791.8270986,5000
-5.051494246899396,-187500.02235174447,592.6118007435562,-187500.02235174447,-187500.02235174447,-187500.02235174447,-187500.02235174447,-187500.02235174447,1730245793.5487466,1730245791.8270986,5000
-26.308003223896414,-187500.02235174447,541.7839338521879,-187500.02235174447,-187500.02235174447,-187500.02235174447,-187500.02235174447,-187500.02235174447,1730245793.5534031,1730245791.8270986,5000
58.8744948952788,-187500.02235174447,528.9763842792969,-187500.02235174447,-187500.02235174447,-187500.02235174447,-187500.02235174447,-187500.02235174447,1730245793.5574496,1730245791.8270986,5000
35.98630857304437,-187500.02235174447,570.5953324550787,-187500.02235174447,-187500.02235174447,-187500.02235174447,-187500.02235174447,-187500.02235174447,1730245793.5617156,1730245791.8270986,5000
-23.15640725569812,-187500.02235174447,573.746928423277,-187500.02235174447,-187500.02235174447,-187500.02235174447,-187500.02235174447,-187500.02235174447,1730245793.565626,1730245791.8270986,5000
29.683116636647775,-187500.02235174447,539.5264076622019,-187500.02235174447,-187500.02235174447,-187500.02235174447,-187500.02235174447,-187500.02235174447,1730245793.5698576,1730245791.8270986,5000
8.381904170740148,-187500.02235174447,579.3348645371037,-187500.02235174447,-187500.02235174447,-187500.02235174447,-187500.02235174447,-187500.02235174447,1730245793.5723355,1730245791.8270986,5000
36.03101206195498,-187500.02235174447,596.2998385786818,-187500.02235174447,-187500.02235174447,-187500.02235174447,-187500.02235174447,-187500.02235174447,1730245793.576656,1730245791.8270986,5000
76.2418003370524,-187500.02235174447,576.0268063577183,-187500.02235174447,-187500.02235174447,-187500.02235174447,-187500.02235174447,-187500.02235174447,1730245793.581522,1730245791.8270986,5000
41.44013422013929,-187500.02235174447,573.3893005119921,-187500.02235174447,-187500.02235174447,-187500.02235174447,-187500.02235174447,-187500.02235174447,1730245793.5862913,1730245791.8270986,5000
69.11159385580943,-187500.02235174447,574.2833702902044,-187500.02235174447,-187500.02235174447,-187500.02235174447,-187500.02235174447,-187500.02235174447,1730245793.5896037,1730245791.8270986,5000
49.39735524622861,-187500.02235174447,579.2007540703719,-187500.02235174447,-187500.02235174447,-187500.02235174447,-187500.02235174447,-187500.02235174447,1730245793.592544,1730245791.8270986,5000
41.7530586425136,-187500.02235174447,624.7983127591983,-187500.02235174447,-187500.02235174447,-187500.02235174447,-187500.02235174447,-187500.02235174447,1730245793.597474,1730245791.8270986,5000
16.182662985642313,-187500.02235174447,587.7167687078439,-187500.02235174447,-187500.02235174447,-187500.02235174447,-187500.02235174447,-187500.02235174447,1730245793.601757,1730245791.8270986,5000
8.225441959552999,-187500.02235174447,553.295082246671,-187500.02235174447,-187500.02235174447,-187500.02235174447,-187500.02235174447,-187500.02235174447,1730245793.6054718,1730245791.8270986,5000
36.32158473987398,-187500.02235174447,547.908311832942,-187500.02235174447,-187500.02235174447,-187500.02235174447,-187500.02235174447,-187500.02235174447,1730245793.6085632,1730245791.8270986,5000
41.01545107548846,-187500.02235174447,601.2172223588494,-187500.02235174447,-187500.02235174447,-187500.02235174447,-187500.02235174447,-187500.02235174447,1730245793.6123216,1730245791.8270986,5000
33.84054110533489,-187500.02235174447,608.6603532624666,-187500.02235174447,-187500.02235174447,-187500.02235174447,-187500.02235174447,-187500.02235174447,1730245793.6166005,1730245791.8270986,5000
39.33907024134043,-187500.02235174447,578.4854982478021,-187500.02235174447,-187500.02235174447,-187500.02235174447,-187500.02235174447,-187500.02235174447,1730245793.6203637,1730245791.8270986,5000
72.88903866875633,-187500.02235174447,590.0189983867406,-187500.02235174447,-187500.02235174447,-187500.02235174447,-187500.02235174447,-187500.02235174447,1730245793.6255317,1730245791.8270986,5000
77.33703581536244,-187500.02235174447,626.6311558045335,-187500.02235174447,-187500.02235174447,-187500.02235174447,-187500.02235174447,-187500.02235174447,1730245793.6293771,1730245791.8270986,5000
73.49253576904962,-187500.02235174447,581.4359285159027,-187500.02235174447,-187500.02235174447,-187500.02235174447,-187500.02235174447,-187500.02235174447,1730245793.6333575,1730245791.8270986,5000
22.93288981114505,-187500.02235174447,558.5477421936682,-187500.02235174447,-187500.02235174447,-187500.02235174447,-187500.02235174447,-187500.02235174447,1730245793.6364825,1730245791.8270986,5000
52.54895121442691,-187500.02235174447,568.7624894097435,-187500.02235174447,-187500.02235174447,-187500.02235174447,-187500.02235174447,-187500.02235174447,1730245793.640474,1730245791.8270986,5000
99.42055933720582,-187500.02235174447,613.1307021535281,-187500.02235174447,-187500.02235174447,-187500.02235174447,-187500.02235174447,-187500.02235174447,1730245793.6447587,1730245791.8270986,5000
63.94834088663351,-187500.02235174447,588.5661349971456,-187500.02235174447,-187500.02235174447,-187500.02235174447,-187500.02235174447,-187500.02235174447,1730245793.6487727,1730245791.8270986,5000
8.806587315390983,-187500.02235174447,570.9306086219083,-187500.02235174447,-187500.02235174447,-187500.02235174447,-187500.02235174447,-187500.02235174447,1730245793.6534688,1730245791.8270986,5000
87.93176268717798,-187500.02235174447,574.0151493567407,-187500.02235174447,-187500.02235174447,-187500.02235174447,-187500.02235174447,-187500.02235174447,1730245793.6576807,1730245791.8270986,5000
52.39248900323975,-187500.02235174447,620.1491499124944,-187500.02235174447,-187500.02235174447,-187500.02235174447,-187500.02235174447,-187500.02235174447,1730245793.6610324,1730245791.8270986,5000
50.3137767688962,-187500.02235174447,605.0840741496175,-187500.02235174447,-187500.02235174447,-187500.02235174447,-187500.02235174447,-187500.02235174447,1730245793.6651523,1730245791.8270986,5000
41.17191328667561,-187500.02235174447,562.4369457288916,-187500.02235174447,-187500.02235174447,-187500.02235174447,-187500.02235174447,-187500.02235174447,1730245793.6686945,1730245791.8270986,5000
21.860006077290308,-187500.02235174447,541.3816024519924,-187500.02235174447,-187500.02235174447,-187500.02235174447,-187500.02235174447,-187500.02235174447,1730245793.6725688,1730245791.8270986,5000
54.04651809293248,-187500.02235174447,591.1142338650506,-187500.02235174447,-187500.02235174447,-187500.02235174447,-187500.02235174447,-187500.02235174447,1730245793.6769335,1730245791.8270986,5000
107.35542861883982,-187500.02235174447,572.9646173673412,-187500.02235174447,-187500.02235174447,-187500.02235174447,-187500.02235174447,-187500.02235174447,1730245793.6825955,1730245791.8270986,5000
36.94743358462257,-187500.02235174447,555.7314223922995,-187500.02235174447,-187500.02235174447,-187500.02235174447,-187500.02235174447,-187500.02235174447,1730245793.6856167,1730245791.8270986,5000
26.911500324189703,-187500.02235174447,557.5419136931794,-187500.02235174447,-187500.02235174447,-187500.02235174447,-187500.02235174447,-187500.02235174447,1730245793.6900826,1730245791.8270986,5000
112.6527920547476,-187500.02235174447,577.0102831137518,-187500.02235174447,-187500.02235174447,-187500.02235174447,-187500.02235174447,-187500.02235174447,1730245793.6926467,1730245791.8270986,5000
1.5422703674161873,-187500.02235174447,595.3834170560142,-187500.02235174447,-187500.02235174447,-187500.02235174447,-187500.02235174447,-187500.02235174447,1730245793.6964483,1730245791.8270986,5000
-8.918346037667519,-187500.02235174447,547.7294978772995,-187500.02235174447,-187500.02235174447,-187500.02235174447,-187500.02235174447,-187500.02235174447,1730245793.7006743,1730245791.8270986,5000
-8.67247684865914,-187500.02235174447,535.7713145937103,-187500.02235174447,-187500.02235174447,-187500.02235174447,-187500.02235174447,-187500.02235174447,1730245793.7044563,1730245791.8270986,5000
28.07379103586567,-187500.02235174447,563.1745532959168,-187500.02235174447,-187500.02235174447,-187500.02235174447,-187500.02235174447,-187500.02235174447,1730245793.7086208,1730245791.8270986,5000
91.1280621442869,-187500.02235174447,565.4320794859028,-187500.02235174447,-187500.02235174447,-187500.02235174447,-187500.02235174447,-187500.02235174447,1730245793.7134924,1730245791.8270986,5000
26.509168923994174,-187500.02235174447,514.1571777054284,-187500.02235174447,-187500.02235174447,-187500.02235174447,-187500.02235174447,-187500.02235174447,1730245793.7170243,1730245791.8270986,5000
12.807549572890949,-187500.02235174447,541.8286373410986,-187500.02235174447,-187500.02235174447,-187500.02235174447,-187500.02235174447,-187500.02235174447,1730245793.720497,1730245791.8270986,5000
49.39735524622861,-187500.02235174447,586.5768297406232,-187500.02235174447,-187500.02235174447,-187500.02235174447,-187500.02235174447,-187500.02235174447,1730245793.7250192,1730245791.8270986,5000
87.82000396490145,-187500.02235174447,604.6370392605113,-187500.02235174447,-187500.02235174447,-187500.02235174447,-187500.02235174447,-187500.02235174447,1730245793.7286043,1730245791.8270986,5000
51.54312271393809,-187500.02235174447,575.8926958909865,-187500.02235174447,-187500.02235174447,-187500.02235174447,-187500.02235174447,-187500.02235174447,1730245793.7327168,1730245791.8270986,5000
37.93091034065608,-187500.02235174447,550.6128729120342,-187500.02235174447,-187500.02235174447,-187500.02235174447,-187500.02235174447,-187500.02235174447,1730245793.7368104,1730245791.8270986,5000
103.35446636133986,-187500.02235174447,560.358233494548,-187500.02235174447,-187500.02235174447,-187500.02235174447,-187500.02235174447,-187500.02235174447,1730245793.7417145,1730245791.8270986,5000
16.160311241187006,-187500.02235174447,601.8654229480533,-187500.02235174447,-187500.02235174447,-187500.02235174447,-187500.02235174447,-187500.02235174447,1730245793.7450628,1730245791.8270986,5000
35.89690159522314,-187500.02235174447,561.4758207173135,-187500.02235174447,-187500.02235174447,-187500.02235174447,-187500.02235174447,-187500.02235174447,1730245793.7490096,1730245791.8270986,5000
42.4236109761728,-187500.02235174447,547.4836286882912,-187500.02235174447,-187500.02235174447,-187500.02235174447,-187500.02235174447,-187500.02235174447,1730245793.7526574,1730245791.8270986,5000
78.4769747825831,-187500.02235174447,558.5700939381235,-187500.02235174447,-187500.02235174447,-187500.02235174447,-187500.02235174447,-187500.02235174447,1730245793.7570975,1730245791.8270986,5000
53.957111115111246,-187500.02235174447,595.6739897339332,-187500.02235174447,-187500.02235174447,-187500.02235174447,-187500.02235174447,-187500.02235174447,1730245793.761125,1730245791.8270986,5000
12.18170072814235,-187500.02235174447,589.2813908197154,-187500.02235174447,-187500.02235174447,-187500.02235174447,-187500.02235174447,-187500.02235174447,1730245793.7652864,1730245791.8270986,5000
34.891073094734324,-187500.02235174447,531.7703523362103,-187500.02235174447,-187500.02235174447,-187500.02235174447,-187500.02235174447,-187500.02235174447,1730245793.7687595,1730245791.8270986,5000
49.41970699068391,-187500.02235174447,542.7674106082214,-187500.02235174447,-187500.02235174447,-187500.02235174447,-187500.02235174447,-187500.02235174447,1730245793.771612,1730245791.8270986,5000
68.97748338907759,-187500.02235174447,571.8917336334865,-187500.02235174447,-187500.02235174447,-187500.02235174447,-187500.02235174447,-187500.02235174447,1730245793.776975,1730245791.8270986,5000
68.6869107111586,-187500.02235174447,582.329998294115,-187500.02235174447,-187500.02235174447,-187500.02235174447,-187500.02235174447,-187500.02235174447,1730245793.780818,1730245791.8270986,5000
60.52852398497153,-187500.02235174447,535.3913349379701,-187500.02235174447,-187500.02235174447,-187500.02235174447,-187500.02235174447,-187500.02235174447,1730245793.7847836,1730245791.8270986,5000
66.63055022127035,-187500.02235174447,514.1124742165177,-187500.02235174447,-187500.02235174447,-187500.02235174447,-187500.02235174447,-187500.02235174447,1730245793.788702,1730245791.8270986,5000
89.98812317706623,-187500.02235174447,558.5477421936682,-187500.02235174447,-187500.02235174447,-187500.02235174447,-187500.02235174447,-187500.02235174447,1730245793.7928035,1730245791.8270986,5000
9.87947104924572,-187500.02235174447,563.6215881850229,-187500.02235174447,-187500.02235174447,-187500.02235174447,-187500.02235174447,-187500.02235174447,1730245793.796672,1730245791.8270986,5000
43.20592203210855,-187500.02235174447,524.1707592214059,-187500.02235174447,-187500.02235174447,-187500.02235174447,-187500.02235174447,-187500.02235174447,1730245793.7998998,1730245791.8270986,5000
6.906689036689882,-187500.02235174447,544.1755705089057,-187500.02235174447,-187500.02235174447,-187500.02235174447,-187500.02235174447,-187500.02235174447,1730245793.803749,1730245791.8270986,5000
25.168064256675752,-187500.02235174447,571.7576231667547,-187500.02235174447,-187500.02235174447,-187500.02235174447,-187500.02235174447,-187500.02235174447,1730245793.809209,1730245791.8270986,5000
63.27778855297429,-187500.02235174447,592.7682629547432,-187500.02235174447,-187500.02235174447,-187500.02235174447,-187500.02235174447,-187500.02235174447,1730245793.8127248,1730245791.8270986,5000
71.32441655688484,-187500.02235174447,564.9179893634307,-187500.02235174447,-187500.02235174447,-187500.02235174447,-187500.02235174447,-187500.02235174447,1730245793.8166232,1730245791.8270986,5000
51.319605269385015,-187500.02235174447,537.2912332166711,-187500.02235174447,-187500.02235174447,-187500.02235174447,-187500.02235174447,-187500.02235174447,1730245793.8207085,1730245791.8270986,5000
93.51969880100476,-187500.02235174447,537.4253436834031,-187500.02235174447,-187500.02235174447,-187500.02235174447,-187500.02235174447,-187500.02235174447,1730245793.824861,1730245791.8270986,5000
92.60327727833716,-187500.02235174447,579.3572162815591,-187500.02235174447,-187500.02235174447,-187500.02235174447,-187500.02235174447,-187500.02235174447,1730245793.8296485,1730245791.8270986,5000
82.2767713399853,-187500.02235174447,549.428230455903,-187500.02235174447,-187500.02235174447,-187500.02235174447,-187500.02235174447,-187500.02235174447,1730245793.83284,1730245791.8270986,5000
51.16314305819787,-187500.02235174447,536.5089221607354,-187500.02235174447,-187500.02235174447,-187500.02235174447,-187500.02235174447,-187500.02235174447,1730245793.836991,1730245791.8270986,5000
43.049459820921406,-187500.02235174447,542.007451296741,-187500.02235174447,-187500.02235174447,-187500.02235174447,-187500.02235174447,-187500.02235174447,1730245793.8410397,1730245791.8270986,5000
73.35842530231778,-187500.02235174447,569.5895039545899,-187500.02235174447,-187500.02235174447,-187500.02235174447,-187500.02235174447,-187500.02235174447,1730245793.845003,1730245791.8270986,5000
89.76460573251316,-187500.02235174447,551.3057769901487,-187500.02235174447,-187500.02235174447,-187500.02235174447,-187500.02235174447,-187500.02235174447,1730245793.8488967,1730245791.8270986,5000
77.06881488189875,-187500.02235174447,506.6693433129005,-187500.02235174447,-187500.02235174447,-187500.02235174447,-187500.02235174447,-187500.02235174447,1730245793.852936,1730245791.8270986,5000
86.30008534194057,-187500.02235174447,513.9560120053306,-187500.02235174447,-187500.02235174447,-187500.02235174447,-187500.02235174447,-187500.02235174447,1730245793.8559248,1730245791.8270986,5000
200.09281636390884,-187500.02235174447,564.0462713296737,-187500.02235174447,-187500.02235174447,-187500.02235174447,-187500.02235174447,-187500.02235174447,1730245793.859965,1730245791.8270986,5000
125.3038794164514,-187500.02235174447,524.7072010883332,-187500.02235174447,-187500.02235174447,-187500.02235174447,-187500.02235174447,-187500.02235174447,1730245793.8655636,1730245791.8270986,5000
-23.178759000153423,-187500.02235174447,474.28166559716055,-187500.02235174447,-187500.02235174447,-187500.02235174447,-187500.02235174447,-187500.02235174447,1730245793.8692107,1730245791.8270986,5000
-9.20891871558651,-187500.02235174447,501.5954973215458,-187500.02235174447,-187500.02235174447,-187500.02235174447,-187500.02235174447,-187500.02235174447,1730245793.8729453,1730245791.8270986,5000
76.13004161477586,-187500.02235174447,581.9947221272853,-187500.02235174447,-187500.02235174447,-187500.02235174447,-187500.02235174447,-187500.02235174447,1730245793.8763433,1730245791.8270986,5000
113.68097229969172,-187500.02235174447,513.4419218828585,-187500.02235174447,-187500.02235174447,-187500.02235174447,-187500.02235174447,-187500.02235174447,1730245793.879807,1730245791.8270986,5000
72.06202412390996,-187500.02235174447,504.4118171229145,-187500.02235174447,-187500.02235174447,-187500.02235174447,-187500.02235174447,-187500.02235174447,1730245793.883878,1730245791.8270986,5000
95.6207627798036,-187500.02235174447,580.0054168707629,-187500.02235174447,-187500.02235174447,-187500.02235174447,-187500.02235174447,-187500.02235174447,1730245793.8878033,1730245791.8270986,5000
116.02790546749895,-187500.02235174447,575.3339022796038,-187500.02235174447,-187500.02235174447,-187500.02235174447,-187500.02235174447,-187500.02235174447,1730245793.894521,1730245791.8270986,5000
73.29137006895186,-187500.02235174447,591.4048065429696,-187500.02235174447,-187500.02235174447,-187500.02235174447,-187500.02235174447,-187500.02235174447,1730245793.8968067,1730245791.8270986,5000
83.90844868522271,-187500.02235174447,551.9763293238079,-187500.02235174447,-187500.02235174447,-187500.02235174447,-187500.02235174447,-187500.02235174447,1730245793.9009793,1730245791.8270986,5000
81.3156463284071,-187500.02235174447,486.7315872587666,-187500.02235174447,-187500.02235174447,-187500.02235174447,-187500.02235174447,-187500.02235174447,1730245793.903785,1730245791.8270986,5000
171.03554857200965,-187500.02235174447,535.7266111047996,-187500.02235174447,-187500.02235174447,-187500.02235174447,-187500.02235174447,-187500.02235174447,1730245793.907979,1730245791.8270986,5000
253.4911338676374,-187500.02235174447,597.0374461457069,-187500.02235174447,-187500.02235174447,-187500.02235174447,-187500.02235174447,-187500.02235174447,1730245793.9119382,1730245791.8270986,5000
62.31666354139609,-187500.02235174447,513.5536806051351,-187500.02235174447,-187500.02235174447,-187500.02235174447,-187500.02235174447,-187500.02235174447,1730245793.9159777,1730245791.8270986,5000
-30.867759092779053,-187500.02235174447,549.5176374337242,-187500.02235174447,-187500.02235174447,-187500.02235174447,-187500.02235174447,-187500.02235174447,1730245793.9208152,1730245791.8270986,5000
32.65589864920362,-187500.02235174447,617.8469202335979,-187500.02235174447,-187500.02235174447,-187500.02235174447,-187500.02235174447,-187500.02235174447,1730245793.925182,1730245791.8270986,5000
109.63530655328114,-187500.02235174447,595.9198589229416,-187500.02235174447,-187500.02235174447,-187500.02235174447,-187500.02235174447,-187500.02235174447,1730245793.9287844,1730245791.8270986,5000
130.28831842998486,-187500.02235174447,566.102631819562,-187500.02235174447,-187500.02235174447,-187500.02235174447,-187500.02235174447,-187500.02235174447,1730245793.9319727,1730245791.8270986,5000
91.4856900555718,-187500.02235174447,517.1970149513501,-187500.02235174447,-187500.02235174447,-187500.02235174447,-187500.02235174447,-187500.02235174447,1730245793.9361506,1730245791.8270986,5000
91.41863482220587,-187500.02235174447,552.3339572350928,-187500.02235174447,-187500.02235174447,-187500.02235174447,-187500.02235174447,-187500.02235174447,1730245793.94043,1730245791.8270986,5000
118.3748386353062,-187500.02235174447,585.1239663510282,-187500.02235174447,-187500.02235174447,-187500.02235174447,-187500.02235174447,-187500.02235174447,1730245793.9439034,1730245791.8270986,5000
135.60803361034797,-187500.02235174447,560.6041026835564,-187500.02235174447,-187500.02235174447,-187500.02235174447,-187500.02235174447,-187500.02235174447,1730245793.948557,1730245791.8270986,5000
112.04929495445433,-187500.02235174447,535.0784105155958,-187500.02235174447,-187500.02235174447,-187500.02235174447,-187500.02235174447,-187500.02235174447,1730245793.9530358,1730245791.8270986,5000
115.29029790047385,-187500.02235174447,563.1745532959168,-187500.02235174447,-187500.02235174447,-187500.02235174447,-187500.02235174447,-187500.02235174447,1730245793.9572203,1730245791.8270986,5000
79.66161723871437,-187500.02235174447,537.8276750835986,-187500.02235174447,-187500.02235174447,-187500.02235174447,-187500.02235174447,-187500.02235174447,1730245793.9599483,1730245791.8270986,5000
52.14661981423138,-187500.02235174447,500.299096143138,-187500.02235174447,-187500.02235174447,-187500.02235174447,-187500.02235174447,-187500.02235174447,1730245793.9639733,1730245791.8270986,5000
52.14661981423138,-187500.02235174447,561.0511375726626,-187500.02235174447,-187500.02235174447,-187500.02235174447,-187500.02235174447,-187500.02235174447,1730245793.968259,1730245791.8270986,5000
97.27479186949634,-187500.02235174447,572.6069894560563,-187500.02235174447,-187500.02235174447,-187500.02235174447,-187500.02235174447,-187500.02235174447,1730245793.971881,1730245791.8270986,5000
118.53130084649337,-187500.02235174447,588.3873210415031,-187500.02235174447,-187500.02235174447,-187500.02235174447,-187500.02235174447,-187500.02235174447,1730245793.9762917,1730245791.8270986,5000
122.73342880409108,-187500.02235174447,579.714844192844,-187500.02235174447,-187500.02235174447,-187500.02235174447,-187500.02235174447,-187500.02235174447,1730245793.9812012,1730245791.8270986,5000
184.29013303400677,-187500.02235174447,544.9131780759309,-187500.02235174447,-187500.02235174447,-187500.02235174447,-187500.02235174447,-187500.02235174447,1730245793.9851625,1730245791.8270986,5000
138.82668481191217,-187500.02235174447,519.1639684634172,-187500.02235174447,-187500.02235174447,-187500.02235174447,-187500.02235174447,-187500.02235174447,1730245793.9879975,1730245791.8270986,5000
58.8744948952788,-187500.02235174447,536.8889018164756,-187500.02235174447,-187500.02235174447,-187500.02235174447,-187500.02235174447,-187500.02235174447,1730245793.9925432,1730245791.8270986,5000
130.28831842998486,-187500.02235174447,608.2580218622711,-187500.02235174447,-187500.02235174447,-187500.02235174447,-187500.02235174447,-187500.02235174447,1730245793.995958,1730245791.8270986,5000
121.57113809241513,-187500.02235174447,616.3270016106369,-187500.02235174447,-187500.02235174447,-187500.02235174447,-187500.02235174447,-187500.02235174447,1730245794.0004764,1730245791.8270986,5000
80.22041085009705,-187500.02235174447,550.2775967452046,-187500.02235174447,-187500.02235174447,-187500.02235174447,-187500.02235174447,-187500.02235174447,1730245794.004018,1730245791.8270986,5000
73.89486716924515,-187500.02235174447,543.3038524751488,-187500.02235174447,-187500.02235174447,-187500.02235174447,-187500.02235174447,-187500.02235174447,1730245794.009184,1730245791.8270986,5000
171.571990438937,-187500.02235174447,611.0743416636398,-187500.02235174447,-187500.02235174447,-187500.02235174447,-187500.02235174447,-187500.02235174447,1730245794.012946,1730245791.8270986,5000
93.11736740080924,-187500.02235174447,604.1453008824946,-187500.02235174447,-187500.02235174447,-187500.02235174447,-187500.02235174447,-187500.02235174447,1730245794.0161128,1730245791.8270986,5000
103.35446636133986,-187500.02235174447,570.1930010548832,-187500.02235174447,-187500.02235174447,-187500.02235174447,-187500.02235174447,-187500.02235174447,1730245794.020124,1730245791.8270986,5000
126.75674280604636,-187500.02235174447,557.1842857818945,-187500.02235174447,-187500.02235174447,-187500.02235174447,-187500.02235174447,-187500.02235174447,1730245794.0241356,1730245791.8270986,5000
203.13265360983056,-187500.02235174447,561.4981724617687,-187500.02235174447,-187500.02235174447,-187500.02235174447,-187500.02235174447,-187500.02235174447,1730245794.0281212,1730245791.8270986,5000
128.2096061956413,-187500.02235174447,560.3135300056374,-187500.02235174447,-187500.02235174447,-187500.02235174447,-187500.02235174447,-187500.02235174447,1730245794.032095,1730245791.8270986,5000
73.85016368033453,-187500.02235174447,556.9160648484308,-187500.02235174447,-187500.02235174447,-187500.02235174447,-187500.02235174447,-187500.02235174447,1730245794.0369272,1730245791.8270986,5000
123.18046369319724,-187500.02235174447,574.6857016903999,-187500.02235174447,-187500.02235174447,-187500.02235174447,-187500.02235174447,-187500.02235174447,1730245794.040112,1730245791.8270986,5000
157.06570828744273,-187500.02235174447,616.9528504553855,-187500.02235174447,-187500.02235174447,-187500.02235174447,-187500.02235174447,-187500.02235174447,1730245794.0441012,1730245791.8270986,5000
165.1570397802639,-187500.02235174447,603.6982659933884,-187500.02235174447,-187500.02235174447,-187500.02235174447,-187500.02235174447,-187500.02235174447,1730245794.048094,1730245791.8270986,5000
104.85203323984544,-187500.02235174447,585.5262977512239,-187500.02235174447,-187500.02235174447,-187500.02235174447,-187500.02235174447,-187500.02235174447,1730245794.0522325,1730245791.8270986,5000
119.22420492460788,-187500.02235174447,559.4418119718805,-187500.02235174447,-187500.02235174447,-187500.02235174447,-187500.02235174447,-187500.02235174447,1730245794.056151,1730245791.8270986,5000
121.99582123706595,-187500.02235174447,591.1812890984165,-187500.02235174447,-187500.02235174447,-187500.02235174447,-187500.02235174447,-187500.02235174447,1730245794.0601065,1730245791.8270986,5000
179.1045283203755,-187500.02235174447,577.0773383471177,-187500.02235174447,-187500.02235174447,-187500.02235174447,-187500.02235174447,-187500.02235174447,1730245794.065118,1730245791.8270986,5000
164.41943221323876,-187500.02235174447,572.8305069006094,-187500.02235174447,-187500.02235174447,-187500.02235174447,-187500.02235174447,-187500.02235174447,1730245794.0680964,1730245791.8270986,5000
115.73733278957997,-187500.02235174447,566.1249835640173,-187500.02235174447,-187500.02235174447,-187500.02235174447,-187500.02235174447,-187500.02235174447,1730245794.0709748,1730245791.8270986,5000
103.39916985025047,-187500.02235174447,592.9023734214751,-187500.02235174447,-187500.02235174447,-187500.02235174447,-187500.02235174447,-187500.02235174447,1730245794.076035,1730245791.8270986,5000
82.23206785107469,-187500.02235174447,595.6292862450226,-187500.02235174447,-187500.02235174447,-187500.02235174447,-187500.02235174447,-187500.02235174447,1730245794.0800724,1730245791.8270986,5000
69.22335257808598,-187500.02235174447,581.3912250269921,-187500.02235174447,-187500.02235174447,-187500.02235174447,-187500.02235174447,-187500.02235174447,1730245794.0842328,1730245791.8270986,5000
107.75776001903536,-187500.02235174447,582.7323296943105,-187500.02235174447,-187500.02235174447,-187500.02235174447,-187500.02235174447,-187500.02235174447,1730245794.0881004,1730245791.8270986,5000
143.9899377810881,-187500.02235174447,609.6661817629555,-187500.02235174447,-187500.02235174447,-187500.02235174447,-187500.02235174447,-187500.02235174447,1730245794.0923724,1730245791.8270986,5000
171.79550788349007,-187500.02235174447,622.0937516801062,-187500.02235174447,-187500.02235174447,-187500.02235174447,-187500.02235174447,-187500.02235174447,1730245794.096042,1730245791.8270986,5000
120.2970886584626,-187500.02235174447,567.0414050866849,-187500.02235174447,-187500.02235174447,-187500.02235174447,-187500.02235174447,-187500.02235174447,1730245794.0993729,1730245791.8270986,5000
88.35644583182882,-187500.02235174447,572.9422656228859,-187500.02235174447,-187500.02235174447,-187500.02235174447,-187500.02235174447,-187500.02235174447,1730245794.1040244,1730245791.8270986,5000
198.50584250758203,-187500.02235174447,594.3999402999807,-187500.02235174447,-187500.02235174447,-187500.02235174447,-187500.02235174447,-187500.02235174447,1730245794.108249,1730245791.8270986,5000
174.58947594040347,-187500.02235174447,619.2103766453715,-187500.02235174447,-187500.02235174447,-187500.02235174447,-187500.02235174447,-187500.02235174447,1730245794.1121345,1730245791.8270986,5000
35.338107983840466,-187500.02235174447,589.2366873308048,-187500.02235174447,-187500.02235174447,-187500.02235174447,-187500.02235174447,-187500.02235174447,1730245794.116361,1730245791.8270986,5000
73.35842530231778,-187500.02235174447,568.9413033653859,-187500.02235174447,-187500.02235174447,-187500.02235174447,-187500.02235174447,-187500.02235174447,1730245794.1195152,1730245791.8270986,5000
120.67706831420284,-187500.02235174447,591.7177309653439,-187500.02235174447,-187500.02235174447,-187500.02235174447,-187500.02235174447,-187500.02235174447,1730245794.123139,1730245791.8270986,5000
139.65369935675852,-187500.02235174447,588.2755623192265,-187500.02235174447,-187500.02235174447,-187500.02235174447,-187500.02235174447,-187500.02235174447,1730245794.127457,1730245791.8270986,5000
155.54578966448184,-187500.02235174447,624.9771267148408,-187500.02235174447,-187500.02235174447,-187500.02235174447,-187500.02235174447,-187500.02235174447,1730245794.1324985,1730245791.8270986,5000
104.82968149539012,-187500.02235174447,624.0830569366285,-187500.02235174447,-187500.02235174447,-187500.02235174447,-187500.02235174447,-187500.02235174447,1730245794.1365912,1730245791.8270986,5000
155.702251875669,-187500.02235174447,605.3299433386259,-187500.02235174447,-187500.02235174447,-187500.02235174447,-187500.02235174447,-187500.02235174447,1730245794.1405058,1730245791.8270986,5000
198.34938029639488,-187500.02235174447,586.6215332295338,-187500.02235174447,-187500.02235174447,-187500.02235174447,-187500.02235174447,-187500.02235174447,1730245794.1447692,1730245791.8270986,5000
182.47964173312687,-187500.02235174447,613.6894957649107,-187500.02235174447,-187500.02235174447,-187500.02235174447,-187500.02235174447,-187500.02235174447,1730245794.1472893,1730245791.8270986,5000
91.4856900555718,-187500.02235174447,620.9091092239748,-187500.02235174447,-187500.02235174447,-187500.02235174447,-187500.02235174447,-187500.02235174447,1730245794.1515973,1730245791.8270986,5000
53.957111115111246,-187500.02235174447,593.617629244045,-187500.02235174447,-187500.02235174447,-187500.02235174447,-187500.02235174447,-187500.02235174447,1730245794.1552827,1730245791.8270986,5000
105.7013995291471,-187500.02235174447,624.9324232259302,-187500.02235174447,-187500.02235174447,-187500.02235174447,-187500.02235174447,-187500.02235174447,1730245794.1593711,1730245791.8270986,5000
123.78396079349052,-187500.02235174447,636.7564960427876,-187500.02235174447,-187500.02235174447,-187500.02235174447,-187500.02235174447,-187500.02235174447,1730245794.1644251,1730245791.8270986,5000
122.35344914835086,-187500.02235174447,618.6292312895335,-187500.02235174447,-187500.02235174447,-187500.02235174447,-187500.02235174447,-187500.02235174447,1730245794.1683593,1730245791.8270986,5000
139.5642923789373,-187500.02235174447,582.3076465496596,-187500.02235174447,-187500.02235174447,-187500.02235174447,-187500.02235174447,-187500.02235174447,1730245794.1722217,1730245791.8270986,5000
170.186182282708,-187500.02235174447,617.6681062779554,-187500.02235174447,-187500.02235174447,-187500.02235174447,-187500.02235174447,-187500.02235174447,1730245794.1755393,1730245791.8270986,5000
187.732301680124,-187500.02235174447,659.8905515540304,-187500.02235174447,-187500.02235174447,-187500.02235174447,-187500.02235174447,-187500.02235174447,1730245794.1791673,1730245791.8270986,5000
131.60707135284798,-187500.02235174447,609.6214782740449,-187500.02235174447,-187500.02235174447,-187500.02235174447,-187500.02235174447,-187500.02235174447,1730245794.183355,1730245791.8270986,5000
107.35542861883982,-187500.02235174447,586.2415535737937,-187500.02235174447,-187500.02235174447,-187500.02235174447,-187500.02235174447,-187500.02235174447,1730245794.187204,1730245791.8270986,5000
172.4660602171493,-187500.02235174447,599.9878764138075,-187500.02235174447,-187500.02235174447,-187500.02235174447,-187500.02235174447,-187500.02235174447,1730245794.1925938,1730245791.8270986,5000
184.60305745638104,-187500.02235174447,652.8497520506087,-187500.02235174447,-187500.02235174447,-187500.02235174447,-187500.02235174447,-187500.02235174447,1730245794.1961963,1730245791.8270986,5000
144.34756569237302,-187500.02235174447,646.613615347578,-187500.02235174447,-187500.02235174447,-187500.02235174447,-187500.02235174447,-187500.02235174447,1730245794.2005796,1730245791.8270986,5000
162.02779555652089,-187500.02235174447,628.4416471054134,-187500.02235174447,-187500.02235174447,-187500.02235174447,-187500.02235174447,-187500.02235174447,1730245794.2035291,1730245791.8270986,5000
132.65760334224743,-187500.02235174447,610.6273067745336,-187500.02235174447,-187500.02235174447,-187500.02235174447,-187500.02235174447,-187500.02235174447,1730245794.2074256,1730245791.8270986,5000
123.67220207121396,-187500.02235174447,607.1851381284164,-187500.02235174447,-187500.02235174447,-187500.02235174447,-187500.02235174447,-187500.02235174447,1730245794.2115178,1730245791.8270986,5000
179.4398044872051,-187500.02235174447,632.3084988961815,-187500.02235174447,-187500.02235174447,-187500.02235174447,-187500.02235174447,-187500.02235174447,1730245794.2154825,1730245791.8270986,5000
159.1667722662416,-187500.02235174447,633.2472721633044,-187500.02235174447,-187500.02235174447,-187500.02235174447,-187500.02235174447,-187500.02235174447,1730245794.220235,1730245791.8270986,5000
203.08795012092,-187500.02235174447,633.4260861189468,-187500.02235174447,-187500.02235174447,-187500.02235174447,-187500.02235174447,-187500.02235174447,1730245794.2246993,1730245791.8270986,5000
210.66519149126907,-187500.02235174447,657.5659701306785,-187500.02235174447,-187500.02235174447,-187500.02235174447,-187500.02235174447,-187500.02235174447,1730245794.2275348,1730245791.8270986,5000
