Fp1,Fp2,C3,C4,P7,P8,O1,O2,time_board,time_marker,marker
-3951.1178673646295,-187500.02235174447,17643.84122417465,-187500.02235174447,-187500.02235174447,-187500.02235174447,-187500.02235174447,-187500.02235174447,1730412142.9205728,1730412142.9171937,5000
-3939.87493990361,-187500.02235174447,17651.150244611534,-187500.02235174447,-187500.02235174447,-187500.02235174447,-187500.02235174447,-187500.02235174447,1730412142.9245312,1730412142.9171937,5000
-3954.291815077283,-187500.02235174447,17664.628346518082,-187500.02235174447,-187500.02235174447,-187500.02235174447,-187500.02235174447,-187500.02235174447,1730412142.9275584,1730412142.9171937,5000
-3970.943864696487,-187500.02235174447,17662.415523817006,-187500.02235174447,-187500.02235174447,-187500.02235174447,-187500.02235174447,-187500.02235174447,1730412142.9316216,1730412142.9171937,5000
-3951.4978470203696,-187500.02235174447,17654.72652372438,-187500.02235174447,-187500.02235174447,-187500.02235174447,-187500.02235174447,-187500.02235174447,1730412142.9355764,1730412142.9171937,5000
-3949.1732655970177,-187500.02235174447,17651.932555667467,-187500.02235174447,-187500.02235174447,-187500.02235174447,-187500.02235174447,-187500.02235174447,1730412142.9406147,1730412142.9171937,5000
-3962.718422736934,-187500.02235174447,17669.478675064885,-187500.02235174447,-187500.02235174447,-187500.02235174447,-187500.02235174447,-187500.02235174447,1730412142.9446092,1730412142.9171937,5000
-3960.550303524769,-187500.02235174447,17670.372744843095,-187500.02235174447,-187500.02235174447,-187500.02235174447,-187500.02235174447,-187500.02235174447,1730412142.9487123,1730412142.9171937,5000
-3947.273367318317,-187500.02235174447,17647.39515154304,-187500.02235174447,-187500.02235174447,-187500.02235174447,-187500.02235174447,-187500.02235174447,1730412142.952882,1730412142.9171937,5000
-3945.507579506348,-187500.02235174447,17645.49525326434,-187500.02235174447,-187500.02235174447,-187500.02235174447,-187500.02235174447,-187500.02235174447,1730412142.9567003,1730412142.9171937,5000
-3955.521161022325,-187500.02235174447,17665.321250596196,-187500.02235174447,-187500.02235174447,-187500.02235174447,-187500.02235174447,-187500.02235174447,1730412142.959689,1730412142.9171937,5000
-3962.360794825649,-187500.02235174447,17669.322212853698,-187500.02235174447,-187500.02235174447,-187500.02235174447,-187500.02235174447,-187500.02235174447,1730412142.96367,1730412142.9171937,5000
-3955.9234924225207,-187500.02235174447,17654.05597139072,-187500.02235174447,-187500.02235174447,-187500.02235174447,-187500.02235174447,-187500.02235174447,1730412142.9677482,1730412142.9171937,5000
-3952.369565054127,-187500.02235174447,17647.462206776407,-187500.02235174447,-187500.02235174447,-187500.02235174447,-187500.02235174447,-187500.02235174447,1730412142.9727464,1730412142.9171937,5000
-3955.16353311104,-187500.02235174447,17660.649736005038,-187500.02235174447,-187500.02235174447,-187500.02235174447,-187500.02235174447,-187500.02235174447,1730412142.9768903,1730412142.9171937,5000
-3965.780611727311,-187500.02235174447,17662.54963428374,-187500.02235174447,-187500.02235174447,-187500.02235174447,-187500.02235174447,-187500.02235174447,1730412142.9808252,1730412142.9171937,5000
-3960.751469224867,-187500.02235174447,17647.797482943235,-187500.02235174447,-187500.02235174447,-187500.02235174447,-187500.02235174447,-187500.02235174447,1730412142.98378,1730412142.9171937,5000
-3946.6251667291126,-187500.02235174447,17646.031695131267,-187500.02235174447,-187500.02235174447,-187500.02235174447,-187500.02235174447,-187500.02235174447,1730412142.9878604,1730412142.9171937,5000
-3952.906006921054,-187500.02235174447,17654.771227213292,-187500.02235174447,-187500.02235174447,-187500.02235174447,-187500.02235174447,-187500.02235174447,1730412142.9917552,1730412142.9171937,5000
-3962.539608781292,-187500.02235174447,17660.2697563493,-187500.02235174447,-187500.02235174447,-187500.02235174447,-187500.02235174447,-187500.02235174447,1730412142.995858,1730412142.9171937,5000
-3958.1810186125063,-187500.02235174447,17655.39707605804,-187500.02235174447,-187500.02235174447,-187500.02235174447,-187500.02235174447,-187500.02235174447,1730412143.000802,1730412142.9171937,5000
-3947.005146384853,-187500.02235174447,17648.602145743625,-187500.02235174447,-187500.02235174447,-187500.02235174447,-187500.02235174447,-187500.02235174447,1730412143.0047495,1730412142.9171937,5000
-3953.0624691322414,-187500.02235174447,17655.128855124578,-187500.02235174447,-187500.02235174447,-187500.02235174447,-187500.02235174447,-187500.02235174447,1730412143.0077617,1730412142.9171937,5000
-3960.326786080216,-187500.02235174447,17667.154093641533,-187500.02235174447,-187500.02235174447,-187500.02235174447,-187500.02235174447,-187500.02235174447,1730412143.0117717,1730412142.9171937,5000
-3959.2539023463614,-187500.02235174447,17661.141474383054,-187500.02235174447,-187500.02235174447,-187500.02235174447,-187500.02235174447,-187500.02235174447,1730412143.0158496,1730412142.9171937,5000
-3948.480361518903,-187500.02235174447,17644.310610808207,-187500.02235174447,-187500.02235174447,-187500.02235174447,-187500.02235174447,-187500.02235174447,1730412143.019936,1730412142.9171937,5000
-3946.714573706934,-187500.02235174447,17650.54674751124,-187500.02235174447,-187500.02235174447,-187500.02235174447,-187500.02235174447,-187500.02235174447,1730412143.0237937,1730412142.9171937,5000
-3946.848684173666,-187500.02235174447,17664.807160473723,-187500.02235174447,-187500.02235174447,-187500.02235174447,-187500.02235174447,-187500.02235174447,1730412143.0289617,1730412142.9171937,5000
-3956.124658122618,-187500.02235174447,17658.325154581686,-187500.02235174447,-187500.02235174447,-187500.02235174447,-187500.02235174447,-187500.02235174447,1730412143.0329444,1730412142.9171937,5000
-3962.874884948121,-187500.02235174447,17644.15414859702,-187500.02235174447,-187500.02235174447,-187500.02235174447,-187500.02235174447,-187500.02235174447,1730412143.0358913,1730412142.9171937,5000
-3962.3384430811934,-187500.02235174447,17646.232860831366,-187500.02235174447,-187500.02235174447,-187500.02235174447,-187500.02235174447,-187500.02235174447,1730412143.0398424,1730412142.9171937,5000
-3962.427850059015,-187500.02235174447,17660.001535415835,-187500.02235174447,-187500.02235174447,-187500.02235174447,-187500.02235174447,-187500.02235174447,1730412143.043847,1730412142.9171937,5000
-3960.326786080216,-187500.02235174447,17658.660430748514,-187500.02235174447,-187500.02235174447,-187500.02235174447,-187500.02235174447,-187500.02235174447,1730412143.0478363,1730412142.9171937,5000
-3964.014823915342,-187500.02235174447,17649.473863777384,-187500.02235174447,-187500.02235174447,-187500.02235174447,-187500.02235174447,-187500.02235174447,1730412143.0519705,1730412142.9171937,5000
-3955.3646988111377,-187500.02235174447,17653.363067312606,-187500.02235174447,-187500.02235174447,-187500.02235174447,-187500.02235174447,-187500.02235174447,1730412143.0559056,1730412142.9171937,5000
-3959.857399446655,-187500.02235174447,17659.710962737914,-187500.02235174447,-187500.02235174447,-187500.02235174447,-187500.02235174447,-187500.02235174447,1730412143.060902,1730412142.9171937,5000
-3961.042041902786,-187500.02235174447,17662.773151728292,-187500.02235174447,-187500.02235174447,-187500.02235174447,-187500.02235174447,-187500.02235174447,1730412143.0639431,1730412142.9171937,5000
-3954.1800563550064,-187500.02235174447,17652.379590556575,-187500.02235174447,-187500.02235174447,-187500.02235174447,-187500.02235174447,-187500.02235174447,1730412143.067999,1730412142.9171937,5000
-3952.324861565216,-187500.02235174447,17641.807215429213,-187500.02235174447,-187500.02235174447,-187500.02235174447,-187500.02235174447,-187500.02235174447,1730412143.0719,1730412142.9171937,5000
-3965.020652415831,-187500.02235174447,17650.59145100015,-187500.02235174447,-187500.02235174447,-187500.02235174447,-187500.02235174447,-187500.02235174447,1730412143.0758204,1730412142.9171937,5000
-3968.26165536185,-187500.02235174447,17663.041372661755,-187500.02235174447,-187500.02235174447,-187500.02235174447,-187500.02235174447,-187500.02235174447,1730412143.0798943,1730412142.9171937,5000
-3957.488114534392,-187500.02235174447,17653.45247429043,-187500.02235174447,-187500.02235174447,-187500.02235174447,-187500.02235174447,-187500.02235174447,1730412143.0848346,1730412142.9171937,5000
-3948.167437096529,-187500.02235174447,17648.53509051026,-187500.02235174447,-187500.02235174447,-187500.02235174447,-187500.02235174447,-187500.02235174447,1730412143.0889173,1730412142.9171937,5000
-3948.21214058544,-187500.02235174447,17660.20270111593,-187500.02235174447,-187500.02235174447,-187500.02235174447,-187500.02235174447,-187500.02235174447,1730412143.0919216,1730412142.9171937,5000
-3950.648480731068,-187500.02235174447,17665.097733151644,-187500.02235174447,-187500.02235174447,-187500.02235174447,-187500.02235174447,-187500.02235174447,1730412143.0960052,1730412142.9171937,5000
-3946.111076606641,-187500.02235174447,17657.9675266704,-187500.02235174447,-187500.02235174447,-187500.02235174447,-187500.02235174447,-187500.02235174447,1730412143.0999825,1730412142.9171937,5000
-3950.134390608596,-187500.02235174447,17650.569099255696,-187500.02235174447,-187500.02235174447,-187500.02235174447,-187500.02235174447,-187500.02235174447,1730412143.1039064,1730412142.9171937,5000
-3952.369565054127,-187500.02235174447,17654.05597139072,-187500.02235174447,-187500.02235174447,-187500.02235174447,-187500.02235174447,-187500.02235174447,1730412143.1079323,1730412142.9171937,5000
-3953.733021465901,-187500.02235174447,17664.58364302917,-187500.02235174447,-187500.02235174447,-187500.02235174447,-187500.02235174447,-187500.02235174447,1730412143.112014,1730412142.9171937,5000
-3955.4764575334143,-187500.02235174447,17662.214358116908,-187500.02235174447,-187500.02235174447,-187500.02235174447,-187500.02235174447,-187500.02235174447,1730412143.1170185,1730412142.9171937,5000
-3960.863227947144,-187500.02235174447,17652.178424856476,-187500.02235174447,-187500.02235174447,-187500.02235174447,-187500.02235174447,-187500.02235174447,1730412143.120123,1730412142.9171937,5000
-3954.895312177576,-187500.02235174447,17650.97143065589,-187500.02235174447,-187500.02235174447,-187500.02235174447,-187500.02235174447,-187500.02235174447,1730412143.124024,1730412142.9171937,5000
-3958.9633296684415,-187500.02235174447,17662.214358116908,-187500.02235174447,-187500.02235174447,-187500.02235174447,-187500.02235174447,-187500.02235174447,1730412143.1279683,1730412142.9171937,5000
-3956.571693011724,-187500.02235174447,17657.676953992483,-187500.02235174447,-187500.02235174447,-187500.02235174447,-187500.02235174447,-187500.02235174447,1730412143.1319516,1730412142.9171937,5000
-3944.769971939322,-187500.02235174447,17641.471939262385,-187500.02235174447,-187500.02235174447,-187500.02235174447,-187500.02235174447,-187500.02235174447,1730412143.1359758,1730412142.9171937,5000
-3950.7602394533446,-187500.02235174447,17647.618668987594,-187500.02235174447,-187500.02235174447,-187500.02235174447,-187500.02235174447,-187500.02235174447,1730412143.1401289,1730412142.9171937,5000
-3966.384108827604,-187500.02235174447,17659.845073204648,-187500.02235174447,-187500.02235174447,-187500.02235174447,-187500.02235174447,-187500.02235174447,1730412143.144021,1730412142.9171937,5000
-3968.932207695509,-187500.02235174447,17662.281413350276,-187500.02235174447,-187500.02235174447,-187500.02235174447,-187500.02235174447,-187500.02235174447,1730412143.1470857,1730412142.9171937,5000
-3954.291815077283,-187500.02235174447,17645.20468058642,-187500.02235174447,-187500.02235174447,-187500.02235174447,-187500.02235174447,-187500.02235174447,1730412143.1510031,1730412142.9171937,5000
-3949.374431297116,-187500.02235174447,17646.009343386813,-187500.02235174447,-187500.02235174447,-187500.02235174447,-187500.02235174447,-187500.02235174447,1730412143.155995,1730412142.9171937,5000
-3950.715535964434,-187500.02235174447,17658.63807900406,-187500.02235174447,-187500.02235174447,-187500.02235174447,-187500.02235174447,-187500.02235174447,1730412143.160114,1730412142.9171937,5000
-3967.1887716279953,-187500.02235174447,17663.041372661755,-187500.02235174447,-187500.02235174447,-187500.02235174447,-187500.02235174447,-187500.02235174447,1730412143.1640973,1730412142.9171937,5000
-3962.226684358917,-187500.02235174447,17645.361142797607,-187500.02235174447,-187500.02235174447,-187500.02235174447,-187500.02235174447,-187500.02235174447,1730412143.1680565,1730412142.9171937,5000
-3950.4696667754256,-187500.02235174447,17648.445683532438,-187500.02235174447,-187500.02235174447,-187500.02235174447,-187500.02235174447,-187500.02235174447,1730412143.1721916,1730412142.9171937,5000
-3957.197541856473,-187500.02235174447,17659.554500526727,-187500.02235174447,-187500.02235174447,-187500.02235174447,-187500.02235174447,-187500.02235174447,1730412143.1750276,1730412142.9171937,5000
-3965.6912047494898,-187500.02235174447,17663.17548312849,-187500.02235174447,-187500.02235174447,-187500.02235174447,-187500.02235174447,-187500.02235174447,1730412143.1790771,1730412142.9171937,5000
-3958.739812223889,-187500.02235174447,17651.239651589352,-187500.02235174447,-187500.02235174447,-187500.02235174447,-187500.02235174447,-187500.02235174447,1730412143.1840744,1730412142.9171937,5000
-3946.535759751292,-187500.02235174447,17646.948116653934,-187500.02235174447,-187500.02235174447,-187500.02235174447,-187500.02235174447,-187500.02235174447,1730412143.1882443,1730412142.9171937,5000
-3951.16257085354,-187500.02235174447,17657.319326081197,-187500.02235174447,-187500.02235174447,-187500.02235174447,-187500.02235174447,-187500.02235174447,1730412143.192066,1730412142.9171937,5000
-3961.891408192088,-187500.02235174447,17662.326116839187,-187500.02235174447,-187500.02235174447,-187500.02235174447,-187500.02235174447,-187500.02235174447,1730412143.196174,1730412142.9171937,5000
-3959.54447502428,-187500.02235174447,17638.655619461017,-187500.02235174447,-187500.02235174447,-187500.02235174447,-187500.02235174447,-187500.02235174447,1730412143.199105,1730412142.9171937,5000
-3951.7660679538335,-187500.02235174447,17632.419482757985,-187500.02235174447,-187500.02235174447,-187500.02235174447,-187500.02235174447,-187500.02235174447,1730412143.2031317,1730412142.9171937,5000
-3954.492980777381,-187500.02235174447,17645.003514886324,-187500.02235174447,-187500.02235174447,-187500.02235174447,-187500.02235174447,-187500.02235174447,1730412143.2071044,1730412142.9171937,5000
-3956.437582544992,-187500.02235174447,17660.225052860387,-187500.02235174447,-187500.02235174447,-187500.02235174447,-187500.02235174447,-187500.02235174447,1730412143.2121797,1730412142.9171937,5000
-3951.1402191090847,-187500.02235174447,17648.021000387787,-187500.02235174447,-187500.02235174447,-187500.02235174447,-187500.02235174447,-187500.02235174447,1730412143.2163303,1730412142.9171937,5000
-3950.939053408987,-187500.02235174447,17631.078378090668,-187500.02235174447,-187500.02235174447,-187500.02235174447,-187500.02235174447,-187500.02235174447,1730412143.2201943,1730412142.9171937,5000
-3934.5999282121575,-187500.02235174447,17626.876250133068,-187500.02235174447,-187500.02235174447,-187500.02235174447,-187500.02235174447,-187500.02235174447,1730412143.223188,1730412142.9171937,5000
-3941.1266375931073,-187500.02235174447,17647.238689331854,-187500.02235174447,-187500.02235174447,-187500.02235174447,-187500.02235174447,-187500.02235174447,1730412143.227262,1730412142.9171937,5000
-3964.998300671375,-187500.02235174447,17641.382532284562,-187500.02235174447,-187500.02235174447,-187500.02235174447,-187500.02235174447,-187500.02235174447,1730412143.2313092,1730412142.9171937,5000
-3925.4133612410265,-187500.02235174447,17624.216392542887,-187500.02235174447,-187500.02235174447,-187500.02235174447,-187500.02235174447,-187500.02235174447,1730412143.2351737,1730412142.9171937,5000
-3897.518384160803,-187500.02235174447,17622.38354949755,-187500.02235174447,-187500.02235174447,-187500.02235174447,-187500.02235174447,-187500.02235174447,1730412143.239208,1730412142.9171937,5000
-3925.7933408967674,-187500.02235174447,17612.906409848503,-187500.02235174447,-187500.02235174447,-187500.02235174447,-187500.02235174447,-187500.02235174447,1730412143.244313,1730412142.9171937,5000
-3943.317108549728,-187500.02235174447,17603.183401010443,-187500.02235174447,-187500.02235174447,-187500.02235174447,-187500.02235174447,-187500.02235174447,1730412143.2482915,1730412142.9171937,5000
-3908.4036837105377,-187500.02235174447,17623.43408148695,-187500.02235174447,-187500.02235174447,-187500.02235174447,-187500.02235174447,-187500.02235174447,1730412143.2511463,1730412142.9171937,5000
-3901.0276080402864,-187500.02235174447,17645.227032330877,-187500.02235174447,-187500.02235174447,-187500.02235174447,-187500.02235174447,-187500.02235174447,1730412143.2552087,1730412142.9171937,5000
-4044.145827787617,-187500.02235174447,17584.273825201253,-187500.02235174447,-187500.02235174447,-187500.02235174447,-187500.02235174447,-187500.02235174447,1730412143.2591624,1730412142.9171937,5000
-4042.51415044238,-187500.02235174447,17547.594612550096,-187500.02235174447,-187500.02235174447,-187500.02235174447,-187500.02235174447,-187500.02235174447,1730412143.263183,1730412142.9171937,5000
-3900.58057315118,-187500.02235174447,17529.444996052385,-187500.02235174447,-187500.02235174447,-187500.02235174447,-187500.02235174447,-187500.02235174447,1730412143.267162,1730412142.9171937,5000
-3857.5981685636248,-187500.02235174447,17637.269811304788,-187500.02235174447,-187500.02235174447,-187500.02235174447,-187500.02235174447,-187500.02235174447,1730412143.2721832,1730412142.9171937,5000
-3868.997558235831,-187500.02235174447,17787.607644511183,-187500.02235174447,-187500.02235174447,-187500.02235174447,-187500.02235174447,-187500.02235174447,1730412143.27622,1730412142.9171937,5000
-3789.8947346085,-187500.02235174447,17701.9781115029,-187500.02235174447,-187500.02235174447,-187500.02235174447,-187500.02235174447,-187500.02235174447,1730412143.2792714,1730412142.9171937,5000
-3940.6348992150906,-187500.02235174447,17573.075601229146,-187500.02235174447,-187500.02235174447,-187500.02235174447,-187500.02235174447,-187500.02235174447,1730412143.2832668,1730412142.9171937,5000
-4109.636439041668,-187500.02235174447,17620.0589680742,-187500.02235174447,-187500.02235174447,-187500.02235174447,-187500.02235174447,-187500.02235174447,1730412143.2872405,1730412142.9171937,5000
-4008.807719803777,-187500.02235174447,17660.225052860387,-187500.02235174447,-187500.02235174447,-187500.02235174447,-187500.02235174447,-187500.02235174447,1730412143.2913008,1730412142.9171937,5000
-4053.868836625676,-187500.02235174447,17687.382422373586,-187500.02235174447,-187500.02235174447,-187500.02235174447,-187500.02235174447,-187500.02235174447,1730412143.2953246,1730412142.9171937,5000
-3982.656178791068,-187500.02235174447,17689.416431119018,-187500.02235174447,-187500.02235174447,-187500.02235174447,-187500.02235174447,-187500.02235174447,1730412143.300275,1730412142.9171937,5000
-3984.556077069769,-187500.02235174447,17702.26868418082,-187500.02235174447,-187500.02235174447,-187500.02235174447,-187500.02235174447,-187500.02235174447,1730412143.3043082,1730412142.9171937,5000
-3995.441376619504,-187500.02235174447,17689.572893330205,-187500.02235174447,-187500.02235174447,-187500.02235174447,-187500.02235174447,-187500.02235174447,1730412143.3072653,1730412142.9171937,5000
-3960.058565146752,-187500.02235174447,17662.840206961657,-187500.02235174447,-187500.02235174447,-187500.02235174447,-187500.02235174447,-187500.02235174447,1730412143.31228,1730412142.9171937,5000
-3892.690407358457,-187500.02235174447,17654.011267901813,-187500.02235174447,-187500.02235174447,-187500.02235174447,-187500.02235174447,-187500.02235174447,1730412143.316357,1730412142.9171937,5000
-3859.453363353415,-187500.02235174447,17613.420499970973,-187500.02235174447,-187500.02235174447,-187500.02235174447,-187500.02235174447,-187500.02235174447,1730412143.31932,1730412142.9171937,5000
-3971.837934474699,-187500.02235174447,17576.62952859754,-187500.02235174447,-187500.02235174447,-187500.02235174447,-187500.02235174447,-187500.02235174447,1730412143.3235304,1730412142.9171937,5000
-3967.591103028191,-187500.02235174447,17650.323230066686,-187500.02235174447,-187500.02235174447,-187500.02235174447,-187500.02235174447,-187500.02235174447,1730412143.327312,1730412142.9171937,5000
-3913.544584935258,-187500.02235174447,17669.50102680934,-187500.02235174447,-187500.02235174447,-187500.02235174447,-187500.02235174447,-187500.02235174447,1730412143.3314123,1730412142.9171937,5000
-3721.163120408431,-187500.02235174447,17653.318363823695,-187500.02235174447,-187500.02235174447,-187500.02235174447,-187500.02235174447,-187500.02235174447,1730412143.33533,1730412142.9171937,5000
-3808.2455168063066,-187500.02235174447,17530.18260361941,-187500.02235174447,-187500.02235174447,-187500.02235174447,-187500.02235174447,-187500.02235174447,1730412143.3393269,1730412142.9171937,5000
-3993.7202922964448,-187500.02235174447,17657.252270847832,-187500.02235174447,-187500.02235174447,-187500.02235174447,-187500.02235174447,-187500.02235174447,1730412143.3443656,1730412142.9171937,5000
-3770.135792510008,-187500.02235174447,17662.527282539282,-187500.02235174447,-187500.02235174447,-187500.02235174447,-187500.02235174447,-187500.02235174447,1730412143.3475046,1730412142.9171937,5000
-3844.075363168164,-187500.02235174447,17655.665296991505,-187500.02235174447,-187500.02235174447,-187500.02235174447,-187500.02235174447,-187500.02235174447,1730412143.351302,1730412142.9171937,5000
-4065.80466816481,-187500.02235174447,17595.91908406247,-187500.02235174447,-187500.02235174447,-187500.02235174447,-187500.02235174447,-187500.02235174447,1730412143.3555202,1730412142.9171937,5000
-4046.8280371222554,-187500.02235174447,17527.053359395668,-187500.02235174447,-187500.02235174447,-187500.02235174447,-187500.02235174447,-187500.02235174447,1730412143.359332,1730412142.9171937,5000
-4013.769807072855,-187500.02235174447,17713.623370364116,-187500.02235174447,-187500.02235174447,-187500.02235174447,-187500.02235174447,-187500.02235174447,1730412143.3634467,1730412142.9171937,5000
-3746.6888125763912,-187500.02235174447,17794.156705636586,-187500.02235174447,-187500.02235174447,-187500.02235174447,-187500.02235174447,-187500.02235174447,1730412143.3673787,1730412142.9171937,5000
-3872.1268024595743,-187500.02235174447,17791.273330601853,-187500.02235174447,-187500.02235174447,-187500.02235174447,-187500.02235174447,-187500.02235174447,1730412143.372476,1730412142.9171937,5000
-4116.230203655983,-187500.02235174447,17704.056823737243,-187500.02235174447,-187500.02235174447,-187500.02235174447,-187500.02235174447,-187500.02235174447,1730412143.375384,1730412142.9171937,5000
-3995.799004530789,-187500.02235174447,17706.180239460497,-187500.02235174447,-187500.02235174447,-187500.02235174447,-187500.02235174447,-187500.02235174447,1730412143.3794763,1730412142.9171937,5000
-3926.799169397256,-187500.02235174447,17661.856730205625,-187500.02235174447,-187500.02235174447,-187500.02235174447,-187500.02235174447,-187500.02235174447,1730412143.383546,1730412142.9171937,5000
-3941.014878870831,-187500.02235174447,17657.721657481394,-187500.02235174447,-187500.02235174447,-187500.02235174447,-187500.02235174447,-187500.02235174447,1730412143.387418,1730412142.9171937,5000
-3786.676083406936,-187500.02235174447,17686.80127701775,-187500.02235174447,-187500.02235174447,-187500.02235174447,-187500.02235174447,-187500.02235174447,1730412143.3913972,1730412142.9171937,5000
-3914.7962826247553,-187500.02235174447,17696.01019573333,-187500.02235174447,-187500.02235174447,-187500.02235174447,-187500.02235174447,-187500.02235174447,1730412143.3954723,1730412142.9171937,5000
-4041.262452752883,-187500.02235174447,17677.659413535526,-187500.02235174447,-187500.02235174447,-187500.02235174447,-187500.02235174447,-187500.02235174447,1730412143.3995328,1730412142.9171937,5000
-3977.895257222088,-187500.02235174447,17606.20088651191,-187500.02235174447,-187500.02235174447,-187500.02235174447,-187500.02235174447,-187500.02235174447,1730412143.4024825,1730412142.9171937,5000
-3949.575596997213,-187500.02235174447,17572.159179706476,-187500.02235174447,-187500.02235174447,-187500.02235174447,-187500.02235174447,-187500.02235174447,1730412143.4064355,1730412142.9171937,5000
-3923.0887798176745,-187500.02235174447,17698.69240506797,-187500.02235174447,-187500.02235174447,-187500.02235174447,-187500.02235174447,-187500.02235174447,1730412143.4114363,1730412142.9171937,5000
-3853.3513371171166,-187500.02235174447,17796.168362637563,-187500.02235174447,-187500.02235174447,-187500.02235174447,-187500.02235174447,-187500.02235174447,1730412143.415615,1730412142.9171937,5000
-3846.377592847061,-187500.02235174447,17702.559256858738,-187500.02235174447,-187500.02235174447,-187500.02235174447,-187500.02235174447,-187500.02235174447,1730412143.41955,1730412142.9171937,5000
-3974.967178698442,-187500.02235174447,17629.06672108969,-187500.02235174447,-187500.02235174447,-187500.02235174447,-187500.02235174447,-187500.02235174447,1730412143.423581,1730412142.9171937,5000
-4046.13513304414,-187500.02235174447,17680.58749205917,-187500.02235174447,-187500.02235174447,-187500.02235174447,-187500.02235174447,-187500.02235174447,1730412143.427626,1730412142.9171937,5000
-3917.9255268484985,-187500.02235174447,17618.561401195693,-187500.02235174447,-187500.02235174447,-187500.02235174447,-187500.02235174447,-187500.02235174447,1730412143.430478,1730412142.9171937,5000
-3857.665223796991,-187500.02235174447,17616.0580058167,-187500.02235174447,-187500.02235174447,-187500.02235174447,-187500.02235174447,-187500.02235174447,1730412143.4355233,1730412142.9171937,5000
-3764.726670351824,-187500.02235174447,17687.695346795957,-187500.02235174447,-187500.02235174447,-187500.02235174447,-187500.02235174447,-187500.02235174447,1730412143.439509,1730412142.9171937,5000
-3913.231660512884,-187500.02235174447,17774.71068796047,-187500.02235174447,-187500.02235174447,-187500.02235174447,-187500.02235174447,-187500.02235174447,1730412143.4434931,1730412142.9171937,5000
-4017.770769330355,-187500.02235174447,17743.418245723038,-187500.02235174447,-187500.02235174447,-187500.02235174447,-187500.02235174447,-187500.02235174447,1730412143.4476166,1730412142.9171937,5000
-4015.870871051654,-187500.02235174447,17715.724434342916,-187500.02235174447,-187500.02235174447,-187500.02235174447,-187500.02235174447,-187500.02235174447,1730412143.4515162,1730412142.9171937,5000
-3962.383146570104,-187500.02235174447,17681.39215485956,-187500.02235174447,-187500.02235174447,-187500.02235174447,-187500.02235174447,-187500.02235174447,1730412143.4545715,1730412142.9171937,5000
-3864.661319811502,-187500.02235174447,17684.521399083307,-187500.02235174447,-187500.02235174447,-187500.02235174447,-187500.02235174447,-187500.02235174447,1730412143.4587553,1730412142.9171937,5000
-3968.462821061948,-187500.02235174447,17654.63711674656,-187500.02235174447,-187500.02235174447,-187500.02235174447,-187500.02235174447,-187500.02235174447,1730412143.4627173,1730412142.9171937,5000
-3906.123805776097,-187500.02235174447,17674.88779722307,-187500.02235174447,-187500.02235174447,-187500.02235174447,-187500.02235174447,-187500.02235174447,1730412143.4675496,1730412142.9171937,5000
-3924.295774018261,-187500.02235174447,17741.719513144435,-187500.02235174447,-187500.02235174447,-187500.02235174447,-187500.02235174447,-187500.02235174447,1730412143.471734,1730412142.9171937,5000
-3863.43197386646,-187500.02235174447,17747.866242869644,-187500.02235174447,-187500.02235174447,-187500.02235174447,-187500.02235174447,-187500.02235174447,1730412143.475662,1730412142.9171937,5000
-3785.916124095455,-187500.02235174447,17738.99260032089,-187500.02235174447,-187500.02235174447,-187500.02235174447,-187500.02235174447,-187500.02235174447,1730412143.479771,1730412142.9171937,5000
-4023.425760677548,-187500.02235174447,17640.510814250807,-187500.02235174447,-187500.02235174447,-187500.02235174447,-187500.02235174447,-187500.02235174447,1730412143.4826276,1730412142.9171937,5000
-4025.5938798897128,-187500.02235174447,17582.552740878196,-187500.02235174447,-187500.02235174447,-187500.02235174447,-187500.02235174447,-187500.02235174447,1730412143.4867368,1730412142.9171937,5000
-3974.900123465077,-187500.02235174447,17704.369748159617,-187500.02235174447,-187500.02235174447,-187500.02235174447,-187500.02235174447,-187500.02235174447,1730412143.4908412,1730412142.9171937,5000
-4028.097275268707,-187500.02235174447,17757.388086007606,-187500.02235174447,-187500.02235174447,-187500.02235174447,-187500.02235174447,-187500.02235174447,1730412143.495918,1730412142.9171937,5000
-3995.687245808512,-187500.02235174447,17737.427978209016,-187500.02235174447,-187500.02235174447,-187500.02235174447,-187500.02235174447,-187500.02235174447,1730412143.4995954,1730412142.9171937,5000
-3944.6358614725914,-187500.02235174447,17719.27836171131,-187500.02235174447,-187500.02235174447,-187500.02235174447,-187500.02235174447,-187500.02235174447,1730412143.5037255,1730412142.9171937,5000
-3933.5493962227583,-187500.02235174447,17643.0142096298,-187500.02235174447,-187500.02235174447,-187500.02235174447,-187500.02235174447,-187500.02235174447,1730412143.5066354,1730412142.9171937,5000
-3950.3132045642383,-187500.02235174447,17605.038595800233,-187500.02235174447,-187500.02235174447,-187500.02235174447,-187500.02235174447,-187500.02235174447,1730412143.510696,1730412142.9171937,5000
-3925.927451363498,-187500.02235174447,17680.185160658977,-187500.02235174447,-187500.02235174447,-187500.02235174447,-187500.02235174447,-187500.02235174447,1730412143.5147777,1730412142.9171937,5000
-3950.1567423530514,-187500.02235174447,17660.649736005038,-187500.02235174447,-187500.02235174447,-187500.02235174447,-187500.02235174447,-187500.02235174447,1730412143.518736,1730412142.9171937,5000
-3786.519621195748,-187500.02235174447,17711.41054766304,-187500.02235174447,-187500.02235174447,-187500.02235174447,-187500.02235174447,-187500.02235174447,1730412143.523624,1730412142.9171937,5000
-3874.205514693918,-187500.02235174447,17732.108263028655,-187500.02235174447,-187500.02235174447,-187500.02235174447,-187500.02235174447,-187500.02235174447,1730412143.5288513,1730412142.9171937,5000
-3936.6339369575903,-187500.02235174447,17697.239541678377,-187500.02235174447,-187500.02235174447,-187500.02235174447,-187500.02235174447,-187500.02235174447,1730412143.5318396,1730412142.9171937,5000
-3931.716553177423,-187500.02235174447,17677.413544346517,-187500.02235174447,-187500.02235174447,-187500.02235174447,-187500.02235174447,-187500.02235174447,1730412143.535778,1730412142.9171937,5000
-4047.409182478092,-187500.02235174447,17652.759570212314,-187500.02235174447,-187500.02235174447,-187500.02235174447,-187500.02235174447,-187500.02235174447,1730412143.5388424,1730412142.9171937,5000
-3964.350100082171,-187500.02235174447,17764.89827214459,-187500.02235174447,-187500.02235174447,-187500.02235174447,-187500.02235174447,-187500.02235174447,1730412143.542784,1730412142.9171937,5000
-3906.459081942926,-187500.02235174447,17747.262745769352,-187500.02235174447,-187500.02235174447,-187500.02235174447,-187500.02235174447,-187500.02235174447,1730412143.5468338,1730412142.9171937,5000
-3838.643889265524,-187500.02235174447,17752.716571416448,-187500.02235174447,-187500.02235174447,-187500.02235174447,-187500.02235174447,-187500.02235174447,1730412143.5507038,1730412142.9171937,5000
-3846.198778891418,-187500.02235174447,17722.94404780198,-187500.02235174447,-187500.02235174447,-187500.02235174447,-187500.02235174447,-187500.02235174447,1730412143.5557165,1730412142.9171937,5000
-3967.7475652393778,-187500.02235174447,17694.60203583265,-187500.02235174447,-187500.02235174447,-187500.02235174447,-187500.02235174447,-187500.02235174447,1730412143.559694,1730412142.9171937,5000
-3999.97878074393,-187500.02235174447,17692.657434065037,-187500.02235174447,-187500.02235174447,-187500.02235174447,-187500.02235174447,-187500.02235174447,1730412143.562752,1730412142.9171937,5000
-4007.064283736263,-187500.02235174447,17708.75069007286,-187500.02235174447,-187500.02235174447,-187500.02235174447,-187500.02235174447,-187500.02235174447,1730412143.5668323,1730412142.9171937,5000
-3967.300530350272,-187500.02235174447,17704.682672581992,-187500.02235174447,-187500.02235174447,-187500.02235174447,-187500.02235174447,-187500.02235174447,1730412143.570772,1730412142.9171937,5000
-3993.2732574073375,-187500.02235174447,17731.102434528166,-187500.02235174447,-187500.02235174447,-187500.02235174447,-187500.02235174447,-187500.02235174447,1730412143.574765,1730412142.9171937,5000
-3904.313314475216,-187500.02235174447,17727.928486815512,-187500.02235174447,-187500.02235174447,-187500.02235174447,-187500.02235174447,-187500.02235174447,1730412143.578884,1730412142.9171937,5000
-3961.220855858429,-187500.02235174447,17681.16863741501,-187500.02235174447,-187500.02235174447,-187500.02235174447,-187500.02235174447,-187500.02235174447,1730412143.5837402,1730412142.9171937,5000
-3940.389030026082,-187500.02235174447,17695.384346888586,-187500.02235174447,-187500.02235174447,-187500.02235174447,-187500.02235174447,-187500.02235174447,1730412143.5878246,1730412142.9171937,5000
-3948.010974885342,-187500.02235174447,17722.27349546832,-187500.02235174447,-187500.02235174447,-187500.02235174447,-187500.02235174447,-187500.02235174447,1730412143.590777,1730412142.9171937,5000
-3943.87590216111,-187500.02235174447,17708.817745306224,-187500.02235174447,-187500.02235174447,-187500.02235174447,-187500.02235174447,-187500.02235174447,1730412143.5948348,1730412142.9171937,5000
-3970.496829807381,-187500.02235174447,17701.039338235776,-187500.02235174447,-187500.02235174447,-187500.02235174447,-187500.02235174447,-187500.02235174447,1730412143.598729,1730412142.9171937,5000
-3978.8116787447543,-187500.02235174447,17720.574762889715,-187500.02235174447,-187500.02235174447,-187500.02235174447,-187500.02235174447,-187500.02235174447,1730412143.6028106,1730412142.9171937,5000
-3959.2539023463614,-187500.02235174447,17710.494126140373,-187500.02235174447,-187500.02235174447,-187500.02235174447,-187500.02235174447,-187500.02235174447,1730412143.6068113,1730412142.9171937,5000
-3944.434695772493,-187500.02235174447,17703.07334698121,-187500.02235174447,-187500.02235174447,-187500.02235174447,-187500.02235174447,-187500.02235174447,1730412143.6118078,1730412142.9171937,5000
-3889.0247212677855,-187500.02235174447,17691.27162590881,-187500.02235174447,-187500.02235174447,-187500.02235174447,-187500.02235174447,-187500.02235174447,1730412143.6158917,1730412142.9171937,5000
-3914.3715994801046,-187500.02235174447,17665.768285485305,-187500.02235174447,-187500.02235174447,-187500.02235174447,-187500.02235174447,-187500.02235174447,1730412143.6188042,1730412142.9171937,5000
-3940.3666782816263,-187500.02235174447,17690.534018341783,-187500.02235174447,-187500.02235174447,-187500.02235174447,-187500.02235174447,-187500.02235174447,1730412143.6228688,1730412142.9171937,5000
-3922.7758553953,-187500.02235174447,17751.621335938136,-187500.02235174447,-187500.02235174447,-187500.02235174447,-187500.02235174447,-187500.02235174447,1730412143.6268196,1730412142.9171937,5000
-3928.073218831208,-187500.02235174447,17756.404609251575,-187500.02235174447,-187500.02235174447,-187500.02235174447,-187500.02235174447,-187500.02235174447,1730412143.630842,1730412142.9171937,5000
-4052.460676724992,-187500.02235174447,17696.65839632254,-187500.02235174447,-187500.02235174447,-187500.02235174447,-187500.02235174447,-187500.02235174447,1730412143.6348033,1730412142.9171937,5000
-4025.906804312087,-187500.02235174447,17716.707911098947,-187500.02235174447,-187500.02235174447,-187500.02235174447,-187500.02235174447,-187500.02235174447,1730412143.6399567,1730412142.9171937,5000
-3976.0847659212072,-187500.02235174447,17726.27445772582,-187500.02235174447,-187500.02235174447,-187500.02235174447,-187500.02235174447,-187500.02235174447,1730412143.6428068,1730412142.9171937,5000
-3932.074181088708,-187500.02235174447,17723.726358857915,-187500.02235174447,-187500.02235174447,-187500.02235174447,-187500.02235174447,-187500.02235174447,1730412143.645992,1730412142.9171937,5000
-3950.4696667754256,-187500.02235174447,17701.41931789152,-187500.02235174447,-187500.02235174447,-187500.02235174447,-187500.02235174447,-187500.02235174447,1730412143.6508138,1730412142.9171937,5000
-3933.2588235448393,-187500.02235174447,17686.55540782874,-187500.02235174447,-187500.02235174447,-187500.02235174447,-187500.02235174447,-187500.02235174447,1730412143.654831,1730412142.9171937,5000
-3896.043169026753,-187500.02235174447,17695.384346888586,-187500.02235174447,-187500.02235174447,-187500.02235174447,-187500.02235174447,-187500.02235174447,1730412143.6588776,1730412142.9171937,5000
-3961.869056447632,-187500.02235174447,17738.79143462079,-187500.02235174447,-187500.02235174447,-187500.02235174447,-187500.02235174447,-187500.02235174447,1730412143.6628811,1730412142.9171937,5000
-3973.5590187977577,-187500.02235174447,17720.30654195625,-187500.02235174447,-187500.02235174447,-187500.02235174447,-187500.02235174447,-187500.02235174447,1730412143.6678536,1730412142.9171937,5000
-3933.4376375004817,-187500.02235174447,17725.55920190325,-187500.02235174447,-187500.02235174447,-187500.02235174447,-187500.02235174447,-187500.02235174447,1730412143.6709309,1730412142.9171937,5000
-3981.203315401473,-187500.02235174447,17716.238524465385,-187500.02235174447,-187500.02235174447,-187500.02235174447,-187500.02235174447,-187500.02235174447,1730412143.6738837,1730412142.9171937,5000
-4008.807719803777,-187500.02235174447,17697.59716958966,-187500.02235174447,-187500.02235174447,-187500.02235174447,-187500.02235174447,-187500.02235174447,1730412143.678907,1730412142.9171937,5000
-3940.232567814895,-187500.02235174447,17718.22782972191,-187500.02235174447,-187500.02235174447,-187500.02235174447,-187500.02235174447,-187500.02235174447,1730412143.6829152,1730412142.9171937,5000
-3897.6748463719914,-187500.02235174447,17733.806995607258,-187500.02235174447,-187500.02235174447,-187500.02235174447,-187500.02235174447,-187500.02235174447,1730412143.6870625,1730412142.9171937,5000
-4011.489929138414,-187500.02235174447,17720.26183846734,-187500.02235174447,-187500.02235174447,-187500.02235174447,-187500.02235174447,-187500.02235174447,1730412143.692906,1730412142.9171937,5000
-3957.085783134197,-187500.02235174447,17731.84004209519,-187500.02235174447,-187500.02235174447,-187500.02235174447,-187500.02235174447,-187500.02235174447,1730412143.6960008,1730412142.9171937,5000
-3990.099309694685,-187500.02235174447,17738.590268920692,-187500.02235174447,-187500.02235174447,-187500.02235174447,-187500.02235174447,-187500.02235174447,1730412143.6989331,1730412142.9171937,5000
-3934.890500890077,-187500.02235174447,17725.447443180972,-187500.02235174447,-187500.02235174447,-187500.02235174447,-187500.02235174447,-187500.02235174447,1730412143.7019763,1730412142.9171937,5000
-3872.864410026599,-187500.02235174447,17727.146175759575,-187500.02235174447,-187500.02235174447,-187500.02235174447,-187500.02235174447,-187500.02235174447,1730412143.7069364,1730412142.9171937,5000
-3920.8759571165992,-187500.02235174447,17746.41337948005,-187500.02235174447,-187500.02235174447,-187500.02235174447,-187500.02235174447,-187500.02235174447,1730412143.7109065,1730412142.9171937,5000
-3999.196469687995,-187500.02235174447,17711.83523080769,-187500.02235174447,-187500.02235174447,-187500.02235174447,-187500.02235174447,-187500.02235174447,1730412143.7151031,1730412142.9171937,5000
-3986.3218648817374,-187500.02235174447,17685.013137461323,-187500.02235174447,-187500.02235174447,-187500.02235174447,-187500.02235174447,-187500.02235174447,1730412143.7190244,1730412142.9171937,5000
-4025.4150659340703,-187500.02235174447,17709.689463339982,-187500.02235174447,-187500.02235174447,-187500.02235174447,-187500.02235174447,-187500.02235174447,1730412143.7231245,1730412142.9171937,5000
-3949.0838586191967,-187500.02235174447,17734.052864796267,-187500.02235174447,-187500.02235174447,-187500.02235174447,-187500.02235174447,-187500.02235174447,1730412143.7259903,1730412142.9171937,5000
-3982.45501309097,-187500.02235174447,17752.336591760708,-187500.02235174447,-187500.02235174447,-187500.02235174447,-187500.02235174447,-187500.02235174447,1730412143.7300117,1730412142.9171937,5000
-3975.995358943386,-187500.02235174447,17730.074254283223,-187500.02235174447,-187500.02235174447,-187500.02235174447,-187500.02235174447,-187500.02235174447,1730412143.7350388,1730412142.9171937,5000
-3942.288928304783,-187500.02235174447,17718.47369891092,-187500.02235174447,-187500.02235174447,-187500.02235174447,-187500.02235174447,-187500.02235174447,1730412143.7389984,1730412142.9171937,5000
-3916.3832564810814,-187500.02235174447,17706.224942949408,-187500.02235174447,-187500.02235174447,-187500.02235174447,-187500.02235174447,-187500.02235174447,1730412143.7430346,1730412142.9171937,5000
-3927.268556030817,-187500.02235174447,17746.972173091435,-187500.02235174447,-187500.02235174447,-187500.02235174447,-187500.02235174447,-187500.02235174447,1730412143.747254,1730412142.9171937,5000
-4001.476347622436,-187500.02235174447,17720.977094289912,-187500.02235174447,-187500.02235174447,-187500.02235174447,-187500.02235174447,-187500.02235174447,1730412143.7501285,1730412142.9171937,5000
-4008.539498870313,-187500.02235174447,17719.188954733487,-187500.02235174447,-187500.02235174447,-187500.02235174447,-187500.02235174447,-187500.02235174447,1730412143.7541137,1730412142.9171937,5000
-3970.3403675961936,-187500.02235174447,17737.919716587036,-187500.02235174447,-187500.02235174447,-187500.02235174447,-187500.02235174447,-187500.02235174447,1730412143.7580533,1730412142.9171937,5000
-3983.21497240245,-187500.02235174447,17739.819614865733,-187500.02235174447,-187500.02235174447,-187500.02235174447,-187500.02235174447,-187500.02235174447,1730412143.762111,1730412142.9171937,5000
-3969.245132117884,-187500.02235174447,17734.07521654072,-187500.02235174447,-187500.02235174447,-187500.02235174447,-187500.02235174447,-187500.02235174447,1730412143.7670505,1730412142.9171937,5000
-3965.6912047494898,-187500.02235174447,17721.26766696783,-187500.02235174447,-187500.02235174447,-187500.02235174447,-187500.02235174447,-187500.02235174447,1730412143.7710843,1730412142.9171937,5000
-3973.6707775200334,-187500.02235174447,17713.377501175106,-187500.02235174447,-187500.02235174447,-187500.02235174447,-187500.02235174447,-187500.02235174447,1730412143.775149,1730412142.9171937,5000
-3968.082841406208,-187500.02235174447,17721.468832667928,-187500.02235174447,-187500.02235174447,-187500.02235174447,-187500.02235174447,-187500.02235174447,1730412143.778231,1730412142.9171937,5000
-3970.876809463121,-187500.02235174447,17704.325044670706,-187500.02235174447,-187500.02235174447,-187500.02235174447,-187500.02235174447,-187500.02235174447,1730412143.782128,1730412142.9171937,5000
-3961.511428536348,-187500.02235174447,17697.64187307857,-187500.02235174447,-187500.02235174447,-187500.02235174447,-187500.02235174447,-187500.02235174447,1730412143.7863398,1730412142.9171937,5000
-3907.8225383547,-187500.02235174447,17745.966344590946,-187500.02235174447,-187500.02235174447,-187500.02235174447,-187500.02235174447,-187500.02235174447,1730412143.790131,1730412142.9171937,5000
-3926.173320552507,-187500.02235174447,17756.18109180702,-187500.02235174447,-187500.02235174447,-187500.02235174447,-187500.02235174447,-187500.02235174447,1730412143.7941823,1730412142.9171937,5000
-3949.642652230579,-187500.02235174447,17755.17526330653,-187500.02235174447,-187500.02235174447,-187500.02235174447,-187500.02235174447,-187500.02235174447,1730412143.7992349,1730412142.9171937,5000
-3977.939960710998,-187500.02235174447,17720.03832102279,-187500.02235174447,-187500.02235174447,-187500.02235174447,-187500.02235174447,-187500.02235174447,1730412143.8033266,1730412142.9171937,5000
-3965.5123907938473,-187500.02235174447,17707.007254005344,-187500.02235174447,-187500.02235174447,-187500.02235174447,-187500.02235174447,-187500.02235174447,1730412143.80613,1730412142.9171937,5000
-3991.2392486619055,-187500.02235174447,17748.64855392558,-187500.02235174447,-187500.02235174447,-187500.02235174447,-187500.02235174447,-187500.02235174447,1730412143.8102455,1730412142.9171937,5000
-3959.6338820021015,-187500.02235174447,17783.964310164967,-187500.02235174447,-187500.02235174447,-187500.02235174447,-187500.02235174447,-187500.02235174447,1730412143.8141897,1730412142.9171937,5000
-3959.924454680021,-187500.02235174447,17744.625239923625,-187500.02235174447,-187500.02235174447,-187500.02235174447,-187500.02235174447,-187500.02235174447,1730412143.8181643,1730412142.9171937,5000
-3955.252940088861,-187500.02235174447,17745.18403353501,-187500.02235174447,-187500.02235174447,-187500.02235174447,-187500.02235174447,-187500.02235174447,1730412143.8231196,1730412142.9171937,5000
-3958.516294779336,-187500.02235174447,17762.506635487873,-187500.02235174447,-187500.02235174447,-187500.02235174447,-187500.02235174447,-187500.02235174447,1730412143.8271365,1730412142.9171937,5000
-3952.056640631753,-187500.02235174447,17757.298679029784,-187500.02235174447,-187500.02235174447,-187500.02235174447,-187500.02235174447,-187500.02235174447,1730412143.8313055,1730412142.9171937,5000
-3924.7651606518234,-187500.02235174447,17724.441614680483,-187500.02235174447,-187500.02235174447,-187500.02235174447,-187500.02235174447,-187500.02235174447,1730412143.83417,1730412142.9171937,5000
-3950.603777242157,-187500.02235174447,17732.108263028655,-187500.02235174447,-187500.02235174447,-187500.02235174447,-187500.02235174447,-187500.02235174447,1730412143.8382485,1730412142.9171937,5000
-3962.986643670397,-187500.02235174447,17761.389048265108,-187500.02235174447,-187500.02235174447,-187500.02235174447,-187500.02235174447,-187500.02235174447,1730412143.8422036,1730412142.9171937,5000
-3990.144013183596,-187500.02235174447,17783.00318515339,-187500.02235174447,-187500.02235174447,-187500.02235174447,-187500.02235174447,-187500.02235174447,1730412143.8464303,1730412142.9171937,5000
-3985.852478248177,-187500.02235174447,17760.98671686491,-187500.02235174447,-187500.02235174447,-187500.02235174447,-187500.02235174447,-187500.02235174447,1730412143.850212,1730412142.9171937,5000
-3957.6892802344896,-187500.02235174447,17757.857472641168,-187500.02235174447,-187500.02235174447,-187500.02235174447,-187500.02235174447,-187500.02235174447,1730412143.8553374,1730412142.9171937,5000
-3962.249036103373,-187500.02235174447,17760.092647086698,-187500.02235174447,-187500.02235174447,-187500.02235174447,-187500.02235174447,-187500.02235174447,1730412143.8583856,1730412142.9171937,5000
-3982.7455857688888,-187500.02235174447,17757.723362174434,-187500.02235174447,-187500.02235174447,-187500.02235174447,-187500.02235174447,-187500.02235174447,1730412143.8623023,1730412142.9171937,5000
-3953.442448787981,-187500.02235174447,17751.397818493584,-187500.02235174447,-187500.02235174447,-187500.02235174447,-187500.02235174447,-187500.02235174447,1730412143.8664176,1730412142.9171937,5000
-3954.649442988568,-187500.02235174447,17763.445408754993,-187500.02235174447,-187500.02235174447,-187500.02235174447,-187500.02235174447,-187500.02235174447,1730412143.8703616,1730412142.9171937,5000
-3920.853605372144,-187500.02235174447,17778.264615328862,-187500.02235174447,-187500.02235174447,-187500.02235174447,-187500.02235174447,-187500.02235174447,1730412143.8743098,1730412142.9171937,5000
-3966.361757083149,-187500.02235174447,17765.926452389533,-187500.02235174447,-187500.02235174447,-187500.02235174447,-187500.02235174447,-187500.02235174447,1730412143.8784096,1730412142.9171937,5000
-3993.586181829713,-187500.02235174447,17737.495033442385,-187500.02235174447,-187500.02235174447,-187500.02235174447,-187500.02235174447,-187500.02235174447,1730412143.88341,1730412142.9171937,5000
-3917.9478785929537,-187500.02235174447,17751.95661210497,-187500.02235174447,-187500.02235174447,-187500.02235174447,-187500.02235174447,-187500.02235174447,1730412143.8863568,1730412142.9171937,5000
-3957.9798529124087,-187500.02235174447,17789.798115467802,-187500.02235174447,-187500.02235174447,-187500.02235174447,-187500.02235174447,-187500.02235174447,1730412143.890339,1730412142.9171937,5000
-4025.862100823176,-187500.02235174447,17797.554170793792,-187500.02235174447,-187500.02235174447,-187500.02235174447,-187500.02235174447,-187500.02235174447,1730412143.894311,1730412142.9171937,5000
-3972.329672852716,-187500.02235174447,17780.611548496672,-187500.02235174447,-187500.02235174447,-187500.02235174447,-187500.02235174447,-187500.02235174447,1730412143.8983457,1730412142.9171937,5000
-3940.59019572618,-187500.02235174447,17753.007144094365,-187500.02235174447,-187500.02235174447,-187500.02235174447,-187500.02235174447,-187500.02235174447,1730412143.9023457,1730412142.9171937,5000
-3943.853550416655,-187500.02235174447,17752.60481269417,-187500.02235174447,-187500.02235174447,-187500.02235174447,-187500.02235174447,-187500.02235174447,1730412143.9064302,1730412142.9171937,5000
-3964.327748337716,-187500.02235174447,17777.66111822857,-187500.02235174447,-187500.02235174447,-187500.02235174447,-187500.02235174447,-187500.02235174447,1730412143.911308,1730412142.9171937,5000
-3970.608588529657,-187500.02235174447,17788.792286967313,-187500.02235174447,-187500.02235174447,-187500.02235174447,-187500.02235174447,-187500.02235174447,1730412143.9153404,1730412142.9171937,5000
-3950.737887708889,-187500.02235174447,17763.17718782153,-187500.02235174447,-187500.02235174447,-187500.02235174447,-187500.02235174447,-187500.02235174447,1730412143.9182985,1730412142.9171937,5000
-3978.07407117773,-187500.02235174447,17767.044039612298,-187500.02235174447,-187500.02235174447,-187500.02235174447,-187500.02235174447,-187500.02235174447,1730412143.922465,1730412142.9171937,5000
-3992.021559717841,-187500.02235174447,17790.17809512354,-187500.02235174447,-187500.02235174447,-187500.02235174447,-187500.02235174447,-187500.02235174447,1730412143.9263124,1730412142.9171937,5000
-3991.753338784378,-187500.02235174447,17785.216007854462,-187500.02235174447,-187500.02235174447,-187500.02235174447,-187500.02235174447,-187500.02235174447,1730412143.930329,1730412142.9171937,5000
-3972.866114719643,-187500.02235174447,17776.029440883332,-187500.02235174447,-187500.02235174447,-187500.02235174447,-187500.02235174447,-187500.02235174447,1730412143.93433,1730412142.9171937,5000
-4001.230478433428,-187500.02235174447,17758.75154241938,-187500.02235174447,-187500.02235174447,-187500.02235174447,-187500.02235174447,-187500.02235174447,1730412143.93939,1730412142.9171937,5000
-3961.891408192088,-187500.02235174447,17782.287929330818,-187500.02235174447,-187500.02235174447,-187500.02235174447,-187500.02235174447,-187500.02235174447,1730412143.9424267,1730412142.9171937,5000
-3919.311335004728,-187500.02235174447,17811.658121545093,-187500.02235174447,-187500.02235174447,-187500.02235174447,-187500.02235174447,-187500.02235174447,1730412143.946458,1730412142.9171937,5000
-3902.547526663247,-187500.02235174447,17783.651385742593,-187500.02235174447,-187500.02235174447,-187500.02235174447,-187500.02235174447,-187500.02235174447,1730412143.9503455,1730412142.9171937,5000
-4007.734836069922,-187500.02235174447,17766.75346693438,-187500.02235174447,-187500.02235174447,-187500.02235174447,-187500.02235174447,-187500.02235174447,1730412143.9543765,1730412142.9171937,5000
-3986.0759956927295,-187500.02235174447,17779.583368251726,-187500.02235174447,-187500.02235174447,-187500.02235174447,-187500.02235174447,-187500.02235174447,1730412143.958476,1730412142.9171937,5000
-3961.846704703177,-187500.02235174447,17792.972063180456,-187500.02235174447,-187500.02235174447,-187500.02235174447,-187500.02235174447,-187500.02235174447,1730412143.9624553,1730412142.9171937,5000
-3957.778687212311,-187500.02235174447,17771.26851931435,-187500.02235174447,-187500.02235174447,-187500.02235174447,-187500.02235174447,-187500.02235174447,1730412143.9655125,1730412142.9171937,5000
-3982.6338270466126,-187500.02235174447,17763.199539565987,-187500.02235174447,-187500.02235174447,-187500.02235174447,-187500.02235174447,-187500.02235174447,1730412143.9695687,1730412142.9171937,5000
-3983.818469502744,-187500.02235174447,17774.621280982647,-187500.02235174447,-187500.02235174447,-187500.02235174447,-187500.02235174447,-187500.02235174447,1730412143.9736924,1730412142.9171937,5000
-3985.003111958875,-187500.02235174447,17773.90602516008,-187500.02235174447,-187500.02235174447,-187500.02235174447,-187500.02235174447,-187500.02235174447,1730412143.9786575,1730412142.9171937,5000
-3976.062414176752,-187500.02235174447,17748.0897603142,-187500.02235174447,-187500.02235174447,-187500.02235174447,-187500.02235174447,-187500.02235174447,1730412143.9826465,1730412142.9171937,5000
-3954.7835534553,-187500.02235174447,17767.066391356755,-187500.02235174447,-187500.02235174447,-187500.02235174447,-187500.02235174447,-187500.02235174447,1730412143.9864738,1730412142.9171937,5000
-3973.424908331026,-187500.02235174447,17792.077993402243,-187500.02235174447,-187500.02235174447,-187500.02235174447,-187500.02235174447,-187500.02235174447,1730412143.9905336,1730412142.9171937,5000
-3978.40934734456,-187500.02235174447,17777.549359506294,-187500.02235174447,-187500.02235174447,-187500.02235174447,-187500.02235174447,-187500.02235174447,1730412143.9934404,1730412142.9171937,5000
-3961.332614580705,-187500.02235174447,17776.498827516894,-187500.02235174447,-187500.02235174447,-187500.02235174447,-187500.02235174447,-187500.02235174447,1730412143.9982796,1730412142.9171937,5000
-3943.227701571906,-187500.02235174447,17773.347231548694,-187500.02235174447,-187500.02235174447,-187500.02235174447,-187500.02235174447,-187500.02235174447,1730412144.001442,1730412142.9171937,5000
-3973.067280419741,-187500.02235174447,17755.17526330653,-187500.02235174447,-187500.02235174447,-187500.02235174447,-187500.02235174447,-187500.02235174447,1730412144.006482,1730412142.9171937,5000
-3975.2353996319057,-187500.02235174447,17760.539681975806,-187500.02235174447,-187500.02235174447,-187500.02235174447,-187500.02235174447,-187500.02235174447,1730412144.0105493,1730412142.9171937,5000
-3958.851570946166,-187500.02235174447,17781.639728741615,-187500.02235174447,-187500.02235174447,-187500.02235174447,-187500.02235174447,-187500.02235174447,1730412144.0145464,1730412142.9171937,5000
-3980.0186729453417,-187500.02235174447,17762.573690721238,-187500.02235174447,-187500.02235174447,-187500.02235174447,-187500.02235174447,-187500.02235174447,1730412144.0187347,1730412142.9171937,5000
-3976.576504299224,-187500.02235174447,17751.80014989378,-187500.02235174447,-187500.02235174447,-187500.02235174447,-187500.02235174447,-187500.02235174447,1730412144.021629,1730412142.9171937,5000
-3960.818524458233,-187500.02235174447,17774.174246093542,-187500.02235174447,-187500.02235174447,-187500.02235174447,-187500.02235174447,-187500.02235174447,1730412144.0255198,1730412142.9171937,5000
-3967.7475652393778,-187500.02235174447,17786.266539843862,-187500.02235174447,-187500.02235174447,-187500.02235174447,-187500.02235174447,-187500.02235174447,1730412144.029574,1730412142.9171937,5000
-3928.900233376054,-187500.02235174447,17753.94591736149,-187500.02235174447,-187500.02235174447,-187500.02235174447,-187500.02235174447,-187500.02235174447,1730412144.033491,1730412142.9171937,5000
-3983.438489847003,-187500.02235174447,17746.41337948005,-187500.02235174447,-187500.02235174447,-187500.02235174447,-187500.02235174447,-187500.02235174447,1730412144.038698,1730412142.9171937,5000
-3986.0759956927295,-187500.02235174447,17767.08874310121,-187500.02235174447,-187500.02235174447,-187500.02235174447,-187500.02235174447,-187500.02235174447,1730412144.0425584,1730412142.9171937,5000
-3981.6950537794896,-187500.02235174447,17777.169379850555,-187500.02235174447,-187500.02235174447,-187500.02235174447,-187500.02235174447,-187500.02235174447,1730412144.046693,1730412142.9171937,5000
-3942.4677422604254,-187500.02235174447,17769.65919371357,-187500.02235174447,-187500.02235174447,-187500.02235174447,-187500.02235174447,-187500.02235174447,1730412144.049732,1730412142.9171937,5000
-3949.061506874741,-187500.02235174447,17741.27247825533,-187500.02235174447,-187500.02235174447,-187500.02235174447,-187500.02235174447,-187500.02235174447,1730412144.0537312,1730412142.9171937,5000
-3976.755318254867,-187500.02235174447,17727.347341459674,-187500.02235174447,-187500.02235174447,-187500.02235174447,-187500.02235174447,-187500.02235174447,1730412144.0576456,1730412142.9171937,5000
-3977.69409152199,-187500.02235174447,17763.22189131044,-187500.02235174447,-187500.02235174447,-187500.02235174447,-187500.02235174447,-187500.02235174447,1730412144.0617511,1730412142.9171937,5000
-3951.8331231872,-187500.02235174447,17779.628071740637,-187500.02235174447,-187500.02235174447,-187500.02235174447,-187500.02235174447,-187500.02235174447,1730412144.0667577,1730412142.9171937,5000
-3979.638693289601,-187500.02235174447,17745.005219579365,-187500.02235174447,-187500.02235174447,-187500.02235174447,-187500.02235174447,-187500.02235174447,1730412144.0707753,1730412142.9171937,5000
-4004.739702312911,-187500.02235174447,17752.940088861,-187500.02235174447,-187500.02235174447,-187500.02235174447,-187500.02235174447,-187500.02235174447,1730412144.0746765,1730412142.9171937,5000
-3943.2724050608167,-187500.02235174447,17779.158685107075,-187500.02235174447,-187500.02235174447,-187500.02235174447,-187500.02235174447,-187500.02235174447,1730412144.0776024,1730412142.9171937,5000
-3964.618321015635,-187500.02235174447,17754.303545272774,-187500.02235174447,-187500.02235174447,-187500.02235174447,-187500.02235174447,-187500.02235174447,1730412144.081636,1730412142.9171937,5000
-3950.044983630775,-187500.02235174447,17738.769082876337,-187500.02235174447,-187500.02235174447,-187500.02235174447,-187500.02235174447,-187500.02235174447,1730412144.085736,1730412142.9171937,5000
-3960.103268635663,-187500.02235174447,17748.04505682529,-187500.02235174447,-187500.02235174447,-187500.02235174447,-187500.02235174447,-187500.02235174447,1730412144.089733,1730412142.9171937,5000
-3980.64452179009,-187500.02235174447,17760.98671686491,-187500.02235174447,-187500.02235174447,-187500.02235174447,-187500.02235174447,-187500.02235174447,1730412144.0946271,1730412142.9171937,5000
-3967.233475116906,-187500.02235174447,17756.583423207216,-187500.02235174447,-187500.02235174447,-187500.02235174447,-187500.02235174447,-187500.02235174447,1730412144.0987847,1730412142.9171937,5000
-4001.163423200062,-187500.02235174447,17720.530059400804,-187500.02235174447,-187500.02235174447,-187500.02235174447,-187500.02235174447,-187500.02235174447,1730412144.1016157,1730412142.9171937,5000
-3971.189733885495,-187500.02235174447,17751.84485338269,-187500.02235174447,-187500.02235174447,-187500.02235174447,-187500.02235174447,-187500.02235174447,1730412144.1057365,1730412142.9171937,5000
-3947.407477785048,-187500.02235174447,17787.965272422465,-187500.02235174447,-187500.02235174447,-187500.02235174447,-187500.02235174447,-187500.02235174447,1730412144.109667,1730412142.9171937,5000
-3961.600835514169,-187500.02235174447,17768.943937891,-187500.02235174447,-187500.02235174447,-187500.02235174447,-187500.02235174447,-187500.02235174447,1730412144.1138415,1730412142.9171937,5000
-3984.801946258777,-187500.02235174447,17724.195745491477,-187500.02235174447,-187500.02235174447,-187500.02235174447,-187500.02235174447,-187500.02235174447,1730412144.1176844,1730412142.9171937,5000
-3942.110114349141,-187500.02235174447,17756.382257507117,-187500.02235174447,-187500.02235174447,-187500.02235174447,-187500.02235174447,-187500.02235174447,1730412144.122826,1730412142.9171937,5000
-3945.552282995258,-187500.02235174447,17782.198522353,-187500.02235174447,-187500.02235174447,-187500.02235174447,-187500.02235174447,-187500.02235174447,1730412144.126617,1730412142.9171937,5000
-4008.003057003386,-187500.02235174447,17727.0344170373,-187500.02235174447,-187500.02235174447,-187500.02235174447,-187500.02235174447,-187500.02235174447,1730412144.129644,1730412142.9171937,5000
-3988.9146672385536,-187500.02235174447,17720.418300678528,-187500.02235174447,-187500.02235174447,-187500.02235174447,-187500.02235174447,-187500.02235174447,1730412144.1336725,1730412142.9171937,5000
-3966.965254183442,-187500.02235174447,17746.435731224505,-187500.02235174447,-187500.02235174447,-187500.02235174447,-187500.02235174447,-187500.02235174447,1730412144.1378336,1730412142.9171937,5000
-3979.5939898006905,-187500.02235174447,17750.861376626657,-187500.02235174447,-187500.02235174447,-187500.02235174447,-187500.02235174447,-187500.02235174447,1730412144.1418045,1730412142.9171937,5000
-3927.2462042863617,-187500.02235174447,17796.056603915287,-187500.02235174447,-187500.02235174447,-187500.02235174447,-187500.02235174447,-187500.02235174447,1730412144.145928,1730412142.9171937,5000
-3876.6642065840015,-187500.02235174447,17791.832124213233,-187500.02235174447,-187500.02235174447,-187500.02235174447,-187500.02235174447,-187500.02235174447,1730412144.1500106,1730412142.9171937,5000
-3953.263634832339,-187500.02235174447,17766.12761808963,-187500.02235174447,-187500.02235174447,-187500.02235174447,-187500.02235174447,-187500.02235174447,1730412144.1547172,1730412142.9171937,5000
-3985.7630712703553,-187500.02235174447,17770.687373958513,-187500.02235174447,-187500.02235174447,-187500.02235174447,-187500.02235174447,-187500.02235174447,1730412144.157869,1730412142.9171937,5000
-3982.9914549578975,-187500.02235174447,17771.536740247815,-187500.02235174447,-187500.02235174447,-187500.02235174447,-187500.02235174447,-187500.02235174447,1730412144.1618783,1730412142.9171937,5000
-3967.702861750468,-187500.02235174447,17749.363809748153,-187500.02235174447,-187500.02235174447,-187500.02235174447,-187500.02235174447,-187500.02235174447,1730412144.1659465,1730412142.9171937,5000
-3959.566826768736,-187500.02235174447,17724.866297825134,-187500.02235174447,-187500.02235174447,-187500.02235174447,-187500.02235174447,-187500.02235174447,1730412144.169737,1730412142.9171937,5000
-3959.4997715353697,-187500.02235174447,17761.836083154212,-187500.02235174447,-187500.02235174447,-187500.02235174447,-187500.02235174447,-187500.02235174447,1730412144.1740031,1730412142.9171937,5000
-3946.178131840007,-187500.02235174447,17784.61251075417,-187500.02235174447,-187500.02235174447,-187500.02235174447,-187500.02235174447,-187500.02235174447,1730412144.1778605,1730412142.9171937,5000
-3966.2052948719615,-187500.02235174447,17760.38321976462,-187500.02235174447,-187500.02235174447,-187500.02235174447,-187500.02235174447,-187500.02235174447,1730412144.1829166,1730412142.9171937,5000
-3967.345233839183,-187500.02235174447,17732.935277573502,-187500.02235174447,-187500.02235174447,-187500.02235174447,-187500.02235174447,-187500.02235174447,1730412144.186031,1730412142.9171937,5000
-3973.223742630928,-187500.02235174447,17742.546527689283,-187500.02235174447,-187500.02235174447,-187500.02235174447,-187500.02235174447,-187500.02235174447,1730412144.1897843,1730412142.9171937,5000
-3982.7902892578,-187500.02235174447,17773.727211204437,-187500.02235174447,-187500.02235174447,-187500.02235174447,-187500.02235174447,-187500.02235174447,1730412144.193908,1730412142.9171937,5000
-3962.159629125551,-187500.02235174447,17766.105266345177,-187500.02235174447,-187500.02235174447,-187500.02235174447,-187500.02235174447,-187500.02235174447,1730412144.1980228,1730412142.9171937,5000
-3923.066428073219,-187500.02235174447,17749.430864981518,-187500.02235174447,-187500.02235174447,-187500.02235174447,-187500.02235174447,-187500.02235174447,1730412144.2017996,1730412142.9171937,5000
-3971.189733885495,-187500.02235174447,17757.209272051965,-187500.02235174447,-187500.02235174447,-187500.02235174447,-187500.02235174447,-187500.02235174447,1730412144.205974,1730412142.9171937,5000
-4010.50645238238,-187500.02235174447,17762.70780118797,-187500.02235174447,-187500.02235174447,-187500.02235174447,-187500.02235174447,-187500.02235174447,1730412144.208836,1730412142.9171937,5000
-3999.419987132548,-187500.02235174447,17754.70587667297,-187500.02235174447,-187500.02235174447,-187500.02235174447,-187500.02235174447,-187500.02235174447,1730412144.212902,1730412142.9171937,5000
-3942.646556216068,-187500.02235174447,17743.015914322845,-187500.02235174447,-187500.02235174447,-187500.02235174447,-187500.02235174447,-187500.02235174447,1730412144.2178347,1730412142.9171937,5000
-3953.1518761100624,-187500.02235174447,17740.736036388404,-187500.02235174447,-187500.02235174447,-187500.02235174447,-187500.02235174447,-187500.02235174447,1730412144.2219152,1730412142.9171937,5000
-3964.685376249001,-187500.02235174447,17736.243335752886,-187500.02235174447,-187500.02235174447,-187500.02235174447,-187500.02235174447,-187500.02235174447,1730412144.2258673,1730412142.9171937,5000
-3976.420042088037,-187500.02235174447,17754.46000748396,-187500.02235174447,-187500.02235174447,-187500.02235174447,-187500.02235174447,-187500.02235174447,1730412144.2299037,1730412142.9171937,5000
-3947.027498129308,-187500.02235174447,17761.098475587187,-187500.02235174447,-187500.02235174447,-187500.02235174447,-187500.02235174447,-187500.02235174447,1730412144.233889,1730412142.9171937,5000
-3942.1548178380513,-187500.02235174447,17765.03238261132,-187500.02235174447,-187500.02235174447,-187500.02235174447,-187500.02235174447,-187500.02235174447,1730412144.2378757,1730412142.9171937,5000
-3966.272350105328,-187500.02235174447,17775.537702505317,-187500.02235174447,-187500.02235174447,-187500.02235174447,-187500.02235174447,-187500.02235174447,1730412144.241016,1730412142.9171937,5000
-3958.717460479434,-187500.02235174447,17749.497920214882,-187500.02235174447,-187500.02235174447,-187500.02235174447,-187500.02235174447,-187500.02235174447,1730412144.246016,1730412142.9171937,5000
-3943.898253905565,-187500.02235174447,17728.50963217135,-187500.02235174447,-187500.02235174447,-187500.02235174447,-187500.02235174447,-187500.02235174447,1730412144.250025,1730412142.9171937,5000
-3969.3345390957047,-187500.02235174447,17736.936239831,-187500.02235174447,-187500.02235174447,-187500.02235174447,-187500.02235174447,-187500.02235174447,1730412144.2539086,1730412142.9171937,5000
-3974.810716487255,-187500.02235174447,17774.174246093542,-187500.02235174447,-187500.02235174447,-187500.02235174447,-187500.02235174447,-187500.02235174447,1730412144.2579772,1730412142.9171937,5000
-3961.489076791892,-187500.02235174447,17783.09259213121,-187500.02235174447,-187500.02235174447,-187500.02235174447,-187500.02235174447,-187500.02235174447,1730412144.2620032,1730412142.9171937,5000
-3968.2169518729393,-187500.02235174447,17760.76319942036,-187500.02235174447,-187500.02235174447,-187500.02235174447,-187500.02235174447,-187500.02235174447,1730412144.265916,1730412142.9171937,5000
-3930.3083932767386,-187500.02235174447,17743.060617811756,-187500.02235174447,-187500.02235174447,-187500.02235174447,-187500.02235174447,-187500.02235174447,1730412144.269024,1730412142.9171937,5000
-3957.890445934588,-187500.02235174447,17758.70683893047,-187500.02235174447,-187500.02235174447,-187500.02235174447,-187500.02235174447,-187500.02235174447,1730412144.2738314,1730412142.9171937,5000
-3983.192620657995,-187500.02235174447,17764.741809933403,-187500.02235174447,-187500.02235174447,-187500.02235174447,-187500.02235174447,-187500.02235174447,1730412144.2778928,1730412142.9171937,5000
-3967.971082683931,-187500.02235174447,17752.291888271797,-187500.02235174447,-187500.02235174447,-187500.02235174447,-187500.02235174447,-187500.02235174447,1730412144.2818315,1730412142.9171937,5000
-3958.6057017571575,-187500.02235174447,17735.393969463585,-187500.02235174447,-187500.02235174447,-187500.02235174447,-187500.02235174447,-187500.02235174447,1730412144.28585,1730412142.9171937,5000
-3958.359832568149,-187500.02235174447,17756.784588907314,-187500.02235174447,-187500.02235174447,-187500.02235174447,-187500.02235174447,-187500.02235174447,1730412144.2898595,1730412142.9171937,5000
-3996.916591753554,-187500.02235174447,17759.667963942047,-187500.02235174447,-187500.02235174447,-187500.02235174447,-187500.02235174447,-187500.02235174447,1730412144.2929611,1730412142.9171937,5000
-3983.639655547101,-187500.02235174447,17756.963402862955,-187500.02235174447,-187500.02235174447,-187500.02235174447,-187500.02235174447,-187500.02235174447,1730412144.2969368,1730412142.9171937,5000
-3942.914777149532,-187500.02235174447,17754.16943480604,-187500.02235174447,-187500.02235174447,-187500.02235174447,-187500.02235174447,-187500.02235174447,1730412144.300874,1730412142.9171937,5000
-3948.301547563261,-187500.02235174447,17740.736036388404,-187500.02235174447,-187500.02235174447,-187500.02235174447,-187500.02235174447,-187500.02235174447,1730412144.3059309,1730412142.9171937,5000
-3973.7601844978553,-187500.02235174447,17763.22189131044,-187500.02235174447,-187500.02235174447,-187500.02235174447,-187500.02235174447,-187500.02235174447,1730412144.3099515,1730412142.9171937,5000
-3960.930283180509,-187500.02235174447,17776.163551350066,-187500.02235174447,-187500.02235174447,-187500.02235174447,-187500.02235174447,-187500.02235174447,1730412144.3138762,1730412142.9171937,5000
-3939.025573614309,-187500.02235174447,17762.886615143612,-187500.02235174447,-187500.02235174447,-187500.02235174447,-187500.02235174447,-187500.02235174447,1730412144.3168924,1730412142.9171937,5000
-3965.557094282758,-187500.02235174447,17747.486263213905,-187500.02235174447,-187500.02235174447,-187500.02235174447,-187500.02235174447,-187500.02235174447,1730412144.3208888,1730412142.9171937,5000
-3971.145030396584,-187500.02235174447,17776.722344961447,-187500.02235174447,-187500.02235174447,-187500.02235174447,-187500.02235174447,-187500.02235174447,1730412144.3249092,1730412142.9171937,5000
-3942.0654108602303,-187500.02235174447,17767.51342624586,-187500.02235174447,-187500.02235174447,-187500.02235174447,-187500.02235174447,-187500.02235174447,1730412144.3289552,1730412142.9171937,5000
-3944.479399261403,-187500.02235174447,17753.834158639213,-187500.02235174447,-187500.02235174447,-187500.02235174447,-187500.02235174447,-187500.02235174447,1730412144.333984,1730412142.9171937,5000
-3940.880768404099,-187500.02235174447,17758.908004630568,-187500.02235174447,-187500.02235174447,-187500.02235174447,-187500.02235174447,-187500.02235174447,1730412144.3380766,1730412142.9171937,5000
-3960.773820969322,-187500.02235174447,17764.56299597776,-187500.02235174447,-187500.02235174447,-187500.02235174447,-187500.02235174447,-187500.02235174447,1730412144.3431735,1730412142.9171937,5000
-3958.270425590328,-187500.02235174447,17757.633955196616,-187500.02235174447,-187500.02235174447,-187500.02235174447,-187500.02235174447,-187500.02235174447,1730412144.347149,1730412142.9171937,5000
-3941.238396315384,-187500.02235174447,17741.339533488695,-187500.02235174447,-187500.02235174447,-187500.02235174447,-187500.02235174447,-187500.02235174447,1730412144.3500872,1730412142.9171937,5000
-3979.303417122772,-187500.02235174447,17734.343437474185,-187500.02235174447,-187500.02235174447,-187500.02235174447,-187500.02235174447,-187500.02235174447,1730412144.353073,1730412142.9171937,5000
-3992.379187629126,-187500.02235174447,17756.18109180702,-187500.02235174447,-187500.02235174447,-187500.02235174447,-187500.02235174447,-187500.02235174447,1730412144.357159,1730412142.9171937,5000
-3960.326786080216,-187500.02235174447,17783.62903399814,-187500.02235174447,-187500.02235174447,-187500.02235174447,-187500.02235174447,-187500.02235174447,1730412144.3621013,1730412142.9171937,5000
-3938.131503836096,-187500.02235174447,17772.56492049276,-187500.02235174447,-187500.02235174447,-187500.02235174447,-187500.02235174447,-187500.02235174447,1730412144.366204,1730412142.9171937,5000
-3947.228663829406,-187500.02235174447,17722.31819895723,-187500.02235174447,-187500.02235174447,-187500.02235174447,-187500.02235174447,-187500.02235174447,1730412144.3701596,1730412142.9171937,5000
-3962.316091336738,-187500.02235174447,17743.12767304512,-187500.02235174447,-187500.02235174447,-187500.02235174447,-187500.02235174447,-187500.02235174447,1730412144.373116,1730412142.9171937,5000
-3962.673719248023,-187500.02235174447,17784.79132470981,-187500.02235174447,-187500.02235174447,-187500.02235174447,-187500.02235174447,-187500.02235174447,1730412144.3770905,1730412142.9171937,5000
-3949.508541763848,-187500.02235174447,17766.261728556365,-187500.02235174447,-187500.02235174447,-187500.02235174447,-187500.02235174447,-187500.02235174447,1730412144.381291,1730412142.9171937,5000
-3937.282137546794,-187500.02235174447,17754.683524928514,-187500.02235174447,-187500.02235174447,-187500.02235174447,-187500.02235174447,-187500.02235174447,1730412144.3851209,1730412142.9171937,5000
-3951.319033064727,-187500.02235174447,17762.730152932425,-187500.02235174447,-187500.02235174447,-187500.02235174447,-187500.02235174447,-187500.02235174447,1730412144.3891697,1730412142.9171937,5000
-3952.4142685430375,-187500.02235174447,17773.838969926714,-187500.02235174447,-187500.02235174447,-187500.02235174447,-187500.02235174447,-187500.02235174447,1730412144.3942647,1730412142.9171937,5000
-3969.088669906696,-187500.02235174447,17764.920623889044,-187500.02235174447,-187500.02235174447,-187500.02235174447,-187500.02235174447,-187500.02235174447,1730412144.3982377,1730412142.9171937,5000
-3989.495812594392,-187500.02235174447,17742.300658500273,-187500.02235174447,-187500.02235174447,-187500.02235174447,-187500.02235174447,-187500.02235174447,1730412144.4011738,1730412142.9171937,5000
-3955.409402300048,-187500.02235174447,17745.854585868667,-187500.02235174447,-187500.02235174447,-187500.02235174447,-187500.02235174447,-187500.02235174447,1730412144.4052591,1730412142.9171937,5000
-3971.614417030146,-187500.02235174447,17752.89538537209,-187500.02235174447,-187500.02235174447,-187500.02235174447,-187500.02235174447,-187500.02235174447,1730412144.4091947,1730412142.9171937,5000
-3930.755428165845,-187500.02235174447,17762.126655832133,-187500.02235174447,-187500.02235174447,-187500.02235174447,-187500.02235174447,-187500.02235174447,1730412144.4131413,1730412142.9171937,5000
-3922.418227484015,-187500.02235174447,17747.75448414737,-187500.02235174447,-187500.02235174447,-187500.02235174447,-187500.02235174447,-187500.02235174447,1730412144.4171994,1730412142.9171937,5000
-3983.572600313735,-187500.02235174447,17763.28894654381,-187500.02235174447,-187500.02235174447,-187500.02235174447,-187500.02235174447,-187500.02235174447,1730412144.4222095,1730412142.9171937,5000
-3985.785423014811,-187500.02235174447,17773.973080393444,-187500.02235174447,-187500.02235174447,-187500.02235174447,-187500.02235174447,-187500.02235174447,1730412144.425156,1730412142.9171937,5000
-3980.7786322568218,-187500.02235174447,17774.33070830473,-187500.02235174447,-187500.02235174447,-187500.02235174447,-187500.02235174447,-187500.02235174447,1730412144.4292915,1730412142.9171937,5000
-3968.328710595216,-187500.02235174447,17756.42696099603,-187500.02235174447,-187500.02235174447,-187500.02235174447,-187500.02235174447,-187500.02235174447,1730412144.4333682,1730412142.9171937,5000
-3955.141181366585,-187500.02235174447,17744.155853290064,-187500.02235174447,-187500.02235174447,-187500.02235174447,-187500.02235174447,-187500.02235174447,1730412144.4372847,1730412142.9171937,5000
-3963.903065193065,-187500.02235174447,17753.677696428025,-187500.02235174447,-187500.02235174447,-187500.02235174447,-187500.02235174447,-187500.02235174447,1730412144.4412646,1730412142.9171937,5000
-3985.517202081347,-187500.02235174447,17755.935222618013,-187500.02235174447,-187500.02235174447,-187500.02235174447,-187500.02235174447,-187500.02235174447,1730412144.4452157,1730412142.9171937,5000
-3977.314111866249,-187500.02235174447,17751.08489407121,-187500.02235174447,-187500.02235174447,-187500.02235174447,-187500.02235174447,-187500.02235174447,1730412144.4502072,1730412142.9171937,5000
-3934.041134600775,-187500.02235174447,17745.36284749065,-187500.02235174447,-187500.02235174447,-187500.02235174447,-187500.02235174447,-187500.02235174447,1730412144.4532576,1730412142.9171937,5000
-3954.6270912441128,-187500.02235174447,17760.874958142635,-187500.02235174447,-187500.02235174447,-187500.02235174447,-187500.02235174447,-187500.02235174447,1730412144.4563172,1730412142.9171937,5000
-3949.240320830384,-187500.02235174447,17775.627109483135,-187500.02235174447,-187500.02235174447,-187500.02235174447,-187500.02235174447,-187500.02235174447,1730412144.4612043,1730412142.9171937,5000
-3932.3424020221714,-187500.02235174447,17765.859397156168,-187500.02235174447,-187500.02235174447,-187500.02235174447,-187500.02235174447,-187500.02235174447,1730412144.4652462,1730412142.9171937,5000
-3960.863227947144,-187500.02235174447,17745.60871667966,-187500.02235174447,-187500.02235174447,-187500.02235174447,-187500.02235174447,-187500.02235174447,1730412144.469226,1730412142.9171937,5000
-3972.7320042529113,-187500.02235174447,17749.363809748153,-187500.02235174447,-187500.02235174447,-187500.02235174447,-187500.02235174447,-187500.02235174447,1730412144.4733353,1730412142.9171937,5000
-3961.444373302981,-187500.02235174447,17755.018801095342,-187500.02235174447,-187500.02235174447,-187500.02235174447,-187500.02235174447,-187500.02235174447,1730412144.478466,1730412142.9171937,5000
-3971.279140863317,-187500.02235174447,17742.434768967007,-187500.02235174447,-187500.02235174447,-187500.02235174447,-187500.02235174447,-187500.02235174447,1730412144.481315,1730412142.9171937,5000
-3945.9546143954535,-187500.02235174447,17747.62037368064,-187500.02235174447,-187500.02235174447,-187500.02235174447,-187500.02235174447,-187500.02235174447,1730412144.4842403,1730412142.9171937,5000
-3956.415230800537,-187500.02235174447,17743.95468758997,-187500.02235174447,-187500.02235174447,-187500.02235174447,-187500.02235174447,-187500.02235174447,1730412144.4892645,1730412142.9171937,5000
-3984.26550439185,-187500.02235174447,17738.41145496505,-187500.02235174447,-187500.02235174447,-187500.02235174447,-187500.02235174447,-187500.02235174447,1730412144.4933655,1730412142.9171937,5000
-3955.789381955789,-187500.02235174447,17756.382257507117,-187500.02235174447,-187500.02235174447,-187500.02235174447,-187500.02235174447,-187500.02235174447,1730412144.4974449,1730412142.9171937,5000
-3906.8837650875766,-187500.02235174447,17766.79817042329,-187500.02235174447,-187500.02235174447,-187500.02235174447,-187500.02235174447,-187500.02235174447,1730412144.5013733,1730412142.9171937,5000
-3918.461968715426,-187500.02235174447,17757.835120896714,-187500.02235174447,-187500.02235174447,-187500.02235174447,-187500.02235174447,-187500.02235174447,1730412144.5056176,1730412142.9171937,5000
-4013.322772183749,-187500.02235174447,17748.581498692216,-187500.02235174447,-187500.02235174447,-187500.02235174447,-187500.02235174447,-187500.02235174447,1730412144.5094795,1730412142.9171937,5000
-3986.0312922038192,-187500.02235174447,17767.08874310121,-187500.02235174447,-187500.02235174447,-187500.02235174447,-187500.02235174447,-187500.02235174447,1730412144.512514,1730412142.9171937,5000
-3965.333576838205,-187500.02235174447,17771.0450018698,-187500.02235174447,-187500.02235174447,-187500.02235174447,-187500.02235174447,-187500.02235174447,1730412144.516594,1730412142.9171937,5000
-3955.699974977968,-187500.02235174447,17762.17135932104,-187500.02235174447,-187500.02235174447,-187500.02235174447,-187500.02235174447,-187500.02235174447,1730412144.5214152,1730412142.9171937,5000
-3960.3714895691264,-187500.02235174447,17767.647536712593,-187500.02235174447,-187500.02235174447,-187500.02235174447,-187500.02235174447,-187500.02235174447,1730412144.525325,1730412142.9171937,5000
-3961.980815169909,-187500.02235174447,17766.93228089002,-187500.02235174447,-187500.02235174447,-187500.02235174447,-187500.02235174447,-187500.02235174447,1730412144.5293562,1730412142.9171937,5000
-3954.962367410942,-187500.02235174447,17751.84485338269,-187500.02235174447,-187500.02235174447,-187500.02235174447,-187500.02235174447,-187500.02235174447,1730412144.533366,1730412142.9171937,5000
-3942.870073660621,-187500.02235174447,17741.786568377804,-187500.02235174447,-187500.02235174447,-187500.02235174447,-187500.02235174447,-187500.02235174447,1730412144.536353,1730412142.9171937,5000
-3957.532818023303,-187500.02235174447,17750.548452204283,-187500.02235174447,-187500.02235174447,-187500.02235174447,-187500.02235174447,-187500.02235174447,1730412144.540306,1730412142.9171937,5000
-3988.802908516277,-187500.02235174447,17744.647591668083,-187500.02235174447,-187500.02235174447,-187500.02235174447,-187500.02235174447,-187500.02235174447,1730412144.545524,1730412142.9171937,5000
-3974.0507571757744,-187500.02235174447,17738.925545087524,-187500.02235174447,-187500.02235174447,-187500.02235174447,-187500.02235174447,-187500.02235174447,1730412144.5494351,1730412142.9171937,5000
-3938.623242214113,-187500.02235174447,17761.724324431936,-187500.02235174447,-187500.02235174447,-187500.02235174447,-187500.02235174447,-187500.02235174447,1730412144.5535853,1730412142.9171937,5000
-3942.9594806384425,-187500.02235174447,17772.386106537117,-187500.02235174447,-187500.02235174447,-187500.02235174447,-187500.02235174447,-187500.02235174447,1730412144.5576255,1730412142.9171937,5000
-3966.249998360872,-187500.02235174447,17775.269481571853,-187500.02235174447,-187500.02235174447,-187500.02235174447,-187500.02235174447,-187500.02235174447,1730412144.5605547,1730412142.9171937,5000
-3970.45212631847,-187500.02235174447,17757.678658685527,-187500.02235174447,-187500.02235174447,-187500.02235174447,-187500.02235174447,-187500.02235174447,1730412144.5645068,1730412142.9171937,5000
-3954.872960433121,-187500.02235174447,17748.000353336378,-187500.02235174447,-187500.02235174447,-187500.02235174447,-187500.02235174447,-187500.02235174447,1730412144.5685592,1730412142.9171937,5000
-3957.622225001124,-187500.02235174447,17740.289001499295,-187500.02235174447,-187500.02235174447,-187500.02235174447,-187500.02235174447,-187500.02235174447,1730412144.5723813,1730412142.9171937,5000
-3939.8525881591545,-187500.02235174447,17776.81175193927,-187500.02235174447,-187500.02235174447,-187500.02235174447,-187500.02235174447,-187500.02235174447,1730412144.5776186,1730412142.9171937,5000
-3934.488169489881,-187500.02235174447,17763.579519221727,-187500.02235174447,-187500.02235174447,-187500.02235174447,-187500.02235174447,-187500.02235174447,1730412144.5816493,1730412142.9171937,5000
-3960.125620380118,-187500.02235174447,17742.635934667105,-187500.02235174447,-187500.02235174447,-187500.02235174447,-187500.02235174447,-187500.02235174447,1730412144.5855372,1730412142.9171937,5000
-3989.227591660928,-187500.02235174447,17746.56984169124,-187500.02235174447,-187500.02235174447,-187500.02235174447,-187500.02235174447,-187500.02235174447,1730412144.5885255,1730412142.9171937,5000
-3978.5434578112913,-187500.02235174447,17760.159702320063,-187500.02235174447,-187500.02235174447,-187500.02235174447,-187500.02235174447,-187500.02235174447,1730412144.5925,1730412142.9171937,5000
-3944.077067861208,-187500.02235174447,17787.0488508998,-187500.02235174447,-187500.02235174447,-187500.02235174447,-187500.02235174447,-187500.02235174447,1730412144.5966668,1730412142.9171937,5000
-3942.199521326962,-187500.02235174447,17770.575615236237,-187500.02235174447,-187500.02235174447,-187500.02235174447,-187500.02235174447,-187500.02235174447,1730412144.6004777,1730412142.9171937,5000
-3964.4395070599926,-187500.02235174447,17753.543585961295,-187500.02235174447,-187500.02235174447,-187500.02235174447,-187500.02235174447,-187500.02235174447,1730412144.605484,1730412142.9171937,5000
-3967.904027450565,-187500.02235174447,17768.51925474635,-187500.02235174447,-187500.02235174447,-187500.02235174447,-187500.02235174447,-187500.02235174447,1730412144.609436,1730412142.9171937,5000
-3970.541533296291,-187500.02235174447,17757.812769152257,-187500.02235174447,-187500.02235174447,-187500.02235174447,-187500.02235174447,-187500.02235174447,1730412144.6136203,1730412142.9171937,5000
-3957.242245345384,-187500.02235174447,17746.480434713416,-187500.02235174447,-187500.02235174447,-187500.02235174447,-187500.02235174447,-187500.02235174447,1730412144.616717,1730412142.9171937,5000
-3945.127599850607,-187500.02235174447,17762.573690721238,-187500.02235174447,-187500.02235174447,-187500.02235174447,-187500.02235174447,-187500.02235174447,1730412144.620618,1730412142.9171937,5000
-3963.008995414853,-187500.02235174447,17776.342365305707,-187500.02235174447,-187500.02235174447,-187500.02235174447,-187500.02235174447,-187500.02235174447,1730412144.6246765,1730412142.9171937,5000
-3940.1208090926175,-187500.02235174447,17792.793249224815,-187500.02235174447,-187500.02235174447,-187500.02235174447,-187500.02235174447,-187500.02235174447,1730412144.6285963,1730412142.9171937,5000
-3930.040172343275,-187500.02235174447,17781.550321763792,-187500.02235174447,-187500.02235174447,-187500.02235174447,-187500.02235174447,-187500.02235174447,1730412144.6335063,1730412142.9171937,5000
-3967.524047794825,-187500.02235174447,17760.092647086698,-187500.02235174447,-187500.02235174447,-187500.02235174447,-187500.02235174447,-187500.02235174447,1730412144.6376688,1730412142.9171937,5000
-3968.909855951054,-187500.02235174447,17766.686411701015,-187500.02235174447,-187500.02235174447,-187500.02235174447,-187500.02235174447,-187500.02235174447,1730412144.641702,1730412142.9171937,5000
-3966.138239638596,-187500.02235174447,17775.13537110512,-187500.02235174447,-187500.02235174447,-187500.02235174447,-187500.02235174447,-187500.02235174447,1730412144.6445117,1730412142.9171937,5000
-3963.254864603861,-187500.02235174447,17767.222853567942,-187500.02235174447,-187500.02235174447,-187500.02235174447,-187500.02235174447,-187500.02235174447,1730412144.6486745,1730412142.9171937,5000
-3970.541533296291,-187500.02235174447,17743.150024789575,-187500.02235174447,-187500.02235174447,-187500.02235174447,-187500.02235174447,-187500.02235174447,1730412144.652697,1730412142.9171937,5000
-3951.7213644649223,-187500.02235174447,17755.130559817622,-187500.02235174447,-187500.02235174447,-187500.02235174447,-187500.02235174447,-187500.02235174447,1730412144.6567073,1730412142.9171937,5000
-3940.1208090926175,-187500.02235174447,17793.575560280748,-187500.02235174447,-187500.02235174447,-187500.02235174447,-187500.02235174447,-187500.02235174447,1730412144.6616387,1730412142.9171937,5000
-3934.689335189979,-187500.02235174447,17775.045964127297,-187500.02235174447,-187500.02235174447,-187500.02235174447,-187500.02235174447,-187500.02235174447,1730412144.6656828,1730412142.9171937,5000
-3936.20925381294,-187500.02235174447,17751.151949304574,-187500.02235174447,-187500.02235174447,-187500.02235174447,-187500.02235174447,-187500.02235174447,1730412144.6687267,1730412142.9171937,5000
-3917.344381492661,-187500.02235174447,17762.17135932104,-187500.02235174447,-187500.02235174447,-187500.02235174447,-187500.02235174447,-187500.02235174447,1730412144.6726098,1730412142.9171937,5000
-4000.492870866403,-187500.02235174447,17768.072219857244,-187500.02235174447,-187500.02235174447,-187500.02235174447,-187500.02235174447,-187500.02235174447,1730412144.6765628,1730412142.9171937,5000
-4007.377208158637,-187500.02235174447,17749.721437659435,-187500.02235174447,-187500.02235174447,-187500.02235174447,-187500.02235174447,-187500.02235174447,1730412144.680754,1730412142.9171937,5000
-3955.1188296221294,-187500.02235174447,17764.630051211127,-187500.02235174447,-187500.02235174447,-187500.02235174447,-187500.02235174447,-187500.02235174447,1730412144.6846263,1730412142.9171937,5000
-3958.02455640132,-187500.02235174447,17771.626147225637,-187500.02235174447,-187500.02235174447,-187500.02235174447,-187500.02235174447,-187500.02235174447,1730412144.689719,1730412142.9171937,5000
-3961.980815169909,-187500.02235174447,17777.459952528472,-187500.02235174447,-187500.02235174447,-187500.02235174447,-187500.02235174447,-187500.02235174447,1730412144.693617,1730412142.9171937,5000
-3945.2840620617935,-187500.02235174447,17775.38124029413,-187500.02235174447,-187500.02235174447,-187500.02235174447,-187500.02235174447,-187500.02235174447,1730412144.6965537,1730412142.9171937,5000
-3960.818524458233,-187500.02235174447,17768.56395823526,-187500.02235174447,-187500.02235174447,-187500.02235174447,-187500.02235174447,-187500.02235174447,1730412144.7005224,1730412142.9171937,5000
-3968.462821061948,-187500.02235174447,17760.271461042343,-187500.02235174447,-187500.02235174447,-187500.02235174447,-187500.02235174447,-187500.02235174447,1730412144.7045212,1730412142.9171937,5000
-3985.0478154477855,-187500.02235174447,17765.07708610023,-187500.02235174447,-187500.02235174447,-187500.02235174447,-187500.02235174447,-187500.02235174447,1730412144.7085347,1730412142.9171937,5000
-3969.245132117884,-187500.02235174447,17778.04109788431,-187500.02235174447,-187500.02235174447,-187500.02235174447,-187500.02235174447,-187500.02235174447,1730412144.712675,1730412142.9171937,5000
-3928.58730895368,-187500.02235174447,17763.937147133012,-187500.02235174447,-187500.02235174447,-187500.02235174447,-187500.02235174447,-187500.02235174447,1730412144.716576,1730412142.9171937,5000
-3944.769971939322,-187500.02235174447,17753.275365027832,-187500.02235174447,-187500.02235174447,-187500.02235174447,-187500.02235174447,-187500.02235174447,1730412144.7218156,1730412142.9171937,5000
-3970.0721466627297,-187500.02235174447,17776.923510661545,-187500.02235174447,-187500.02235174447,-187500.02235174447,-187500.02235174447,-187500.02235174447,1730412144.724781,1730412142.9171937,5000
-3973.134335653107,-187500.02235174447,17782.33263281973,-187500.02235174447,-187500.02235174447,-187500.02235174447,-187500.02235174447,-187500.02235174447,1730412144.72881,1730412142.9171937,5000
-3949.933224908498,-187500.02235174447,17766.686411701015,-187500.02235174447,-187500.02235174447,-187500.02235174447,-187500.02235174447,-187500.02235174447,1730412144.73282,1730412142.9171937,5000
-3959.812695957744,-187500.02235174447,17754.504710972873,-187500.02235174447,-187500.02235174447,-187500.02235174447,-187500.02235174447,-187500.02235174447,1730412144.736858,1730412142.9171937,5000
-3979.5269345673246,-187500.02235174447,17754.862338884155,-187500.02235174447,-187500.02235174447,-187500.02235174447,-187500.02235174447,-187500.02235174447,1730412144.7408347,1730412142.9171937,5000
-3970.876809463121,-187500.02235174447,17774.978908893932,-187500.02235174447,-187500.02235174447,-187500.02235174447,-187500.02235174447,-187500.02235174447,1730412144.7447832,1730412142.9171937,5000
-3914.103378546641,-187500.02235174447,17771.46968501445,-187500.02235174447,-187500.02235174447,-187500.02235174447,-187500.02235174447,-187500.02235174447,1730412144.7498353,1730412142.9171937,5000
-3951.4978470203696,-187500.02235174447,17769.65919371357,-187500.02235174447,-187500.02235174447,-187500.02235174447,-187500.02235174447,-187500.02235174447,1730412144.7529309,1730412142.9171937,5000
-3993.1614986850623,-187500.02235174447,17771.447333269996,-187500.02235174447,-187500.02235174447,-187500.02235174447,-187500.02235174447,-187500.02235174447,1730412144.7569146,1730412142.9171937,5000
-3979.1246031671294,-187500.02235174447,17782.04206014181,-187500.02235174447,-187500.02235174447,-187500.02235174447,-187500.02235174447,-187500.02235174447,1730412144.7608953,1730412142.9171937,5000
-3958.270425590328,-187500.02235174447,17788.546417778303,-187500.02235174447,-187500.02235174447,-187500.02235174447,-187500.02235174447,-187500.02235174447,1730412144.764772,1730412142.9171937,5000
-3928.363791509127,-187500.02235174447,17776.275310072342,-187500.02235174447,-187500.02235174447,-187500.02235174447,-187500.02235174447,-187500.02235174447,1730412144.768834,1730412142.9171937,5000
-3924.653401929546,-187500.02235174447,17778.42107754005,-187500.02235174447,-187500.02235174447,-187500.02235174447,-187500.02235174447,-187500.02235174447,1730412144.7728808,1730412142.9171937,5000
-3975.816544987744,-187500.02235174447,17785.081897387732,-187500.02235174447,-187500.02235174447,-187500.02235174447,-187500.02235174447,-187500.02235174447,1730412144.7766936,1730412142.9171937,5000
-3968.775745484322,-187500.02235174447,17777.750525206393,-187500.02235174447,-187500.02235174447,-187500.02235174447,-187500.02235174447,-187500.02235174447,1730412144.7796476,1730412142.9171937,5000
-3951.810771442744,-187500.02235174447,17767.044039612298,-187500.02235174447,-187500.02235174447,-187500.02235174447,-187500.02235174447,-187500.02235174447,1730412144.783748,1730412142.9171937,5000
-3955.699974977968,-187500.02235174447,17770.732077447425,-187500.02235174447,-187500.02235174447,-187500.02235174447,-187500.02235174447,-187500.02235174447,1730412144.7887945,1730412142.9171937,5000
-3964.059527404252,-187500.02235174447,17779.158685107075,-187500.02235174447,-187500.02235174447,-187500.02235174447,-187500.02235174447,-187500.02235174447,1730412144.7927277,1730412142.9171937,5000
-3964.908893693554,-187500.02235174447,17776.409420539072,-187500.02235174447,-187500.02235174447,-187500.02235174447,-187500.02235174447,-187500.02235174447,1730412144.7967176,1730412142.9171937,5000
-3959.745640724378,-187500.02235174447,17750.391989993095,-187500.02235174447,-187500.02235174447,-187500.02235174447,-187500.02235174447,-187500.02235174447,1730412144.8007288,1730412142.9171937,5000
-3981.784460757311,-187500.02235174447,17737.964420075943,-187500.02235174447,-187500.02235174447,-187500.02235174447,-187500.02235174447,-187500.02235174447,1730412144.8038127,1730412142.9171937,5000
-3959.298605835272,-187500.02235174447,17794.179057381043,-187500.02235174447,-187500.02235174447,-187500.02235174447,-187500.02235174447,-187500.02235174447,1730412144.8078492,1730412142.9171937,5000
-3958.583350012702,-187500.02235174447,17797.66592951607,-187500.02235174447,-187500.02235174447,-187500.02235174447,-187500.02235174447,-187500.02235174447,1730412144.8119743,1730412142.9171937,5000
-3942.4453905159694,-187500.02235174447,17763.199539565987,-187500.02235174447,-187500.02235174447,-187500.02235174447,-187500.02235174447,-187500.02235174447,1730412144.8167927,1730412142.9171937,5000
-3927.000335097353,-187500.02235174447,17774.263653071364,-187500.02235174447,-187500.02235174447,-187500.02235174447,-187500.02235174447,-187500.02235174447,1730412144.8209753,1730412142.9171937,5000
-3967.702861750468,-187500.02235174447,17783.22670259794,-187500.02235174447,-187500.02235174447,-187500.02235174447,-187500.02235174447,-187500.02235174447,1730412144.824892,1730412142.9171937,5000
-3978.968140955942,-187500.02235174447,17783.249054342396,-187500.02235174447,-187500.02235174447,-187500.02235174447,-187500.02235174447,-187500.02235174447,1730412144.8289566,1730412142.9171937,5000
-3953.1518761100624,-187500.02235174447,17785.014842154367,-187500.02235174447,-187500.02235174447,-187500.02235174447,-187500.02235174447,-187500.02235174447,1730412144.8318918,1730412142.9171937,5000
-3951.922530165021,-187500.02235174447,17779.449257784996,-187500.02235174447,-187500.02235174447,-187500.02235174447,-187500.02235174447,-187500.02235174447,1730412144.835996,1730412142.9171937,5000
-4000.31405691076,-187500.02235174447,17775.627109483135,-187500.02235174447,-187500.02235174447,-187500.02235174447,-187500.02235174447,-187500.02235174447,1730412144.8400753,1730412142.9171937,5000
-3961.6678907475343,-187500.02235174447,17787.629996255637,-187500.02235174447,-187500.02235174447,-187500.02235174447,-187500.02235174447,-187500.02235174447,1730412144.844946,1730412142.9171937,5000
-3936.008088112842,-187500.02235174447,17766.88757740111,-187500.02235174447,-187500.02235174447,-187500.02235174447,-187500.02235174447,-187500.02235174447,1730412144.8489556,1730412142.9171937,5000
-3937.148027080063,-187500.02235174447,17765.814693667257,-187500.02235174447,-187500.02235174447,-187500.02235174447,-187500.02235174447,-187500.02235174447,1730412144.8530622,1730412142.9171937,5000
-3964.3724518266263,-187500.02235174447,17776.56588275026,-187500.02235174447,-187500.02235174447,-187500.02235174447,-187500.02235174447,-187500.02235174447,1730412144.856989,1730412142.9171937,5000
-3979.281065378316,-187500.02235174447,17779.985699651923,-187500.02235174447,-187500.02235174447,-187500.02235174447,-187500.02235174447,-187500.02235174447,1730412144.859876,1730412142.9171937,5000
-3935.225777056906,-187500.02235174447,17771.626147225637,-187500.02235174447,-187500.02235174447,-187500.02235174447,-187500.02235174447,-187500.02235174447,1730412144.8639908,1730412142.9171937,5000
-3923.893442618066,-187500.02235174447,17766.37348727864,-187500.02235174447,-187500.02235174447,-187500.02235174447,-187500.02235174447,-187500.02235174447,1730412144.8678713,1730412142.9171937,5000
-3973.581370542213,-187500.02235174447,17753.94591736149,-187500.02235174447,-187500.02235174447,-187500.02235174447,-187500.02235174447,-187500.02235174447,1730412144.8730674,1730412142.9171937,5000
-3978.923437467032,-187500.02235174447,17756.89634762959,-187500.02235174447,-187500.02235174447,-187500.02235174447,-187500.02235174447,-187500.02235174447,1730412144.877026,1730412142.9171937,5000
-3988.937018983009,-187500.02235174447,17786.91474043307,-187500.02235174447,-187500.02235174447,-187500.02235174447,-187500.02235174447,-187500.02235174447,1730412144.8809888,1730412142.9171937,5000
-3961.2655593473382,-187500.02235174447,17770.776780936336,-187500.02235174447,-187500.02235174447,-187500.02235174447,-187500.02235174447,-187500.02235174447,1730412144.8839238,1730412142.9171937,5000
-3951.363736553638,-187500.02235174447,17761.7913796653,-187500.02235174447,-187500.02235174447,-187500.02235174447,-187500.02235174447,-187500.02235174447,1730412144.8880882,1730412142.9171937,5000
-3979.7504520118778,-187500.02235174447,17784.590159009716,-187500.02235174447,-187500.02235174447,-187500.02235174447,-187500.02235174447,-187500.02235174447,1730412144.8919094,1730412142.9171937,5000
-3966.1605913830513,-187500.02235174447,17777.9963943954,-187500.02235174447,-187500.02235174447,-187500.02235174447,-187500.02235174447,-187500.02235174447,1730412144.8960316,1730412142.9171937,5000
-3955.54351276678,-187500.02235174447,17756.806940651768,-187500.02235174447,-187500.02235174447,-187500.02235174447,-187500.02235174447,-187500.02235174447,1730412144.89996,1730412142.9171937,5000
-3947.8321609297,-187500.02235174447,17771.603795481184,-187500.02235174447,-187500.02235174447,-187500.02235174447,-187500.02235174447,-187500.02235174447,1730412144.904107,1730412142.9171937,5000
-3957.845742445677,-187500.02235174447,17786.825333455246,-187500.02235174447,-187500.02235174447,-187500.02235174447,-187500.02235174447,-187500.02235174447,1730412144.9089377,1730412142.9171937,5000
-3962.8301814592105,-187500.02235174447,17778.80105719579,-187500.02235174447,-187500.02235174447,-187500.02235174447,-187500.02235174447,-187500.02235174447,1730412144.9121146,1730412142.9171937,5000
-3962.740774481389,-187500.02235174447,17755.577594706727,-187500.02235174447,-187500.02235174447,-187500.02235174447,-187500.02235174447,-187500.02235174447,1730412144.9160578,1730412142.9171937,5000
-3932.5659194667246,-187500.02235174447,17756.963402862955,-187500.02235174447,-187500.02235174447,-187500.02235174447,-187500.02235174447,-187500.02235174447,1730412144.9201727,1730412142.9171937,5000
-3965.981777427409,-187500.02235174447,17764.004202366377,-187500.02235174447,-187500.02235174447,-187500.02235174447,-187500.02235174447,-187500.02235174447,1730412144.9241512,1730412142.9171937,5000
-3989.384053872115,-187500.02235174447,17772.967251892955,-187500.02235174447,-187500.02235174447,-187500.02235174447,-187500.02235174447,-187500.02235174447,1730412144.9290323,1730412142.9171937,5000
-3962.8525332036656,-187500.02235174447,17768.631013468625,-187500.02235174447,-187500.02235174447,-187500.02235174447,-187500.02235174447,-187500.02235174447,1730412144.9331956,1730412142.9171937,5000
-3944.881730661599,-187500.02235174447,17762.8419116547,-187500.02235174447,-187500.02235174447,-187500.02235174447,-187500.02235174447,-187500.02235174447,1730412144.9372227,1730412142.9171937,5000
-3963.813658215244,-187500.02235174447,17758.818597652746,-187500.02235174447,-187500.02235174447,-187500.02235174447,-187500.02235174447,-187500.02235174447,1730412144.9401965,1730412142.9171937,5000
-3978.8340304892095,-187500.02235174447,17763.534815732815,-187500.02235174447,-187500.02235174447,-187500.02235174447,-187500.02235174447,-187500.02235174447,1730412144.94407,1730412142.9171937,5000
-3965.624149516124,-187500.02235174447,17765.971155878444,-187500.02235174447,-187500.02235174447,-187500.02235174447,-187500.02235174447,-187500.02235174447,1730412144.9482005,1730412142.9171937,5000
-3973.581370542213,-187500.02235174447,17741.116016044143,-187500.02235174447,-187500.02235174447,-187500.02235174447,-187500.02235174447,-187500.02235174447,1730412144.9521737,1730412142.9171937,5000
-3950.0226318863192,-187500.02235174447,17775.13537110512,-187500.02235174447,-187500.02235174447,-187500.02235174447,-187500.02235174447,-187500.02235174447,1730412144.956266,1730412142.9171937,5000
-3961.332614580705,-187500.02235174447,17787.540589277814,-187500.02235174447,-187500.02235174447,-187500.02235174447,-187500.02235174447,-187500.02235174447,1730412144.96013,1730412142.9171937,5000
-3959.589178513191,-187500.02235174447,17768.765123935358,-187500.02235174447,-187500.02235174447,-187500.02235174447,-187500.02235174447,-187500.02235174447,1730412144.9651742,1730412142.9171937,5000
-3954.470629032925,-187500.02235174447,17761.634917454114,-187500.02235174447,-187500.02235174447,-187500.02235174447,-187500.02235174447,-187500.02235174447,1730412144.9680808,1730412142.9171937,5000
-3964.998300671375,-187500.02235174447,17767.066391356755,-187500.02235174447,-187500.02235174447,-187500.02235174447,-187500.02235174447,-187500.02235174447,1730412144.9721868,1730412142.9171937,5000
-3964.417155315537,-187500.02235174447,17768.340440790707,-187500.02235174447,-187500.02235174447,-187500.02235174447,-187500.02235174447,-187500.02235174447,1730412144.9761484,1730412142.9171937,5000
-3957.018727900831,-187500.02235174447,17762.774856421336,-187500.02235174447,-187500.02235174447,-187500.02235174447,-187500.02235174447,-187500.02235174447,1730412144.9802947,1730412142.9171937,5000
-3966.3394053386937,-187500.02235174447,17739.305524743264,-187500.02235174447,-187500.02235174447,-187500.02235174447,-187500.02235174447,-187500.02235174447,1730412144.9840791,1730412142.9171937,5000
-3970.250960618372,-187500.02235174447,17734.74576887438,-187500.02235174447,-187500.02235174447,-187500.02235174447,-187500.02235174447,-187500.02235174447,1730412144.989292,1730412142.9171937,5000
-3954.895312177576,-187500.02235174447,17772.341403048205,-187500.02235174447,-187500.02235174447,-187500.02235174447,-187500.02235174447,-187500.02235174447,1730412144.9931295,1730412142.9171937,5000
-3952.7718964543214,-187500.02235174447,17792.882656202633,-187500.02235174447,-187500.02235174447,-187500.02235174447,-187500.02235174447,-187500.02235174447,1730412144.9963486,1730412142.9171937,5000
-3947.407477785048,-187500.02235174447,17768.653365213082,-187500.02235174447,-187500.02235174447,-187500.02235174447,-187500.02235174447,-187500.02235174447,1730412145.0001354,1730412142.9171937,5000
-3956.549341267269,-187500.02235174447,17759.109170330667,-187500.02235174447,-187500.02235174447,-187500.02235174447,-187500.02235174447,-187500.02235174447,1730412145.0043612,1730412142.9171937,5000
-3981.449184590481,-187500.02235174447,17776.744696705904,-187500.02235174447,-187500.02235174447,-187500.02235174447,-187500.02235174447,-187500.02235174447,1730412145.00815,1730412142.9171937,5000
-3980.197486900984,-187500.02235174447,17782.95848166448,-187500.02235174447,-187500.02235174447,-187500.02235174447,-187500.02235174447,-187500.02235174447,1730412145.012302,1730412142.9171937,5000
-3964.5289140378136,-187500.02235174447,17769.7933041803,-187500.02235174447,-187500.02235174447,-187500.02235174447,-187500.02235174447,-187500.02235174447,1730412145.016312,1730412142.9171937,5000
-3960.5279517803137,-187500.02235174447,17756.292850529295,-187500.02235174447,-187500.02235174447,-187500.02235174447,-187500.02235174447,-187500.02235174447,1730412145.0202944,1730412142.9171937,5000
-3950.134390608596,-187500.02235174447,17766.909929145568,-187500.02235174447,-187500.02235174447,-187500.02235174447,-187500.02235174447,-187500.02235174447,1730412145.023316,1730412142.9171937,5000
-3948.480361518903,-187500.02235174447,17785.394821810107,-187500.02235174447,-187500.02235174447,-187500.02235174447,-187500.02235174447,-187500.02235174447,1730412145.0282953,1730412142.9171937,5000
-3962.159629125551,-187500.02235174447,17775.18007459403,-187500.02235174447,-187500.02235174447,-187500.02235174447,-187500.02235174447,-187500.02235174447,1730412145.0322745,1730412142.9171937,5000
-3970.608588529657,-187500.02235174447,17762.774856421336,-187500.02235174447,-187500.02235174447,-187500.02235174447,-187500.02235174447,-187500.02235174447,1730412145.0363357,1730412142.9171937,5000
-3979.8845624786095,-187500.02235174447,17765.926452389533,-187500.02235174447,-187500.02235174447,-187500.02235174447,-187500.02235174447,-187500.02235174447,1730412145.04033,1730412142.9171937,5000
-3969.759222240356,-187500.02235174447,17781.930301419532,-187500.02235174447,-187500.02235174447,-187500.02235174447,-187500.02235174447,-187500.02235174447,1730412145.0443163,1730412142.9171937,5000
-3967.6581582615568,-187500.02235174447,17775.224778082942,-187500.02235174447,-187500.02235174447,-187500.02235174447,-187500.02235174447,-187500.02235174447,1730412145.048356,1730412142.9171937,5000
-3948.122733607618,-187500.02235174447,17764.004202366377,-187500.02235174447,-187500.02235174447,-187500.02235174447,-187500.02235174447,-187500.02235174447,1730412145.0512056,1730412142.9171937,5000
-3955.968195911431,-187500.02235174447,17756.739885418403,-187500.02235174447,-187500.02235174447,-187500.02235174447,-187500.02235174447,-187500.02235174447,1730412145.056393,1730412142.9171937,5000
-3955.029422644309,-187500.02235174447,17777.303490317285,-187500.02235174447,-187500.02235174447,-187500.02235174447,-187500.02235174447,-187500.02235174447,1730412145.060381,1730412142.9171937,5000
-3965.132411138107,-187500.02235174447,17777.9963943954,-187500.02235174447,-187500.02235174447,-187500.02235174447,-187500.02235174447,-187500.02235174447,1730412145.0643003,1730412142.9171937,5000
-3962.271387847828,-187500.02235174447,17771.22381582544,-187500.02235174447,-187500.02235174447,-187500.02235174447,-187500.02235174447,-187500.02235174447,1730412145.0683403,1730412142.9171937,5000
-3957.510466278847,-187500.02235174447,17775.872978672145,-187500.02235174447,-187500.02235174447,-187500.02235174447,-187500.02235174447,-187500.02235174447,1730412145.072479,1730412142.9171937,5000
-3959.075088390719,-187500.02235174447,17783.025536897843,-187500.02235174447,-187500.02235174447,-187500.02235174447,-187500.02235174447,-187500.02235174447,1730412145.076182,1730412142.9171937,5000
-3980.063376434252,-187500.02235174447,17771.335574547717,-187500.02235174447,-187500.02235174447,-187500.02235174447,-187500.02235174447,-187500.02235174447,1730412145.079422,1730412142.9171937,5000
-3973.5590187977577,-187500.02235174447,17762.66309769906,-187500.02235174447,-187500.02235174447,-187500.02235174447,-187500.02235174447,-187500.02235174447,1730412145.0842133,1730412142.9171937,5000
-3976.420042088037,-187500.02235174447,17778.28696707332,-187500.02235174447,-187500.02235174447,-187500.02235174447,-187500.02235174447,-187500.02235174447,1730412145.0882804,1730412142.9171937,5000
-3949.7320592084006,-187500.02235174447,17796.838914971224,-187500.02235174447,-187500.02235174447,-187500.02235174447,-187500.02235174447,-187500.02235174447,1730412145.0923047,1730412142.9171937,5000
-3878.966436262898,-187500.02235174447,17797.95650219399,-187500.02235174447,-187500.02235174447,-187500.02235174447,-187500.02235174447,-187500.02235174447,1730412145.0964491,1730412142.9171937,5000
-3966.5629227832464,-187500.02235174447,17786.04302239931,-187500.02235174447,-187500.02235174447,-187500.02235174447,-187500.02235174447,-187500.02235174447,1730412145.1002357,1730412142.9171937,5000
-4010.148824471096,-187500.02235174447,17775.247129827396,-187500.02235174447,-187500.02235174447,-187500.02235174447,-187500.02235174447,-187500.02235174447,1730412145.1042209,1730412142.9171937,5000
-3987.148879426584,-187500.02235174447,17784.27723458734,-187500.02235174447,-187500.02235174447,-187500.02235174447,-187500.02235174447,-187500.02235174447,1730412145.1074655,1730412142.9171937,5000
-3993.8096992742658,-187500.02235174447,17783.51727527586,-187500.02235174447,-187500.02235174447,-187500.02235174447,-187500.02235174447,-187500.02235174447,1730412145.1114416,1730412142.9171937,5000
-3988.422928860537,-187500.02235174447,17774.062487371266,-187500.02235174447,-187500.02235174447,-187500.02235174447,-187500.02235174447,-187500.02235174447,1730412145.1164105,1730412142.9171937,5000
-3947.251015573861,-187500.02235174447,17773.07901061523,-187500.02235174447,-187500.02235174447,-187500.02235174447,-187500.02235174447,-187500.02235174447,1730412145.1202576,1730412142.9171937,5000
-3959.410364557548,-187500.02235174447,17781.170342108053,-187500.02235174447,-187500.02235174447,-187500.02235174447,-187500.02235174447,-187500.02235174447,1730412145.1243424,1730412142.9171937,5000
-3964.97594892692,-187500.02235174447,17784.299586331796,-187500.02235174447,-187500.02235174447,-187500.02235174447,-187500.02235174447,-187500.02235174447,1730412145.1274328,1730412142.9171937,5000
-3965.110059393652,-187500.02235174447,17777.325842061742,-187500.02235174447,-187500.02235174447,-187500.02235174447,-187500.02235174447,-187500.02235174447,1730412145.1314137,1730412142.9171937,5000
-3963.254864603861,-187500.02235174447,17770.597966980695,-187500.02235174447,-187500.02235174447,-187500.02235174447,-187500.02235174447,-187500.02235174447,1730412145.1354709,1730412142.9171937,5000
-3968.932207695509,-187500.02235174447,17757.87982438562,-187500.02235174447,-187500.02235174447,-187500.02235174447,-187500.02235174447,-187500.02235174447,1730412145.139469,1730412142.9171937,5000
-3989.8310887612215,-187500.02235174447,17758.192748807996,-187500.02235174447,-187500.02235174447,-187500.02235174447,-187500.02235174447,-187500.02235174447,1730412145.144364,1730412142.9171937,5000
-3976.017710687842,-187500.02235174447,17785.528932276837,-187500.02235174447,-187500.02235174447,-187500.02235174447,-187500.02235174447,-187500.02235174447,1730412145.148492,1730412142.9171937,5000
-3953.844780188177,-187500.02235174447,17792.882656202633,-187500.02235174447,-187500.02235174447,-187500.02235174447,-187500.02235174447,-187500.02235174447,1730412145.1524525,1730412142.9171937,5000
-3962.673719248023,-187500.02235174447,17789.95457767899,-187500.02235174447,-187500.02235174447,-187500.02235174447,-187500.02235174447,-187500.02235174447,1730412145.1554196,1730412142.9171937,5000
-3984.6901875365006,-187500.02235174447,17789.731060234437,-187500.02235174447,-187500.02235174447,-187500.02235174447,-187500.02235174447,-187500.02235174447,1730412145.1594336,1730412142.9171937,5000
-3973.983701942409,-187500.02235174447,17780.835065941224,-187500.02235174447,-187500.02235174447,-187500.02235174447,-187500.02235174447,-187500.02235174447,1730412145.1633248,1730412142.9171937,5000
-3946.5804632402014,-187500.02235174447,17770.195635580498,-187500.02235174447,-187500.02235174447,-187500.02235174447,-187500.02235174447,-187500.02235174447,1730412145.1674144,1730412142.9171937,5000
-3957.532818023303,-187500.02235174447,17775.291833316307,-187500.02235174447,-187500.02235174447,-187500.02235174447,-187500.02235174447,-187500.02235174447,1730412145.1714084,1730412142.9171937,5000
-3974.1848676425066,-187500.02235174447,17785.931263677034,-187500.02235174447,-187500.02235174447,-187500.02235174447,-187500.02235174447,-187500.02235174447,1730412145.1765609,1730412142.9171937,5000
-3969.3121873512496,-187500.02235174447,17783.919606676056,-187500.02235174447,-187500.02235174447,-187500.02235174447,-187500.02235174447,-187500.02235174447,1730412145.180601,1730412142.9171937,5000
-3970.474478062925,-187500.02235174447,17765.926452389533,-187500.02235174447,-187500.02235174447,-187500.02235174447,-187500.02235174447,-187500.02235174447,1730412145.1834445,1730412142.9171937,5000
-3968.909855951054,-187500.02235174447,17760.539681975806,-187500.02235174447,-187500.02235174447,-187500.02235174447,-187500.02235174447,-187500.02235174447,1730412145.18755,1730412142.9171937,5000
-3968.932207695509,-187500.02235174447,17780.343327563205,-187500.02235174447,-187500.02235174447,-187500.02235174447,-187500.02235174447,-187500.02235174447,1730412145.1914563,1730412142.9171937,5000
-3966.1829431275055,-187500.02235174447,17790.736888734926,-187500.02235174447,-187500.02235174447,-187500.02235174447,-187500.02235174447,-187500.02235174447,1730412145.1956327,1730412142.9171937,5000
-3963.7913064707886,-187500.02235174447,17779.695126974002,-187500.02235174447,-187500.02235174447,-187500.02235174447,-187500.02235174447,-187500.02235174447,1730412145.1996305,1730412142.9171937,5000
-3970.742698996389,-187500.02235174447,17773.123714104142,-187500.02235174447,-187500.02235174447,-187500.02235174447,-187500.02235174447,-187500.02235174447,1730412145.2044828,1730412142.9171937,5000
-3974.162515898051,-187500.02235174447,17776.320013561253,-187500.02235174447,-187500.02235174447,-187500.02235174447,-187500.02235174447,-187500.02235174447,1730412145.20843,1730412142.9171937,5000
-3967.4793443059134,-187500.02235174447,17777.012917639368,-187500.02235174447,-187500.02235174447,-187500.02235174447,-187500.02235174447,-187500.02235174447,1730412145.2116022,1730412142.9171937,5000
-3960.393841313582,-187500.02235174447,17780.32097581875,-187500.02235174447,-187500.02235174447,-187500.02235174447,-187500.02235174447,-187500.02235174447,1730412145.215652,1730412142.9171937,5000
-3955.4764575334143,-187500.02235174447,17771.827312925736,-187500.02235174447,-187500.02235174447,-187500.02235174447,-187500.02235174447,-187500.02235174447,1730412145.219611,1730412142.9171937,5000
-3951.7213644649223,-187500.02235174447,17783.09259213121,-187500.02235174447,-187500.02235174447,-187500.02235174447,-187500.02235174447,-187500.02235174447,1730412145.2234564,1730412142.9171937,5000
-3970.496829807381,-187500.02235174447,17811.680473289547,-187500.02235174447,-187500.02235174447,-187500.02235174447,-187500.02235174447,-187500.02235174447,1730412145.2277064,1730412142.9171937,5000
-3965.758259982856,-187500.02235174447,17791.720365490957,-187500.02235174447,-187500.02235174447,-187500.02235174447,-187500.02235174447,-187500.02235174447,1730412145.2326808,1730412142.9171937,5000
-3955.8564371891534,-187500.02235174447,17775.98473739442,-187500.02235174447,-187500.02235174447,-187500.02235174447,-187500.02235174447,-187500.02235174447,1730412145.2356317,1730412142.9171937,5000
-3973.223742630928,-187500.02235174447,17792.100345146697,-187500.02235174447,-187500.02235174447,-187500.02235174447,-187500.02235174447,-187500.02235174447,1730412145.239528,1730412142.9171937,5000
-3985.114870681152,-187500.02235174447,17791.38508932413,-187500.02235174447,-187500.02235174447,-187500.02235174447,-187500.02235174447,-187500.02235174447,1730412145.243744,1730412142.9171937,5000
-3957.0410796452857,-187500.02235174447,17785.66304274357,-187500.02235174447,-187500.02235174447,-187500.02235174447,-187500.02235174447,-187500.02235174447,1730412145.2476356,1730412142.9171937,5000
-3945.127599850607,-187500.02235174447,17778.354022306685,-187500.02235174447,-187500.02235174447,-187500.02235174447,-187500.02235174447,-187500.02235174447,1730412145.2516756,1730412142.9171937,5000
-3925.391009496571,-187500.02235174447,17780.07510662974,-187500.02235174447,-187500.02235174447,-187500.02235174447,-187500.02235174447,-187500.02235174447,1730412145.2557268,1730412142.9171937,5000
-3991.730987039922,-187500.02235174447,17798.448240572005,-187500.02235174447,-187500.02235174447,-187500.02235174447,-187500.02235174447,-187500.02235174447,1730412145.260759,1730412142.9171937,5000
-3970.3403675961936,-187500.02235174447,17805.600798797703,-187500.02235174447,-187500.02235174447,-187500.02235174447,-187500.02235174447,-187500.02235174447,1730412145.2636948,1730412142.9171937,5000
-3971.390899585593,-187500.02235174447,17781.95265316399,-187500.02235174447,-187500.02235174447,-187500.02235174447,-187500.02235174447,-187500.02235174447,1730412145.2675111,1730412142.9171937,5000
-3973.3802048421153,-187500.02235174447,17769.905062902577,-187500.02235174447,-187500.02235174447,-187500.02235174447,-187500.02235174447,-187500.02235174447,1730412145.2717705,1730412142.9171937,5000
-3988.042949204797,-187500.02235174447,17774.665984471558,-187500.02235174447,-187500.02235174447,-187500.02235174447,-187500.02235174447,-187500.02235174447,1730412145.2756014,1730412142.9171937,5000
-3959.9691581689312,-187500.02235174447,17788.65817650058,-187500.02235174447,-187500.02235174447,-187500.02235174447,-187500.02235174447,-187500.02235174447,1730412145.2797525,1730412142.9171937,5000
-3945.798152184266,-187500.02235174447,17797.978853938443,-187500.02235174447,-187500.02235174447,-187500.02235174447,-187500.02235174447,-187500.02235174447,1730412145.283592,1730412142.9171937,5000
-3962.718422736934,-187500.02235174447,17797.487115560427,-187500.02235174447,-187500.02235174447,-187500.02235174447,-187500.02235174447,-187500.02235174447,1730412145.2887592,1730412142.9171937,5000
-3977.314111866249,-187500.02235174447,17805.533743564338,-187500.02235174447,-187500.02235174447,-187500.02235174447,-187500.02235174447,-187500.02235174447,1730412145.291638,1730412142.9171937,5000
-3961.086745391696,-187500.02235174447,17805.489040075427,-187500.02235174447,-187500.02235174447,-187500.02235174447,-187500.02235174447,-187500.02235174447,1730412145.2947006,1730412142.9171937,5000
-3971.569713541236,-187500.02235174447,17783.673737487046,-187500.02235174447,-187500.02235174447,-187500.02235174447,-187500.02235174447,-187500.02235174447,1730412145.2997136,1730412142.9171937,5000
-3995.530783597325,-187500.02235174447,17772.631975726126,-187500.02235174447,-187500.02235174447,-187500.02235174447,-187500.02235174447,-187500.02235174447,1730412145.3037145,1730412142.9171937,5000
