Fp1,Fp2,C3,C4,P7,P8,O1,O2,time_board,time_marker,marker
-5761.564464755591,-77353.39729230372,4360.735936252587,-187500.02235174447,-187500.02235174447,-187500.02235174447,-187500.02235174447,-187500.02235174447,1730988684.3928096,1730988684.3909433,5000
-5777.098927152029,-77287.95138453858,4352.62225301531,-187500.02235174447,-187500.02235174447,-187500.02235174447,-187500.02235174447,-187500.02235174447,1730988684.396881,1730988684.3909433,5000
-5748.198121571318,-77370.58578378985,4367.396756100268,-187500.02235174447,-187500.02235174447,-187500.02235174447,-187500.02235174447,-187500.02235174447,1730988684.4010549,1730988684.3909433,5000
-5729.512063206681,-77433.90827583174,4382.238314418592,-187500.02235174447,-187500.02235174447,-187500.02235174447,-187500.02235174447,-187500.02235174447,1730988684.4060092,1730988684.3909433,5000
-5732.171920796862,-77367.12126339928,4374.281093392503,-187500.02235174447,-187500.02235174447,-187500.02235174447,-187500.02235174447,-187500.02235174447,1730988684.4098084,1730988684.3909433,5000
-5727.053371316597,-77319.86967562076,4356.779677483997,-187500.02235174447,-187500.02235174447,-187500.02235174447,-187500.02235174447,-187500.02235174447,1730988684.4128444,1730988684.3909433,5000
-5722.739484636722,-77366.33895234334,4363.14992465376,-187500.02235174447,-187500.02235174447,-187500.02235174447,-187500.02235174447,-187500.02235174447,1730988684.416884,1730988684.3909433,5000
-5708.613182140968,-77396.40204863573,4383.86999176383,-187500.02235174447,-187500.02235174447,-187500.02235174447,-187500.02235174447,-187500.02235174447,1730988684.420799,1730988684.3909433,5000
-5747.3264035375605,-77353.55375451491,4381.925389996218,-187500.02235174447,-187500.02235174447,-187500.02235174447,-187500.02235174447,-187500.02235174447,1730988684.4248395,1730988684.3909433,5000
-5766.839476447043,-77289.11367525026,4369.564875312433,-187500.02235174447,-187500.02235174447,-187500.02235174447,-187500.02235174447,-187500.02235174447,1730988684.4288392,1730988684.3909433,5000
-5736.239938287728,-77341.19323983112,4372.090622435882,-187500.02235174447,-187500.02235174447,-187500.02235174447,-187500.02235174447,-187500.02235174447,1730988684.4329293,1730988684.3909433,5000
-5717.822100856555,-77418.23970296857,4387.669788321232,-187500.02235174447,-187500.02235174447,-187500.02235174447,-187500.02235174447,-187500.02235174447,1730988684.4379764,1730988684.3909433,5000
-5708.166147251863,-77365.5119377985,4373.476430592112,-187500.02235174447,-187500.02235174447,-187500.02235174447,-187500.02235174447,-187500.02235174447,1730988684.4409132,1730988684.3909433,5000
-5725.555804438091,-77314.77347788496,4350.968223925617,-187500.02235174447,-187500.02235174447,-187500.02235174447,-187500.02235174447,-187500.02235174447,1730988684.4450245,1730988684.3909433,5000
-5730.204967284795,-77351.16211785818,4368.827267745408,-187500.02235174447,-187500.02235174447,-187500.02235174447,-187500.02235174447,-187500.02235174447,1730988684.448902,1730988684.3909433,5000
-5710.691894375312,-77361.66743775218,4397.281038437014,-187500.02235174447,-187500.02235174447,-187500.02235174447,-187500.02235174447,-187500.02235174447,1730988684.452958,1730988684.3909433,5000
-5698.621952369446,-77337.12522234026,4397.01281750355,-187500.02235174447,-187500.02235174447,-187500.02235174447,-187500.02235174447,-187500.02235174447,1730988684.4569798,1730988684.3909433,5000
-5752.154380339906,-77342.22142007606,4364.2675118765255,-187500.02235174447,-187500.02235174447,-187500.02235174447,-187500.02235174447,-187500.02235174447,1730988684.4619985,1730988684.3909433,5000
-5747.192293070829,-77299.7978090999,4353.2928053489695,-187500.02235174447,-187500.02235174447,-187500.02235174447,-187500.02235174447,-187500.02235174447,1730988684.4658782,1730988684.3909433,5000
-5764.626653745968,-77417.70326110163,4384.384081886302,-187500.02235174447,-187500.02235174447,-187500.02235174447,-187500.02235174447,-187500.02235174447,1730988684.4690332,1730988684.3909433,5000
-5752.891987906932,-77440.9267235907,4395.291733180491,-187500.02235174447,-187500.02235174447,-187500.02235174447,-187500.02235174447,-187500.02235174447,1730988684.472927,1730988684.3909433,5000
-5734.60826094249,-77328.81037340288,4375.331625381902,-187500.02235174447,-187500.02235174447,-187500.02235174447,-187500.02235174447,-187500.02235174447,1730988684.4771533,1730988684.3909433,5000
-5727.790978883622,-77286.99025952701,4363.373442098313,-187500.02235174447,-187500.02235174447,-187500.02235174447,-187500.02235174447,-187500.02235174447,1730988684.480932,1730988684.3909433,5000
-5742.029040101653,-77414.5740168779,4373.811706758941,-187500.02235174447,-187500.02235174447,-187500.02235174447,-187500.02235174447,-187500.02235174447,1730988684.4851823,1730988684.3909433,5000
-5739.615051700479,-77443.60893292534,4385.993407487084,-187500.02235174447,-187500.02235174447,-187500.02235174447,-187500.02235174447,-187500.02235174447,1730988684.489027,1730988684.3909433,5000
-5737.983374355242,-77361.44392030763,4373.252913147559,-187500.02235174447,-187500.02235174447,-187500.02235174447,-187500.02235174447,-187500.02235174447,1730988684.4941952,1730988684.3909433,5000
-5720.928993335842,-77286.56557638236,4359.372479840813,-187500.02235174447,-187500.02235174447,-187500.02235174447,-187500.02235174447,-187500.02235174447,1730988684.4969418,1730988684.3909433,5000
-5710.848356586499,-77362.04741740793,4376.426860860212,-187500.02235174447,-187500.02235174447,-187500.02235174447,-187500.02235174447,-187500.02235174447,1730988684.5010517,1730988684.3909433,5000
-5737.446932488315,-77461.51268023404,4398.353922170869,-187500.02235174447,-187500.02235174447,-187500.02235174447,-187500.02235174447,-187500.02235174447,1730988684.504979,1730988684.3909433,5000
-5744.487731991736,-77441.10553754635,4382.707701052153,-187500.02235174447,-187500.02235174447,-187500.02235174447,-187500.02235174447,-187500.02235174447,1730988684.508983,1730988684.3909433,5000
-5729.869691117966,-77320.54022795442,4362.077040919905,-187500.02235174447,-187500.02235174447,-187500.02235174447,-187500.02235174447,-187500.02235174447,1730988684.5131135,1730988684.3909433,5000
-5690.642379598901,-77306.23511150302,4373.208209658648,-187500.02235174447,-187500.02235174447,-187500.02235174447,-187500.02235174447,-187500.02235174447,1730988684.517221,1730988684.3909433,5000
-5660.3334141175055,-77426.42044143922,4394.82234654693,-187500.02235174447,-187500.02235174447,-187500.02235174447,-187500.02235174447,-187500.02235174447,1730988684.521348,1730988684.3909433,5000
-5755.618900730479,-77410.99773776505,4376.2480469045695,-187500.02235174447,-187500.02235174447,-187500.02235174447,-187500.02235174447,-187500.02235174447,1730988684.524043,1730988684.3909433,5000
-5797.461366350814,-77322.08249832183,4360.735936252587,-187500.02235174447,-187500.02235174447,-187500.02235174447,-187500.02235174447,-187500.02235174447,1730988684.5290704,1730988684.3909433,5000
-5751.014441372686,-77321.47900122154,4362.009985686539,-187500.02235174447,-187500.02235174447,-187500.02235174447,-187500.02235174447,-187500.02235174447,1730988684.533118,1730988684.3909433,5000
-5727.612164927979,-77411.48947614306,4384.138212697293,-187500.02235174447,-187500.02235174447,-187500.02235174447,-187500.02235174447,-187500.02235174447,1730988684.5371482,1730988684.3909433,5000
-5739.235072044739,-77378.43124609366,4378.393814372279,-187500.02235174447,-187500.02235174447,-187500.02235174447,-187500.02235174447,-187500.02235174447,1730988684.5411513,1730988684.3909433,5000
-5728.550938195102,-77316.78513488593,4358.903093207252,-187500.02235174447,-187500.02235174447,-187500.02235174447,-187500.02235174447,-187500.02235174447,1730988684.5451396,1730988684.3909433,5000
-5719.945516579809,-77342.44493752062,4358.3442995958685,-187500.02235174447,-187500.02235174447,-187500.02235174447,-187500.02235174447,-187500.02235174447,1730988684.549099,1730988684.3909433,5000
-5735.703496420801,-77435.38349096579,4385.233448175603,-187500.02235174447,-187500.02235174447,-187500.02235174447,-187500.02235174447,-187500.02235174447,1730988684.552212,1730988684.3909433,5000
-5738.273947033161,-77444.14537479226,4395.91758202524,-187500.02235174447,-187500.02235174447,-187500.02235174447,-187500.02235174447,-187500.02235174447,1730988684.5560548,1730988684.3909433,5000
-5724.214699770773,-77339.6509694637,4369.00608170105,-187500.02235174447,-187500.02235174447,-187500.02235174447,-187500.02235174447,-187500.02235174447,1730988684.5611968,1730988684.3909433,5000
-5728.014496328175,-77308.0456028039,4353.739840238076,-187500.02235174447,-187500.02235174447,-187500.02235174447,-187500.02235174447,-187500.02235174447,1730988684.565234,1730988684.3909433,5000
-5738.94449936682,-77411.51182788752,4373.34232012538,-187500.02235174447,-187500.02235174447,-187500.02235174447,-187500.02235174447,-187500.02235174447,1730988684.569092,1730988684.3909433,5000
-5726.807502127588,-77482.00922989956,4392.028378490017,-187500.02235174447,-187500.02235174447,-187500.02235174447,-187500.02235174447,-187500.02235174447,1730988684.5731578,1730988684.3909433,5000
-5679.22063818224,-77409.276653442,4389.837907533397,-187500.02235174447,-187500.02235174447,-187500.02235174447,-187500.02235174447,-187500.02235174447,1730988684.577207,1730988684.3909433,5000
-5719.453778201792,-77318.97560584256,4365.273340377014,-187500.02235174447,-187500.02235174447,-187500.02235174447,-187500.02235174447,-187500.02235174447,1730988684.5801463,1730988684.3909433,5000
-5787.112508668007,-77400.38065914878,4370.973035213117,-187500.02235174447,-187500.02235174447,-187500.02235174447,-187500.02235174447,-187500.02235174447,1730988684.5852256,1730988684.3909433,5000
-5765.610130502001,-77500.96350919765,4389.860259277852,-187500.02235174447,-187500.02235174447,-187500.02235174447,-187500.02235174447,-187500.02235174447,1730988684.5891483,1730988684.3909433,5000
-5753.964871640786,-77457.53406972099,4377.119764938327,-187500.02235174447,-187500.02235174447,-187500.02235174447,-187500.02235174447,-187500.02235174447,1730988684.5932477,1730988684.3909433,5000
-5732.03781033013,-77375.45846408111,4367.799087500463,-187500.02235174447,-187500.02235174447,-187500.02235174447,-187500.02235174447,-187500.02235174447,1730988684.59714,1730988684.3909433,5000
-5746.342926781527,-77437.01516831103,4377.902075994262,-187500.02235174447,-187500.02235174447,-187500.02235174447,-187500.02235174447,-187500.02235174447,1730988684.6012323,1730988684.3909433,5000
-5746.342926781527,-77511.71469828066,4394.040035490994,-187500.02235174447,-187500.02235174447,-187500.02235174447,-187500.02235174447,-187500.02235174447,1730988684.6051812,1730988684.3909433,5000
-5739.145665066918,-77505.76913425555,4391.15666045626,-187500.02235174447,-187500.02235174447,-187500.02235174447,-187500.02235174447,-187500.02235174447,1730988684.6083307,1730988684.3909433,5000
-5748.689859949334,-77372.57508904637,4368.179067156204,-187500.02235174447,-187500.02235174447,-187500.02235174447,-187500.02235174447,-187500.02235174447,1730988684.6123085,1730988684.3909433,5000
-5722.515967192169,-77399.59834809284,4372.984692214095,-187500.02235174447,-187500.02235174447,-187500.02235174447,-187500.02235174447,-187500.02235174447,1730988684.617339,1730988684.3909433,5000
-5651.146847146374,-77495.30851785047,4396.766948314542,-187500.02235174447,-187500.02235174447,-187500.02235174447,-187500.02235174447,-187500.02235174447,1730988684.6213272,1730988684.3909433,5000
-5725.712266649279,-77452.01318884053,4380.249009162069,-187500.02235174447,-187500.02235174447,-187500.02235174447,-187500.02235174447,-187500.02235174447,1730988684.6253555,1730988684.3909433,5000
-5808.234907178272,-77368.03768492195,4362.948758953662,-187500.02235174447,-187500.02235174447,-187500.02235174447,-187500.02235174447,-187500.02235174447,1730988684.629294,1730988684.3909433,5000
-5783.670340021889,-77407.019127252,4374.10227943686,-187500.02235174447,-187500.02235174447,-187500.02235174447,-187500.02235174447,-187500.02235174447,1730988684.6322913,1730988684.3909433,5000
-5753.786057685144,-77454.98597085309,4393.302427923969,-187500.02235174447,-187500.02235174447,-187500.02235174447,-187500.02235174447,-187500.02235174447,1730988684.636299,1730988684.3909433,5000
-5728.4838829617365,-77453.30959001895,4387.736843554598,-187500.02235174447,-187500.02235174447,-187500.02235174447,-187500.02235174447,-187500.02235174447,1730988684.6402977,1730988684.3909433,5000
-5720.526661935647,-77377.76069376,4363.239331631581,-187500.02235174447,-187500.02235174447,-187500.02235174447,-187500.02235174447,-187500.02235174447,1730988684.6451986,1730988684.3909433,5000
-5753.651947218412,-77397.27376666949,4358.254892618048,-187500.02235174447,-187500.02235174447,-187500.02235174447,-187500.02235174447,-187500.02235174447,1730988684.649217,1730988684.3909433,5000
-5757.675261220367,-77503.42220108774,4378.8855527502965,-187500.02235174447,-187500.02235174447,-187500.02235174447,-187500.02235174447,-187500.02235174447,1730988684.6533432,1730988684.3909433,5000
-5728.550938195102,-77537.3968526598,4389.189706944193,-187500.02235174447,-187500.02235174447,-187500.02235174447,-187500.02235174447,-187500.02235174447,1730988684.6562688,1730988684.3909433,5000
-5722.918298592365,-77444.21243002564,4354.656261760743,-187500.02235174447,-187500.02235174447,-187500.02235174447,-187500.02235174447,-187500.02235174447,1730988684.6602764,1730988684.3909433,5000
-5746.655851203901,-77411.93651103217,4343.48038953309,-187500.02235174447,-187500.02235174447,-187500.02235174447,-187500.02235174447,-187500.02235174447,1730988684.6642635,1730988684.3909433,5000
-5717.822100856555,-77493.81095097197,4379.91373299524,-187500.02235174447,-187500.02235174447,-187500.02235174447,-187500.02235174447,-187500.02235174447,1730988684.6682498,1730988684.3909433,5000
-5679.98059749372,-77497.02960217353,4392.833041290408,-187500.02235174447,-187500.02235174447,-187500.02235174447,-187500.02235174447,-187500.02235174447,1730988684.6722732,1730988684.3909433,5000
-5757.831723431555,-77480.7351804656,4369.073136934417,-187500.02235174447,-187500.02235174447,-187500.02235174447,-187500.02235174447,-187500.02235174447,1730988684.677271,1730988684.3909433,5000
-5762.436182789348,-77501.3434888534,4336.931328407684,-187500.02235174447,-187500.02235174447,-187500.02235174447,-187500.02235174447,-187500.02235174447,1730988684.6812298,1730988684.3909433,5000
-5692.7434435777,-77428.61091239583,4348.330718079891,-187500.02235174447,-187500.02235174447,-187500.02235174447,-187500.02235174447,-187500.02235174447,1730988684.6842132,1730988684.3909433,5000
-5701.617086126457,-77509.50187557959,4402.712512339654,-187500.02235174447,-187500.02235174447,-187500.02235174447,-187500.02235174447,-187500.02235174447,1730988684.6882565,1730988684.3909433,5000
-5669.341167132994,-77482.74683746658,4358.9925001850725,-187500.02235174447,-187500.02235174447,-187500.02235174447,-187500.02235174447,-187500.02235174447,1730988684.6922407,1730988684.3909433,5000
-5622.223689821207,-77408.29317668595,4286.684606872154,-187500.02235174447,-187500.02235174447,-187500.02235174447,-187500.02235174447,-187500.02235174447,1730988684.6962905,1730988684.3909433,5000
-5689.055405742575,-77472.2862210615,4351.482314048089,-187500.02235174447,-187500.02235174447,-187500.02235174447,-187500.02235174447,-187500.02235174447,1730988684.7004972,1730988684.3909433,5000
-5646.2518151106615,-77474.07436061793,4419.856300336874,-187500.02235174447,-187500.02235174447,-187500.02235174447,-187500.02235174447,-187500.02235174447,1730988684.7053394,1730988684.3909433,5000
-5710.2895629751165,-77500.65058477529,4399.247991949081,-187500.02235174447,-187500.02235174447,-187500.02235174447,-187500.02235174447,-187500.02235174447,1730988684.7093985,1730988684.3909433,5000
-5780.697558009334,-77474.8343199294,4358.43370657369,-187500.02235174447,-187500.02235174447,-187500.02235174447,-187500.02235174447,-187500.02235174447,1730988684.7124023,1730988684.3909433,5000
-5704.254591972183,-77429.23676124058,4334.025601628495,-187500.02235174447,-187500.02235174447,-187500.02235174447,-187500.02235174447,-187500.02235174447,1730988684.7163253,1730988684.3909433,5000
-5575.061509020509,-77548.72918709865,4393.525945368522,-187500.02235174447,-187500.02235174447,-187500.02235174447,-187500.02235174447,-187500.02235174447,1730988684.7204146,1730988684.3909433,5000
-5710.803653097589,-77563.10135878342,4408.456910664668,-187500.02235174447,-187500.02235174447,-187500.02235174447,-187500.02235174447,-187500.02235174447,1730988684.7244334,1730988684.3909433,5000
-5869.545742219179,-77481.56219501045,4346.81079945693,-187500.02235174447,-187500.02235174447,-187500.02235174447,-187500.02235174447,-187500.02235174447,1730988684.7284555,1730988684.3909433,5000
-5951.062554247685,-77453.75662490806,4330.181101582182,-187500.02235174447,-187500.02235174447,-187500.02235174447,-187500.02235174447,-187500.02235174447,1730988684.7334487,1730988684.3909433,5000
-5624.123588099908,-77506.05970693346,4411.250878721581,-187500.02235174447,-187500.02235174447,-187500.02235174447,-187500.02235174447,-187500.02235174447,1730988684.737465,1730988684.3909433,5000
-5810.268915923705,-77487.55246252447,4404.813576318452,-187500.02235174447,-187500.02235174447,-187500.02235174447,-187500.02235174447,-187500.02235174447,1730988684.7403836,1730988684.3909433,5000
-5833.000640034752,-77467.50294774807,4383.333549896902,-187500.02235174447,-187500.02235174447,-187500.02235174447,-187500.02235174447,-187500.02235174447,1730988684.7444253,1730988684.3909433,5000
-5570.926436296277,-77410.59540636485,4399.91854428274,-187500.02235174447,-187500.02235174447,-187500.02235174447,-187500.02235174447,-187500.02235174447,1730988684.7484505,1730988684.3909433,5000
-5566.76901182759,-77487.39600031328,4355.10329664985,-187500.02235174447,-187500.02235174447,-187500.02235174447,-187500.02235174447,-187500.02235174447,1730988684.7524345,1730988684.3909433,5000
-5758.345813554027,-77541.04018700603,4297.212278510604,-187500.02235174447,-187500.02235174447,-187500.02235174447,-187500.02235174447,-187500.02235174447,1730988684.75642,1730988684.3909433,5000
-5964.697118365421,-77447.2299155271,4277.520391645478,-187500.02235174447,-187500.02235174447,-187500.02235174447,-187500.02235174447,-187500.02235174447,1730988684.760418,1730988684.3909433,5000
-5848.088067542085,-77380.4652548391,4363.351090353857,-187500.02235174447,-187500.02235174447,-187500.02235174447,-187500.02235174447,-187500.02235174447,1730988684.765416,1730988684.3909433,5000
-5736.03877258763,-77486.12195087933,4405.104148996371,-187500.02235174447,-187500.02235174447,-187500.02235174447,-187500.02235174447,-187500.02235174447,1730988684.7684236,1730988684.3909433,5000
-5782.105717910018,-77560.68737038223,4361.67470951971,-187500.02235174447,-187500.02235174447,-187500.02235174447,-187500.02235174447,-187500.02235174447,1730988684.7724185,1730988684.3909433,5000
-5721.9124700918765,-77502.48342782063,4337.579528996888,-187500.02235174447,-187500.02235174447,-187500.02235174447,-187500.02235174447,-187500.02235174447,1730988684.776391,1730988684.3909433,5000
-5570.591160129447,-77401.78881904946,4395.895230280785,-187500.02235174447,-187500.02235174447,-187500.02235174447,-187500.02235174447,-187500.02235174447,1730988684.7804697,1730988684.3909433,5000
-5611.58425946048,-77476.82362518593,4464.2915683140245,-187500.02235174447,-187500.02235174447,-187500.02235174447,-187500.02235174447,-187500.02235174447,1730988684.784426,1730988684.3909433,5000
-5556.263691933596,-77537.10627998189,4458.88244615584,-187500.02235174447,-187500.02235174447,-187500.02235174447,-187500.02235174447,-187500.02235174447,1730988684.7894545,1730988684.3909433,5000
-5719.476129946248,-77477.56123275295,4375.711605037643,-187500.02235174447,-187500.02235174447,-187500.02235174447,-187500.02235174447,-187500.02235174447,1730988684.7924235,1730988684.3909433,5000
-5808.279610667183,-77397.7655050475,4302.889621602252,-187500.02235174447,-187500.02235174447,-187500.02235174447,-187500.02235174447,-187500.02235174447,1730988684.7954593,1730988684.3909433,5000
-5802.110529197518,-77472.15211059476,4339.769999953509,-187500.02235174447,-187500.02235174447,-187500.02235174447,-187500.02235174447,-187500.02235174447,1730988684.8005576,1730988684.3909433,5000
-5812.660552580423,-77573.5619751885,4368.849619489864,-187500.02235174447,-187500.02235174447,-187500.02235174447,-187500.02235174447,-187500.02235174447,1730988684.8046124,1730988684.3909433,5000
-5740.799694156611,-77511.87116049185,4385.389910386791,-187500.02235174447,-187500.02235174447,-187500.02235174447,-187500.02235174447,-187500.02235174447,1730988684.8085172,1730988684.3909433,5000
-5788.408909846415,-77422.66534837072,4396.185802958704,-187500.02235174447,-187500.02235174447,-187500.02235174447,-187500.02235174447,-187500.02235174447,1730988684.812518,1730988684.3909433,5000
-5797.86369775101,-77452.77314815202,4367.374404355813,-187500.02235174447,-187500.02235174447,-187500.02235174447,-187500.02235174447,-187500.02235174447,1730988684.8175268,1730988684.3909433,5000
-5835.34757320256,-77542.38129167334,4351.370555325813,-187500.02235174447,-187500.02235174447,-187500.02235174447,-187500.02235174447,-187500.02235174447,1730988684.8205633,1730988684.3909433,5000
-5781.815145232099,-77503.15398015428,4367.061479933439,-187500.02235174447,-187500.02235174447,-187500.02235174447,-187500.02235174447,-187500.02235174447,1730988684.8235805,1730988684.3909433,5000
-5746.611147714991,-77439.76443287903,4376.560971326944,-187500.02235174447,-187500.02235174447,-187500.02235174447,-187500.02235174447,-187500.02235174447,1730988684.828606,1730988684.3909433,5000
-5714.268173488161,-77444.03361607,4365.809782243941,-187500.02235174447,-187500.02235174447,-187500.02235174447,-187500.02235174447,-187500.02235174447,1730988684.8326304,1730988684.3909433,5000
-5747.080534348552,-77478.32119206444,4352.443439059668,-187500.02235174447,-187500.02235174447,-187500.02235174447,-187500.02235174447,-187500.02235174447,1730988684.8366368,1730988684.3909433,5000
-5792.253409892727,-77566.99056231864,4335.523168507,-187500.02235174447,-187500.02235174447,-187500.02235174447,-187500.02235174447,-187500.02235174447,1730988684.840701,1730988684.3909433,5000
-5753.830761174055,-77470.92276464973,4342.698078477154,-187500.02235174447,-187500.02235174447,-187500.02235174447,-187500.02235174447,-187500.02235174447,1730988684.8457177,1730988684.3909433,5000
-5724.5499759376025,-77451.81202314043,4350.275319847503,-187500.02235174447,-187500.02235174447,-187500.02235174447,-187500.02235174447,-187500.02235174447,1730988684.848548,1730988684.3909433,5000
-5630.5161870141255,-77503.57866329893,4411.094416510394,-187500.02235174447,-187500.02235174447,-187500.02235174447,-187500.02235174447,-187500.02235174447,1730988684.851555,1730988684.3909433,5000
-5644.128399387408,-77502.77400049854,4402.421939661735,-187500.02235174447,-187500.02235174447,-187500.02235174447,-187500.02235174447,-187500.02235174447,1730988684.8565817,1730988684.3909433,5000
-5812.727607813788,-77475.97425889662,4338.630060986288,-187500.02235174447,-187500.02235174447,-187500.02235174447,-187500.02235174447,-187500.02235174447,1730988684.8606305,1730988684.3909433,5000
-5783.29036036615,-77456.37177900932,4317.150034564738,-187500.02235174447,-187500.02235174447,-187500.02235174447,-187500.02235174447,-187500.02235174447,1730988684.8645897,1730988684.3909433,5000
-5781.345758598538,-77486.16665436825,4317.932345620674,-187500.02235174447,-187500.02235174447,-187500.02235174447,-187500.02235174447,-187500.02235174447,1730988684.8687212,1730988684.3909433,5000
-5749.360412282993,-77594.28204229857,4352.354032081847,-187500.02235174447,-187500.02235174447,-187500.02235174447,-187500.02235174447,-187500.02235174447,1730988684.8727896,1730988684.3909433,5000
-5695.60446686798,-77517.23557916112,4349.224787858104,-187500.02235174447,-187500.02235174447,-187500.02235174447,-187500.02235174447,-187500.02235174447,1730988684.8768027,1730988684.3909433,5000
-5770.929845682364,-77442.49134570257,4316.278316530981,-187500.02235174447,-187500.02235174447,-187500.02235174447,-187500.02235174447,-187500.02235174447,1730988684.8795989,1730988684.3909433,5000
-5737.625746443957,-77471.16863383874,4343.011002899529,-187500.02235174447,-187500.02235174447,-187500.02235174447,-187500.02235174447,-187500.02235174447,1730988684.8846257,1730988684.3909433,5000
-5641.692059241779,-77551.03141677755,4403.472471651134,-187500.02235174447,-187500.02235174447,-187500.02235174447,-187500.02235174447,-187500.02235174447,1730988684.8886354,1730988684.3909433,5000
-5702.779376838133,-77528.00911998858,4382.238314418592,-187500.02235174447,-187500.02235174447,-187500.02235174447,-187500.02235174447,-187500.02235174447,1730988684.8928487,1730988684.3909433,5000
-5738.877444133454,-77431.74015661958,4346.162598867726,-187500.02235174447,-187500.02235174447,-187500.02235174447,-187500.02235174447,-187500.02235174447,1730988684.8966255,1730988684.3909433,5000
-5789.86177323601,-77486.81485495745,4312.456168229123,-187500.02235174447,-187500.02235174447,-187500.02235174447,-187500.02235174447,-187500.02235174447,1730988684.900669,1730988684.3909433,5000
-5801.775253030688,-77550.6514371218,4343.815665699919,-187500.02235174447,-187500.02235174447,-187500.02235174447,-187500.02235174447,-187500.02235174447,1730988684.9046507,1730988684.3909433,5000
-5743.794827913622,-77497.38723008482,4358.210189129137,-187500.02235174447,-187500.02235174447,-187500.02235174447,-187500.02235174447,-187500.02235174447,1730988684.9077652,1730988684.3909433,5000
-5741.8055226571,-77484.35616306736,4378.729090539109,-187500.02235174447,-187500.02235174447,-187500.02235174447,-187500.02235174447,-187500.02235174447,1730988684.911778,1730988684.3909433,5000
-5723.074760803552,-77489.36295382536,4374.973997470617,-187500.02235174447,-187500.02235174447,-187500.02235174447,-187500.02235174447,-187500.02235174447,1730988684.916721,1730988684.3909433,5000
-5732.70836266379,-77511.93821572521,4348.375421568802,-187500.02235174447,-187500.02235174447,-187500.02235174447,-187500.02235174447,-187500.02235174447,1730988684.920766,1730988684.3909433,5000
-5775.847229462533,-77511.80410525849,4347.883683190785,-187500.02235174447,-187500.02235174447,-187500.02235174447,-187500.02235174447,-187500.02235174447,1730988684.924765,1730988684.3909433,5000
-5736.217586543273,-77435.24938049905,4363.865180476329,-187500.02235174447,-187500.02235174447,-187500.02235174447,-187500.02235174447,-187500.02235174447,1730988684.9276755,1730988684.3909433,5000
-5737.201063299306,-77493.85565446087,4355.505628050045,-187500.02235174447,-187500.02235174447,-187500.02235174447,-187500.02235174447,-187500.02235174447,1730988684.9316404,1730988684.3909433,5000
-5721.331324736038,-77548.97505628766,4358.925444951707,-187500.02235174447,-187500.02235174447,-187500.02235174447,-187500.02235174447,-187500.02235174447,1730988684.9356391,1730988684.3909433,5000
-5710.714246119767,-77547.0528062645,4368.044956689472,-187500.02235174447,-187500.02235174447,-187500.02235174447,-187500.02235174447,-187500.02235174447,1730988684.9397547,1730988684.3909433,5000
-5740.173845311862,-77465.9830291251,4398.130404726316,-187500.02235174447,-187500.02235174447,-187500.02235174447,-187500.02235174447,-187500.02235174447,1730988684.9448206,1730988684.3909433,5000
-5770.706328237811,-77452.52727896301,4378.192648672181,-187500.02235174447,-187500.02235174447,-187500.02235174447,-187500.02235174447,-187500.02235174447,1730988684.9487476,1730988684.3909433,5000
-5699.404263425382,-77526.26568392107,4355.81855247242,-187500.02235174447,-187500.02235174447,-187500.02235174447,-187500.02235174447,-187500.02235174447,1730988684.952782,1730988684.3909433,5000
-5770.348700326526,-77535.2510851921,4348.464828546623,-187500.02235174447,-187500.02235174447,-187500.02235174447,-187500.02235174447,-187500.02235174447,1730988684.9557495,1730988684.3909433,5000
-5716.928031078342,-77481.9421746662,4355.326814094403,-187500.02235174447,-187500.02235174447,-187500.02235174447,-187500.02235174447,-187500.02235174447,1730988684.9598253,1730988684.3909433,5000
-5722.918298592365,-77420.65369136973,4363.57460779841,-187500.02235174447,-187500.02235174447,-187500.02235174447,-187500.02235174447,-187500.02235174447,1730988684.9637458,1730988684.3909433,5000
-5733.423618486359,-77463.36787502383,4365.943892710673,-187500.02235174447,-187500.02235174447,-187500.02235174447,-187500.02235174447,-187500.02235174447,1730988684.9677012,1730988684.3909433,5000
-5728.103903305996,-77579.88751886935,4371.621235802321,-187500.02235174447,-187500.02235174447,-187500.02235174447,-187500.02235174447,-187500.02235174447,1730988684.972778,1730988684.3909433,5000
-5693.905734289377,-77566.63293440735,4363.395793842768,-187500.02235174447,-187500.02235174447,-187500.02235174447,-187500.02235174447,-187500.02235174447,1730988684.9767234,1730988684.3909433,5000
-5725.220528271262,-77482.12098862184,4325.71075269112,-187500.02235174447,-187500.02235174447,-187500.02235174447,-187500.02235174447,-187500.02235174447,1730988684.9807644,1730988684.3909433,5000
-5682.416937639348,-77507.87019823435,4344.843845944864,-187500.02235174447,-187500.02235174447,-187500.02235174447,-187500.02235174447,-187500.02235174447,1730988684.983821,1730988684.3909433,5000
-5712.569440909558,-77522.01885247456,4374.929293981707,-187500.02235174447,-187500.02235174447,-187500.02235174447,-187500.02235174447,-187500.02235174447,1730988684.987851,1730988684.3909433,5000
-5751.908511150898,-77546.89634405331,4359.506590307545,-187500.02235174447,-187500.02235174447,-187500.02235174447,-187500.02235174447,-187500.02235174447,1730988684.9918947,1730988684.3909433,5000
-5727.902737605898,-77478.87998567581,4335.880796418285,-187500.02235174447,-187500.02235174447,-187500.02235174447,-187500.02235174447,-187500.02235174447,1730988684.995988,1730988684.3909433,5000
-5702.064121015564,-77457.93640112119,4350.163561125227,-187500.02235174447,-187500.02235174447,-187500.02235174447,-187500.02235174447,-187500.02235174447,1730988685.0009916,1730988684.3909433,5000
-5698.711359347268,-77544.88468705234,4379.846677761874,-187500.02235174447,-187500.02235174447,-187500.02235174447,-187500.02235174447,-187500.02235174447,1730988685.0048397,1730988684.3909433,5000
-5618.11096884143,-77553.60186738991,4394.889401780296,-187500.02235174447,-187500.02235174447,-187500.02235174447,-187500.02235174447,-187500.02235174447,1730988685.0090191,1730988684.3909433,5000
-5713.731731621234,-77469.5369564935,4346.76609596802,-187500.02235174447,-187500.02235174447,-187500.02235174447,-187500.02235174447,-187500.02235174447,1730988685.0118444,1730988684.3909433,5000
-5812.05705548013,-77494.99559342809,4344.463866289123,-187500.02235174447,-187500.02235174447,-187500.02235174447,-187500.02235174447,-187500.02235174447,1730988685.0158875,1730988684.3909433,5000
-5707.763815851667,-77590.43754225226,4370.280131135003,-187500.02235174447,-187500.02235174447,-187500.02235174447,-187500.02235174447,-187500.02235174447,1730988685.0199687,1730988684.3909433,5000
-5701.304161704084,-77585.85543463891,4378.662035305743,-187500.02235174447,-187500.02235174447,-187500.02235174447,-187500.02235174447,-187500.02235174447,1730988685.023939,1730988684.3909433,5000
-5718.515004934669,-77473.64967747328,4359.640700774276,-187500.02235174447,-187500.02235174447,-187500.02235174447,-187500.02235174447,-187500.02235174447,1730988685.028998,1730988684.3909433,5000
-5774.573180028579,-77490.25702360357,4333.757380695031,-187500.02235174447,-187500.02235174447,-187500.02235174447,-187500.02235174447,-187500.02235174447,1730988685.033007,1730988684.3909433,5000
-5788.967703457797,-77532.32300666845,4330.158749837727,-187500.02235174447,-187500.02235174447,-187500.02235174447,-187500.02235174447,-187500.02235174447,1730988685.0370452,1730988684.3909433,5000
-5725.980487582742,-77539.92259978325,4372.537657324989,-187500.02235174447,-187500.02235174447,-187500.02235174447,-187500.02235174447,-187500.02235174447,1730988685.0398724,1730988684.3909433,5000
-5660.579283306513,-77516.9003029943,4393.704759324165,-187500.02235174447,-187500.02235174447,-187500.02235174447,-187500.02235174447,-187500.02235174447,1730988685.0438168,1730988684.3909433,5000
-5687.759004564167,-77437.66336890023,4374.325796881413,-187500.02235174447,-187500.02235174447,-187500.02235174447,-187500.02235174447,-187500.02235174447,1730988685.0478303,1730988684.3909433,5000
-5733.714191164278,-77534.22290494715,4367.374404355813,-187500.02235174447,-187500.02235174447,-187500.02235174447,-187500.02235174447,-187500.02235174447,1730988685.0520592,1730988684.3909433,5000
-5722.650077658901,-77617.41609780981,4368.447288089667,-187500.02235174447,-187500.02235174447,-187500.02235174447,-187500.02235174447,-187500.02235174447,1730988685.055869,1730988684.3909433,5000
-5738.005726099697,-77553.08777726743,4381.076023706916,-187500.02235174447,-187500.02235174447,-187500.02235174447,-187500.02235174447,-187500.02235174447,1730988685.0610318,1730988684.3909433,5000
-5705.908621061876,-77462.22793605662,4398.420977404235,-187500.02235174447,-187500.02235174447,-187500.02235174447,-187500.02235174447,-187500.02235174447,1730988685.0639465,1730988684.3909433,5000
-5714.067007788063,-77531.71950956817,4370.526000324011,-187500.02235174447,-187500.02235174447,-187500.02235174447,-187500.02235174447,-187500.02235174447,1730988685.068019,1730988684.3909433,5000
-5697.884344802421,-77572.19851877673,4363.686366520687,-187500.02235174447,-187500.02235174447,-187500.02235174447,-187500.02235174447,-187500.02235174447,1730988685.0719085,1730988684.3909433,5000
-5706.109786761974,-77533.48529738013,4359.238369374081,-187500.02235174447,-187500.02235174447,-187500.02235174447,-187500.02235174447,-187500.02235174447,1730988685.0760388,1730988684.3909433,5000
-5708.389664696416,-77497.61074752937,4347.436648301679,-187500.02235174447,-187500.02235174447,-187500.02235174447,-187500.02235174447,-187500.02235174447,1730988685.079892,1730988684.3909433,5000
-5691.961132521765,-77554.56299240148,4346.944909923663,-187500.02235174447,-187500.02235174447,-187500.02235174447,-187500.02235174447,-187500.02235174447,1730988685.0841255,1730988684.3909433,5000
-5734.496502220214,-77582.07798982596,4352.063459403928,-187500.02235174447,-187500.02235174447,-187500.02235174447,-187500.02235174447,-187500.02235174447,1730988685.0889585,1730988684.3909433,5000
-5760.737450210745,-77516.34150938291,4343.815665699919,-187500.02235174447,-187500.02235174447,-187500.02235174447,-187500.02235174447,-187500.02235174447,1730988685.092134,1730988684.3909433,5000
-5724.03588581513,-77481.18221535471,4328.772941681497,-187500.02235174447,-187500.02235174447,-187500.02235174447,-187500.02235174447,-187500.02235174447,1730988685.095075,1730988684.3909433,5000
-5703.516984405159,-77536.21221020368,4336.305479562936,-187500.02235174447,-187500.02235174447,-187500.02235174447,-187500.02235174447,-187500.02235174447,1730988685.1000097,1730988684.3909433,5000
-5712.994124054208,-77572.57849843246,4368.849619489864,-187500.02235174447,-187500.02235174447,-187500.02235174447,-187500.02235174447,-187500.02235174447,1730988685.1040604,1730988684.3909433,5000
-5703.293466960606,-77551.09847201091,4379.779622528508,-187500.02235174447,-187500.02235174447,-187500.02235174447,-187500.02235174447,-187500.02235174447,1730988685.1080332,1730988684.3909433,5000
-5677.499553859181,-77487.15013112428,4349.403601813746,-187500.02235174447,-187500.02235174447,-187500.02235174447,-187500.02235174447,-187500.02235174447,1730988685.1119752,1730988684.3909433,5000
-5705.215716983762,-77534.6028846029,4336.663107474221,-187500.02235174447,-187500.02235174447,-187500.02235174447,-187500.02235174447,-187500.02235174447,1730988685.117104,1730988684.3909433,5000
-5681.07583297203,-77571.97500133218,4378.013834716539,-187500.02235174447,-187500.02235174447,-187500.02235174447,-187500.02235174447,-187500.02235174447,1730988685.1200352,1730988684.3909433,5000
-5687.379024908427,-77590.39283876335,4361.562950797433,-187500.02235174447,-187500.02235174447,-187500.02235174447,-187500.02235174447,-187500.02235174447,1730988685.1229317,1730988684.3909433,5000
-5772.203895116317,-77520.74480304061,4328.370610281302,-187500.02235174447,-187500.02235174447,-187500.02235174447,-187500.02235174447,-187500.02235174447,1730988685.1281338,1730988684.3909433,5000
-5751.036793117141,-77517.43674486122,4338.652412730743,-187500.02235174447,-187500.02235174447,-187500.02235174447,-187500.02235174447,-187500.02235174447,1730988685.1319432,1730988684.3909433,5000
-5732.887176619432,-77594.50555974312,4356.24323561707,-187500.02235174447,-187500.02235174447,-187500.02235174447,-187500.02235174447,-187500.02235174447,1730988685.1360676,1730988684.3909433,5000
-5720.057275302086,-77588.35883001791,4389.636741833298,-187500.02235174447,-187500.02235174447,-187500.02235174447,-187500.02235174447,-187500.02235174447,1730988685.1401465,1730988684.3909433,5000
-5724.527624193147,-77554.65239937931,4365.027471188006,-187500.02235174447,-187500.02235174447,-187500.02235174447,-187500.02235174447,-187500.02235174447,1730988685.1441133,1730988684.3909433,5000
-5700.678312859334,-77518.64373906181,4336.707810963132,-187500.02235174447,-187500.02235174447,-187500.02235174447,-187500.02235174447,-187500.02235174447,1730988685.1480503,1730988684.3909433,5000
-5640.082733640997,-77522.95762574168,4343.9050726777405,-187500.02235174447,-187500.02235174447,-187500.02235174447,-187500.02235174447,-187500.02235174447,1730988685.151126,1730988684.3909433,5000
-5682.372234150438,-77656.15167095086,4368.469639834123,-187500.02235174447,-187500.02235174447,-187500.02235174447,-187500.02235174447,-187500.02235174447,1730988685.1559908,1730988684.3909433,5000
-5774.99786317323,-77640.63956029888,4370.123668923816,-187500.02235174447,-187500.02235174447,-187500.02235174447,-187500.02235174447,-187500.02235174447,1730988685.1601567,1730988684.3909433,5000
-5772.315653838594,-77508.6972127792,4354.991537927573,-187500.02235174447,-187500.02235174447,-187500.02235174447,-187500.02235174447,-187500.02235174447,1730988685.1640007,1730988684.3909433,5000
-5698.711359347268,-77546.76223358659,4371.196552657671,-187500.02235174447,-187500.02235174447,-187500.02235174447,-187500.02235174447,-187500.02235174447,1730988685.1681657,1730988684.3909433,5000
-5717.576231667546,-77644.46170860073,4369.38606135679,-187500.02235174447,-187500.02235174447,-187500.02235174447,-187500.02235174447,-187500.02235174447,1730988685.1730225,1730988684.3909433,5000
-5710.870708330955,-77587.12948407287,4351.90699719274,-187500.02235174447,-187500.02235174447,-187500.02235174447,-187500.02235174447,-187500.02235174447,1730988685.1760936,1730988684.3909433,5000
-5680.293521916095,-77514.53101808202,4328.124741092293,-187500.02235174447,-187500.02235174447,-187500.02235174447,-187500.02235174447,-187500.02235174447,1730988685.1790843,1730988684.3909433,5000
-5713.03882754312,-77572.1538152878,4325.956621880129,-187500.02235174447,-187500.02235174447,-187500.02235174447,-187500.02235174447,-187500.02235174447,1730988685.183182,1730988684.3909433,5000
-5701.08064425953,-77623.22755136818,4376.67273004922,-187500.02235174447,-187500.02235174447,-187500.02235174447,-187500.02235174447,-187500.02235174447,1730988685.1882336,1730988684.3909433,5000
-5688.831888298022,-77542.51540214008,4378.572628327922,-187500.02235174447,-187500.02235174447,-187500.02235174447,-187500.02235174447,-187500.02235174447,1730988685.1921985,1730988684.3909433,5000
-5627.319887557017,-77499.22007313014,4353.538674537977,-187500.02235174447,-187500.02235174447,-187500.02235174447,-187500.02235174447,-187500.02235174447,1730988685.1961615,1730988684.3909433,5000
-5759.642214732435,-77574.32193449998,4337.2666045745145,-187500.02235174447,-187500.02235174447,-187500.02235174447,-187500.02235174447,-187500.02235174447,1730988685.20008,1730988684.3909433,5000
-5798.444843106848,-77665.20412745526,4343.234520344081,-187500.02235174447,-187500.02235174447,-187500.02235174447,-187500.02235174447,-187500.02235174447,1730988685.203136,1730988684.3909433,5000
-5686.462603385759,-77650.2284586702,4356.667918761721,-187500.02235174447,-187500.02235174447,-187500.02235174447,-187500.02235174447,-187500.02235174447,1730988685.207113,1730988684.3909433,5000
-5686.708472574767,-77541.53192538404,4339.613537742322,-187500.02235174447,-187500.02235174447,-187500.02235174447,-187500.02235174447,-187500.02235174447,1730988685.2122931,1730988684.3909433,5000
-5715.765740366667,-77494.95088993918,4346.296709334459,-187500.02235174447,-187500.02235174447,-187500.02235174447,-187500.02235174447,-187500.02235174447,1730988685.2160723,1730988684.3909433,5000
-5682.1710684503405,-77578.23348977965,4355.885607705785,-187500.02235174447,-187500.02235174447,-187500.02235174447,-187500.02235174447,-187500.02235174447,1730988685.2201288,1730988684.3909433,5000
-5704.388702438915,-77651.50250810415,4351.348203581358,-187500.02235174447,-187500.02235174447,-187500.02235174447,-187500.02235174447,-187500.02235174447,1730988685.2241185,1730988684.3909433,5000
-5743.66071744689,-77576.62416417888,4327.208319569626,-187500.02235174447,-187500.02235174447,-187500.02235174447,-187500.02235174447,-187500.02235174447,1730988685.227238,1730988684.3909433,5000
-5659.037012939098,-77479.21526184265,4332.23746207207,-187500.02235174447,-187500.02235174447,-187500.02235174447,-187500.02235174447,-187500.02235174447,1730988685.2311635,1730988684.3909433,5000
-5565.651424604825,-77571.37150423188,4362.792296742475,-187500.02235174447,-187500.02235174447,-187500.02235174447,-187500.02235174447,-187500.02235174447,1730988685.2352364,1730988684.3909433,5000
-5767.174752613873,-77661.33727566448,4330.605784726833,-187500.02235174447,-187500.02235174447,-187500.02235174447,-187500.02235174447,-187500.02235174447,1730988685.2391708,1730988684.3909433,5000
-5746.767609926178,-77601.07697261298,4334.226767328592,-187500.02235174447,-187500.02235174447,-187500.02235174447,-187500.02235174447,-187500.02235174447,1730988685.2442656,1730988684.3909433,5000
-5763.8219909455765,-77526.33273915443,4358.657224018243,-187500.02235174447,-187500.02235174447,-187500.02235174447,-187500.02235174447,-187500.02235174447,1730988685.2481608,1730988684.3909433,5000
-5720.347847980005,-77587.82238815098,4369.520171823522,-187500.02235174447,-187500.02235174447,-187500.02235174447,-187500.02235174447,-187500.02235174447,1730988685.2521653,1730988684.3909433,5000
-5688.27309468664,-77676.24588921618,4359.014851929528,-187500.02235174447,-187500.02235174447,-187500.02235174447,-187500.02235174447,-187500.02235174447,1730988685.255169,1730988684.3909433,5000
-5697.750234335689,-77617.81842921,4331.633964971777,-187500.02235174447,-187500.02235174447,-187500.02235174447,-187500.02235174447,-187500.02235174447,1730988685.2592645,1730988684.3909433,5000
-5732.03781033013,-77523.91875075326,4345.492046534067,-187500.02235174447,-187500.02235174447,-187500.02235174447,-187500.02235174447,-187500.02235174447,1730988685.263219,1730988684.3909433,5000
-5666.971882220732,-77575.73009440066,4367.664977033732,-187500.02235174447,-187500.02235174447,-187500.02235174447,-187500.02235174447,-187500.02235174447,1730988685.2672827,1730988684.3909433,5000
-5604.498756468148,-77665.82997630001,4365.00511944355,-187500.02235174447,-187500.02235174447,-187500.02235174447,-187500.02235174447,-187500.02235174447,1730988685.2722244,1730988684.3909433,5000
-5750.410944272393,-77658.07392097401,4331.745723694054,-187500.02235174447,-187500.02235174447,-187500.02235174447,-187500.02235174447,-187500.02235174447,1730988685.276327,1730988684.3909433,5000
-5777.389499829948,-77569.69512339773,4302.688455902155,-187500.02235174447,-187500.02235174447,-187500.02235174447,-187500.02235174447,-187500.02235174447,1730988685.280373,1730988684.3909433,5000
-5743.414848257881,-77551.9031348113,4346.81079945693,-187500.02235174447,-187500.02235174447,-187500.02235174447,-187500.02235174447,-187500.02235174447,1730988685.2832708,1730988684.3909433,5000
-5690.93295227682,-77650.38492088139,4408.68042810922,-187500.02235174447,-187500.02235174447,-187500.02235174447,-187500.02235174447,-187500.02235174447,1730988685.2872365,1730988684.3909433,5000
-5680.852315527477,-77687.98055505521,4353.873950704808,-187500.02235174447,-187500.02235174447,-187500.02235174447,-187500.02235174447,-187500.02235174447,1730988685.2914212,1730988684.3909433,5000
-5708.389664696416,-77608.18482734976,4322.782674167475,-187500.02235174447,-187500.02235174447,-187500.02235174447,-187500.02235174447,-187500.02235174447,1730988685.2955284,1730988684.3909433,5000
-5680.382928893916,-77553.84773657891,4323.117950334305,-187500.02235174447,-187500.02235174447,-187500.02235174447,-187500.02235174447,-187500.02235174447,1730988685.3003864,1730988684.3909433,5000
-5635.120646371919,-77632.68233927278,4347.459000046134,-187500.02235174447,-187500.02235174447,-187500.02235174447,-187500.02235174447,-187500.02235174447,1730988685.304426,1730988684.3909433,5000
-5696.476184901737,-77636.325673619,4371.241256146581,-187500.02235174447,-187500.02235174447,-187500.02235174447,-187500.02235174447,-187500.02235174447,1730988685.3074272,1730988684.3909433,5000
-5719.520833435158,-77584.44727473822,4350.9458721811625,-187500.02235174447,-187500.02235174447,-187500.02235174447,-187500.02235174447,-187500.02235174447,1730988685.311479,1730988684.3909433,5000
-5694.866859300954,-77605.45791452623,4330.270508560003,-187500.02235174447,-187500.02235174447,-187500.02235174447,-187500.02235174447,-187500.02235174447,1730988685.3153336,1730988684.3909433,5000
-5677.365443392449,-77602.03809762455,4341.401677298746,-187500.02235174447,-187500.02235174447,-187500.02235174447,-187500.02235174447,-187500.02235174447,1730988685.319425,1730988684.3909433,5000
-5705.171013494852,-77650.58608658149,4366.43563108869,-187500.02235174447,-187500.02235174447,-187500.02235174447,-187500.02235174447,-187500.02235174447,1730988685.323305,1730988684.3909433,5000
-5668.536504332603,-77605.5696732485,4347.86133144633,-187500.02235174447,-187500.02235174447,-187500.02235174447,-187500.02235174447,-187500.02235174447,1730988685.3283885,1730988684.3909433,5000
-5695.537411634614,-77531.58539910143,4302.956676835618,-187500.02235174447,-187500.02235174447,-187500.02235174447,-187500.02235174447,-187500.02235174447,1730988685.3324664,1730988684.3909433,5000
-5735.144702809418,-77612.45401054074,4328.929403892685,-187500.02235174447,-187500.02235174447,-187500.02235174447,-187500.02235174447,-187500.02235174447,1730988685.3354127,1730988684.3909433,5000
-5684.249780684684,-77696.60832841496,4360.892398463774,-187500.02235174447,-187500.02235174447,-187500.02235174447,-187500.02235174447,-187500.02235174447,1730988685.339358,1730988684.3909433,5000
-5655.661899526346,-77650.6307900704,4361.361785097335,-187500.02235174447,-187500.02235174447,-187500.02235174447,-187500.02235174447,-187500.02235174447,1730988685.3434267,1730988684.3909433,5000
-5688.004873753175,-77517.5038000946,4349.157732624738,-187500.02235174447,-187500.02235174447,-187500.02235174447,-187500.02235174447,-187500.02235174447,1730988685.3474607,1730988684.3909433,5000
-5742.319612779572,-77605.88259767088,4348.330718079891,-187500.02235174447,-187500.02235174447,-187500.02235174447,-187500.02235174447,-187500.02235174447,1730988685.351336,1730988684.3909433,5000
-5706.422711184348,-77696.96595632624,4360.177142641204,-187500.02235174447,-187500.02235174447,-187500.02235174447,-187500.02235174447,-187500.02235174447,1730988685.3554628,1730988684.3909433,5000
-5716.2798304891385,-77662.85719428746,4345.0226599005055,-187500.02235174447,-187500.02235174447,-187500.02235174447,-187500.02235174447,-187500.02235174447,1730988685.360516,1730988684.3909433,5000
-5680.025300982631,-77545.1529079858,4323.699095690143,-187500.02235174447,-187500.02235174447,-187500.02235174447,-187500.02235174447,-187500.02235174447,1730988685.3633564,1730988684.3909433,5000
-5694.866859300954,-77537.70977708219,4317.865290387308,-187500.02235174447,-187500.02235174447,-187500.02235174447,-187500.02235174447,-187500.02235174447,1730988685.366576,1730988684.3909433,5000
-5691.514097632658,-77662.20899369824,4345.760267467531,-187500.02235174447,-187500.02235174447,-187500.02235174447,-187500.02235174447,-187500.02235174447,1730988685.3714435,1730988684.3909433,5000
-5672.448059612282,-77674.05541825955,4356.533808294989,-187500.02235174447,-187500.02235174447,-187500.02235174447,-187500.02235174447,-187500.02235174447,1730988685.375471,1730988684.3909433,5000
-5759.061069376597,-77584.44727473822,4329.398790526247,-187500.02235174447,-187500.02235174447,-187500.02235174447,-187500.02235174447,-187500.02235174447,1730988685.379476,1730988684.3909433,5000
-5735.99406909872,-77563.79426286153,4320.055761343928,-187500.02235174447,-187500.02235174447,-187500.02235174447,-187500.02235174447,-187500.02235174447,1730988685.3835168,1730988684.3909433,5000
-5692.251705199684,-77649.93788599229,4340.664069731721,-187500.02235174447,-187500.02235174447,-187500.02235174447,-187500.02235174447,-187500.02235174447,1730988685.3884296,1730988684.3909433,5000
-5709.686065874823,-77656.35283665096,4361.518247308522,-187500.02235174447,-187500.02235174447,-187500.02235174447,-187500.02235174447,-187500.02235174447,1730988685.3914757,1730988684.3909433,5000
-5693.235181955717,-77587.50946372861,4331.85748241633,-187500.02235174447,-187500.02235174447,-187500.02235174447,-187500.02235174447,-187500.02235174447,1730988685.3955147,1730988684.3909433,5000
-5702.779376838133,-77544.0576725075,4328.191796325659,-187500.02235174447,-187500.02235174447,-187500.02235174447,-187500.02235174447,-187500.02235174447,1730988685.399468,1730988684.3909433,5000
-5668.961187477254,-77624.94863569125,4347.414296557224,-187500.02235174447,-187500.02235174447,-187500.02235174447,-187500.02235174447,-187500.02235174447,1730988685.4035077,1730988684.3909433,5000
-5636.26058533914,-77645.80281326805,4342.295747076958,-187500.02235174447,-187500.02235174447,-187500.02235174447,-187500.02235174447,-187500.02235174447,1730988685.4074996,1730988684.3909433,5000
-5756.378860041959,-77653.80473778305,4330.76224693802,-187500.02235174447,-187500.02235174447,-187500.02235174447,-187500.02235174447,-187500.02235174447,1730988685.4115555,1730988684.3909433,5000
-5725.198176526807,-77576.82532987896,4330.494026004556,-187500.02235174447,-187500.02235174447,-187500.02235174447,-187500.02235174447,-187500.02235174447,1730988685.4165623,1730988684.3909433,5000
-5701.572382637547,-77562.14023377183,4339.501779020045,-187500.02235174447,-187500.02235174447,-187500.02235174447,-187500.02235174447,-187500.02235174447,1730988685.4195683,1730988684.3909433,5000
-5670.704623544768,-77654.92232500581,4350.565892525422,-187500.02235174447,-187500.02235174447,-187500.02235174447,-187500.02235174447,-187500.02235174447,1730988685.4224598,1730988684.3909433,5000
-5682.305178917072,-77585.58721370545,4343.2568720885365,-187500.02235174447,-187500.02235174447,-187500.02235174447,-187500.02235174447,-187500.02235174447,1730988685.4275749,1730988684.3909433,5000
-5748.779266927156,-77560.59796340442,4332.125703349794,-187500.02235174447,-187500.02235174447,-187500.02235174447,-187500.02235174447,-187500.02235174447,1730988685.4315157,1730988684.3909433,5000
-5711.116577519962,-77629.97777819369,4333.243290572559,-187500.02235174447,-187500.02235174447,-187500.02235174447,-187500.02235174447,-187500.02235174447,1730988685.4356103,1730988684.3909433,5000
-5678.572437593036,-77654.49764186116,4340.217034842615,-187500.02235174447,-187500.02235174447,-187500.02235174447,-187500.02235174447,-187500.02235174447,1730988685.439488,1730988684.3909433,5000
-5682.819269039544,-77568.91281234179,4343.525093022,-187500.02235174447,-187500.02235174447,-187500.02235174447,-187500.02235174447,-187500.02235174447,1730988685.4445968,1730988684.3909433,5000
-5694.17395522284,-77554.1606610013,4330.2258050710925,-187500.02235174447,-187500.02235174447,-187500.02235174447,-187500.02235174447,-187500.02235174447,1730988685.447539,1730988684.3909433,5000
-5700.946533792799,-77628.03317642608,4335.031430128984,-187500.02235174447,-187500.02235174447,-187500.02235174447,-187500.02235174447,-187500.02235174447,1730988685.4505515,1730988684.3909433,5000
-5691.98348426622,-77708.74532565419,4353.516322793523,-187500.02235174447,-187500.02235174447,-187500.02235174447,-187500.02235174447,-187500.02235174447,1730988685.4555104,1730988684.3909433,5000
-5702.17587973784,-77621.19354262276,4345.201473856148,-187500.02235174447,-187500.02235174447,-187500.02235174447,-187500.02235174447,-187500.02235174447,1730988685.459639,1730988684.3909433,5000
-5698.465490158259,-77511.8488087474,4324.682572446176,-187500.02235174447,-187500.02235174447,-187500.02235174447,-187500.02235174447,-187500.02235174447,1730988685.4635482,1730988684.3909433,5000
-5678.594789337491,-77563.70485588371,4325.196662568648,-187500.02235174447,-187500.02235174447,-187500.02235174447,-187500.02235174447,-187500.02235174447,1730988685.4676492,1730988684.3909433,5000
-5674.794992780089,-77669.27214494612,4336.260776074026,-187500.02235174447,-187500.02235174447,-187500.02235174447,-187500.02235174447,-187500.02235174447,1730988685.4715643,1730988684.3909433,5000
-5692.765795322156,-77645.46753710121,4347.593110512867,-187500.02235174447,-187500.02235174447,-187500.02235174447,-187500.02235174447,-187500.02235174447,1730988685.4746902,1730988684.3909433,5000
-5679.153582948874,-77551.54550690002,4338.250081330548,-187500.02235174447,-187500.02235174447,-187500.02235174447,-187500.02235174447,-187500.02235174447,1730988685.4786613,1730988684.3909433,5000
-5683.713338817756,-77584.40257124932,4332.505683005534,-187500.02235174447,-187500.02235174447,-187500.02235174447,-187500.02235174447,-187500.02235174447,1730988685.483614,1730988684.3909433,5000
-5679.846487026988,-77644.61817081191,4352.443439059668,-187500.02235174447,-187500.02235174447,-187500.02235174447,-187500.02235174447,-187500.02235174447,1730988685.487666,1730988684.3909433,5000
-5658.768792005634,-77599.24412956764,4357.986671684584,-187500.02235174447,-187500.02235174447,-187500.02235174447,-187500.02235174447,-187500.02235174447,1730988685.4917445,1730988684.3909433,5000
-5671.285768900606,-77564.26364949509,4332.23746207207,-187500.02235174447,-187500.02235174447,-187500.02235174447,-187500.02235174447,-187500.02235174447,1730988685.4956577,1730988684.3909433,5000
-5695.448004656792,-77592.44919925323,4326.336601535869,-187500.02235174447,-187500.02235174447,-187500.02235174447,-187500.02235174447,-187500.02235174447,1730988685.4997451,1730988684.3909433,5000
-5718.135025278929,-77622.51229554562,4349.738877980576,-187500.02235174447,-187500.02235174447,-187500.02235174447,-187500.02235174447,-187500.02235174447,1730988685.5027075,1730988684.3909433,5000
-5661.451001340271,-77603.9156441588,4348.442476802168,-187500.02235174447,-187500.02235174447,-187500.02235174447,-187500.02235174447,-187500.02235174447,1730988685.5065644,1730988684.3909433,5000
-5635.299460327561,-77621.66292925632,4328.8176451704085,-187500.02235174447,-187500.02235174447,-187500.02235174447,-187500.02235174447,-187500.02235174447,1730988685.5116296,1730988684.3909433,5000
-5740.352659267504,-77563.21311750569,4330.561081237922,-187500.02235174447,-187500.02235174447,-187500.02235174447,-187500.02235174447,-187500.02235174447,1730988685.5156918,1730988684.3909433,5000
-5716.5704031670575,-77567.63876290784,4352.24227335957,-187500.02235174447,-187500.02235174447,-187500.02235174447,-187500.02235174447,-187500.02235174447,1730988685.5197103,1730988684.3909433,5000
-5688.653074342379,-77622.28877810106,4360.847694974863,-187500.02235174447,-187500.02235174447,-187500.02235174447,-187500.02235174447,-187500.02235174447,1730988685.5237515,1730988684.3909433,5000
-5678.930065504321,-77565.78356811804,4342.921595921707,-187500.02235174447,-187500.02235174447,-187500.02235174447,-187500.02235174447,-187500.02235174447,1730988685.526831,1730988684.3909433,5000
-5706.757987351178,-77549.82442257696,4325.688400946665,-187500.02235174447,-187500.02235174447,-187500.02235174447,-187500.02235174447,-187500.02235174447,1730988685.530681,1730988684.3909433,5000
-5712.681199631835,-77585.34134451645,4339.792351697964,-187500.02235174447,-187500.02235174447,-187500.02235174447,-187500.02235174447,-187500.02235174447,1730988685.5348432,1730988684.3909433,5000
-5644.955413932254,-77637.21974339722,4356.2879391059805,-187500.02235174447,-187500.02235174447,-187500.02235174447,-187500.02235174447,-187500.02235174447,1730988685.5386305,1730988684.3909433,5000
-5707.9426298073095,-77652.86596451592,4329.197624826148,-187500.02235174447,-187500.02235174447,-187500.02235174447,-187500.02235174447,-187500.02235174447,1730988685.5438433,1730988684.3909433,5000
-5748.913377393888,-77545.9575707862,4321.24040380006,-187500.02235174447,-187500.02235174447,-187500.02235174447,-187500.02235174447,-187500.02235174447,1730988685.547706,1730988684.3909433,5000
-5710.669542630857,-77568.26461175259,4334.137360350771,-187500.02235174447,-187500.02235174447,-187500.02235174447,-187500.02235174447,-187500.02235174447,1730988685.5516815,1730988684.3909433,5000
-5685.300312674083,-77656.9339820068,4350.252968103047,-187500.02235174447,-187500.02235174447,-187500.02235174447,-187500.02235174447,-187500.02235174447,1730988685.5546834,1730988684.3909433,5000
-5687.826059797533,-77633.91168521783,4348.375421568802,-187500.02235174447,-187500.02235174447,-187500.02235174447,-187500.02235174447,-187500.02235174447,1730988685.558792,1730988684.3909433,5000
-5668.69296654379,-77524.47754436464,4321.039238099961,-187500.02235174447,-187500.02235174447,-187500.02235174447,-187500.02235174447,-187500.02235174447,1730988685.562771,1730988684.3909433,5000
-5674.526771846625,-77548.21509697617,4317.820586898397,-187500.02235174447,-187500.02235174447,-187500.02235174447,-187500.02235174447,-187500.02235174447,1730988685.5667832,1730988684.3909433,5000
-5709.239030985717,-77651.61426682642,4345.715563978621,-187500.02235174447,-187500.02235174447,-187500.02235174447,-187500.02235174447,-187500.02235174447,1730988685.571797,1730988684.3909433,5000
-5700.991237281709,-77656.75516805115,4346.028488400994,-187500.02235174447,-187500.02235174447,-187500.02235174447,-187500.02235174447,-187500.02235174447,1730988685.5758016,1730988684.3909433,5000
-5689.45773714277,-77541.53192538404,4319.765188666009,-187500.02235174447,-187500.02235174447,-187500.02235174447,-187500.02235174447,-187500.02235174447,1730988685.5797255,1730988684.3909433,5000
-5659.841675739489,-77534.06644273597,4323.296764289948,-187500.02235174447,-187500.02235174447,-187500.02235174447,-187500.02235174447,-187500.02235174447,1730988685.5827827,1730988684.3909433,5000
-5641.557948775047,-77633.12937416189,4352.309328592936,-187500.02235174447,-187500.02235174447,-187500.02235174447,-187500.02235174447,-187500.02235174447,1730988685.58681,1730988684.3909433,5000
-5693.3245889335385,-77660.82318554202,4348.509532035534,-187500.02235174447,-187500.02235174447,-187500.02235174447,-187500.02235174447,-187500.02235174447,1730988685.590923,1730988684.3909433,5000
-5713.03882754312,-77565.89532684033,4325.1743108241935,-187500.02235174447,-187500.02235174447,-187500.02235174447,-187500.02235174447,-187500.02235174447,1730988685.594824,1730988684.3909433,5000
-5680.606446338469,-77510.41829710225,4306.778825137475,-187500.02235174447,-187500.02235174447,-187500.02235174447,-187500.02235174447,-187500.02235174447,1730988685.59987,1730988684.3909433,5000
-5656.533617560103,-77633.44229858427,4326.873043402797,-187500.02235174447,-187500.02235174447,-187500.02235174447,-187500.02235174447,-187500.02235174447,1730988685.6038525,1730988684.3909433,5000
-5661.07102168453,-77739.12134636895,4342.295747076958,-187500.02235174447,-187500.02235174447,-187500.02235174447,-187500.02235174447,-187500.02235174447,1730988685.6069963,1730988684.3909433,5000
-5663.194437407785,-77657.64923782936,4331.388095782769,-187500.02235174447,-187500.02235174447,-187500.02235174447,-187500.02235174447,-187500.02235174447,1730988685.610872,1730988684.3909433,5000
-5693.07871974453,-77553.33364645645,4303.917801847196,-187500.02235174447,-187500.02235174447,-187500.02235174447,-187500.02235174447,-187500.02235174447,1730988685.614755,1730988684.3909433,5000
-5734.9435371093205,-77642.53945857758,4303.359008235813,-187500.02235174447,-187500.02235174447,-187500.02235174447,-187500.02235174447,-187500.02235174447,1730988685.6190352,1730988684.3909433,5000
-5688.004873753175,-77667.86398504543,4322.805025911931,-187500.02235174447,-187500.02235174447,-187500.02235174447,-187500.02235174447,-187500.02235174447,1730988685.6228662,1730988684.3909433,5000
-5700.007760525676,-77671.57437462502,4322.38034276728,-187500.02235174447,-187500.02235174447,-187500.02235174447,-187500.02235174447,-187500.02235174447,1730988685.627077,1730988684.3909433,5000
-5705.059254772575,-77614.13039137489,4316.501833975534,-187500.02235174447,-187500.02235174447,-187500.02235174447,-187500.02235174447,-187500.02235174447,1730988685.63187,1730988684.3909433,5000
-5627.074018368008,-77592.06921959748,4325.755456180031,-187500.02235174447,-187500.02235174447,-187500.02235174447,-187500.02235174447,-187500.02235174447,1730988685.6351008,1730988684.3909433,5000
-5660.199303650774,-77670.81441531354,4332.036296371973,-187500.02235174447,-187500.02235174447,-187500.02235174447,-187500.02235174447,-187500.02235174447,1730988685.6388648,1730988684.3909433,5000
-5773.276778850172,-77636.19156315227,4320.592203210856,-187500.02235174447,-187500.02235174447,-187500.02235174447,-187500.02235174447,-187500.02235174447,1730988685.642975,1730988684.3909433,5000
-5734.228281286751,-77574.99248683364,4304.454243714124,-187500.02235174447,-187500.02235174447,-187500.02235174447,-187500.02235174447,-187500.02235174447,1730988685.64684,1730988684.3909433,5000
-5684.182725451318,-77625.39567058036,4310.735083906065,-187500.02235174447,-187500.02235174447,-187500.02235174447,-187500.02235174447,-187500.02235174447,1730988685.6512318,1730988684.3909433,5000
-5665.474315342226,-77674.4801014042,4330.38226728228,-187500.02235174447,-187500.02235174447,-187500.02235174447,-187500.02235174447,-187500.02235174447,1730988685.6560357,1730988684.3909433,5000
-5689.904772031877,-77626.20033338075,4320.279278788481,-187500.02235174447,-187500.02235174447,-187500.02235174447,-187500.02235174447,-187500.02235174447,1730988685.660267,1730988684.3909433,5000
-5721.621897413957,-77544.88468705234,4303.80604312492,-187500.02235174447,-187500.02235174447,-187500.02235174447,-187500.02235174447,-187500.02235174447,1730988685.6630173,1730988684.3909433,5000
-5699.806594825577,-77576.9147368568,4305.728293148076,-187500.02235174447,-187500.02235174447,-187500.02235174447,-187500.02235174447,-187500.02235174447,1730988685.6671412,1730988684.3909433,5000
-5691.938780777309,-77681.11856950744,4317.32884852038,-187500.02235174447,-187500.02235174447,-187500.02235174447,-187500.02235174447,-187500.02235174447,1730988685.6712842,1730988684.3909433,5000
-5719.99022006872,-77652.26246741564,4316.479482231079,-187500.02235174447,-187500.02235174447,-187500.02235174447,-187500.02235174447,-187500.02235174447,1730988685.675058,1730988684.3909433,5000
-5698.040807013608,-77587.0177253506,4312.702037418132,-187500.02235174447,-187500.02235174447,-187500.02235174447,-187500.02235174447,-187500.02235174447,1730988685.6793125,1730988684.3909433,5000
-5700.901830303887,-77632.32471136149,4308.410502482713,-187500.02235174447,-187500.02235174447,-187500.02235174447,-187500.02235174447,-187500.02235174447,1730988685.683052,1730988684.3909433,5000
-5729.735580651233,-77627.96612119272,4320.502796233034,-187500.02235174447,-187500.02235174447,-187500.02235174447,-187500.02235174447,-187500.02235174447,1730988685.6879766,1730988684.3909433,5000
-5708.300257718594,-77602.03809762455,4320.927479377685,-187500.02235174447,-187500.02235174447,-187500.02235174447,-187500.02235174447,-187500.02235174447,1730988685.69115,1730988684.3909433,5000
-5712.547089165103,-77606.95548140473,4315.85363338633,-187500.02235174447,-187500.02235174447,-187500.02235174447,-187500.02235174447,-187500.02235174447,1730988685.6952372,1730988684.3909433,5000
-5699.404263425382,-77609.19065585025,4305.571830936889,-187500.02235174447,-187500.02235174447,-187500.02235174447,-187500.02235174447,-187500.02235174447,1730988685.6989985,1730988684.3909433,5000
-5690.016530754153,-77595.42198126578,4316.635944442266,-187500.02235174447,-187500.02235174447,-187500.02235174447,-187500.02235174447,-187500.02235174447,1730988685.703298,1730988684.3909433,5000
-5696.7444058352,-77678.41400842834,4333.913842906219,-187500.02235174447,-187500.02235174447,-187500.02235174447,-187500.02235174447,-187500.02235174447,1730988685.7069328,1730988684.3909433,5000
-5692.408167410871,-77641.6230370549,4311.942078106651,-187500.02235174447,-187500.02235174447,-187500.02235174447,-187500.02235174447,-187500.02235174447,1730988685.7113192,1730988684.3909433,5000
-5729.154435295396,-77546.09168125292,4293.613647653299,-187500.02235174447,-187500.02235174447,-187500.02235174447,-187500.02235174447,-187500.02235174447,1730988685.7149403,1730988684.3909433,5000
-5723.119464292463,-77616.9243594318,4314.311363018914,-187500.02235174447,-187500.02235174447,-187500.02235174447,-187500.02235174447,-187500.02235174447,1730988685.7178905,1730988684.3909433,5000
-5677.343091647994,-77689.7910463561,4334.360877795324,-187500.02235174447,-187500.02235174447,-187500.02235174447,-187500.02235174447,-187500.02235174447,1730988685.722974,1730988684.3909433,5000
-5719.856109601988,-77630.82714448299,4314.75839790802,-187500.02235174447,-187500.02235174447,-187500.02235174447,-187500.02235174447,-187500.02235174447,1730988685.7270892,1730988684.3909433,5000
-5736.105827820997,-77590.817521908,4297.793423866442,-187500.02235174447,-187500.02235174447,-187500.02235174447,-187500.02235174447,-187500.02235174447,1730988685.7310743,1730988684.3909433,5000
-5675.487896858203,-77645.6239993124,4306.152976292727,-187500.02235174447,-187500.02235174447,-187500.02235174447,-187500.02235174447,-187500.02235174447,1730988685.7352943,1730988684.3909433,5000
-5686.708472574767,-77696.83184585952,4309.170461794193,-187500.02235174447,-187500.02235174447,-187500.02235174447,-187500.02235174447,-187500.02235174447,1730988685.7390256,1730988684.3909433,5000
-5741.783170912644,-77667.66281934534,4307.449377471135,-187500.02235174447,-187500.02235174447,-187500.02235174447,-187500.02235174447,-187500.02235174447,1730988685.7431917,1730988684.3909433,5000
-5713.418807198859,-77541.53192538404,4298.486327944556,-187500.02235174447,-187500.02235174447,-187500.02235174447,-187500.02235174447,-187500.02235174447,1730988685.746044,1730988684.3909433,5000
-5652.443248324782,-77602.73100170268,4314.333714763369,-187500.02235174447,-187500.02235174447,-187500.02235174447,-187500.02235174447,-187500.02235174447,1730988685.7514937,1730988684.3909433,5000
-5721.532490436136,-77702.0398023176,4326.984802125073,-187500.02235174447,-187500.02235174447,-187500.02235174447,-187500.02235174447,-187500.02235174447,1730988685.75507,1730988684.3909433,5000
-5750.589758228035,-77637.51031607513,4315.093674074849,-187500.02235174447,-187500.02235174447,-187500.02235174447,-187500.02235174447,-187500.02235174447,1730988685.7593205,1730988684.3909433,5000
-5710.066045530563,-77591.04103935255,4296.385263965758,-187500.02235174447,-187500.02235174447,-187500.02235174447,-187500.02235174447,-187500.02235174447,1730988685.763012,1730988684.3909433,5000
-5713.172938009851,-77623.6745862573,4291.378473207769,-187500.02235174447,-187500.02235174447,-187500.02235174447,-187500.02235174447,-187500.02235174447,1730988685.7672644,1730988684.3909433,5000
-5702.444100671304,-77689.27695623362,4309.461034472112,-187500.02235174447,-187500.02235174447,-187500.02235174447,-187500.02235174447,-187500.02235174447,1730988685.771237,1730988684.3909433,5000
-5716.592754911513,-77669.76388332414,4312.18794729566,-187500.02235174447,-187500.02235174447,-187500.02235174447,-187500.02235174447,-187500.02235174447,1730988685.77448,1730988684.3909433,5000
-5718.067970045563,-77651.05547321505,4294.731234876065,-187500.02235174447,-187500.02235174447,-187500.02235174447,-187500.02235174447,-187500.02235174447,1730988685.779034,1730988684.3909433,5000
-5764.224322345773,-77626.44620256976,4286.148165005227,-187500.02235174447,-187500.02235174447,-187500.02235174447,-187500.02235174447,-187500.02235174447,1730988685.7835205,1730988684.3909433,5000
-5745.426505258859,-77636.3703771079,4314.668990930199,-187500.02235174447,-187500.02235174447,-187500.02235174447,-187500.02235174447,-187500.02235174447,1730988685.7873857,1730988684.3909433,5000
-5719.364371223971,-77724.88328515092,4315.294839774948,-187500.02235174447,-187500.02235174447,-187500.02235174447,-187500.02235174447,-187500.02235174447,1730988685.7914667,1730988684.3909433,5000
-5724.214699770773,-77652.68715056029,4300.4085779677125,-187500.02235174447,-187500.02235174447,-187500.02235174447,-187500.02235174447,-187500.02235174447,1730988685.795168,1730988684.3909433,5000
-5714.290525232616,-77628.65902527083,4289.657388884711,-187500.02235174447,-187500.02235174447,-187500.02235174447,-187500.02235174447,-187500.02235174447,1730988685.799405,1730988684.3909433,5000
-5711.340094964516,-77702.53154069562,4300.609743667811,-187500.02235174447,-187500.02235174447,-187500.02235174447,-187500.02235174447,-187500.02235174447,1730988685.8021429,1730988684.3909433,5000
-5691.514097632658,-77708.61121518745,4305.951810592629,-187500.02235174447,-187500.02235174447,-187500.02235174447,-187500.02235174447,-187500.02235174447,1730988685.8062823,1730988684.3909433,5000
-5681.2322951832175,-77678.0787322615,4299.46980470059,-187500.02235174447,-187500.02235174447,-187500.02235174447,-187500.02235174447,-187500.02235174447,1730988685.811295,1730988684.3909433,5000
-5704.254591972183,-77616.99141466516,4290.03736854045,-187500.02235174447,-187500.02235174447,-187500.02235174447,-187500.02235174447,-187500.02235174447,1730988685.8155437,1730988684.3909433,5000
-5737.357525510493,-77676.02237177163,4298.441624455646,-187500.02235174447,-187500.02235174447,-187500.02235174447,-187500.02235174447,-187500.02235174447,1730988685.819406,1730988684.3909433,5000
-5733.669487675368,-77764.11059666998,4325.084903846372,-187500.02235174447,-187500.02235174447,-187500.02235174447,-187500.02235174447,-187500.02235174447,1730988685.823195,1730988684.3909433,5000
-5685.926161518832,-77707.4936279647,4314.266659530003,-187500.02235174447,-187500.02235174447,-187500.02235174447,-187500.02235174447,-187500.02235174447,1730988685.8271728,1730988684.3909433,5000
-5732.797769641611,-77638.65025504235,4284.89646731573,-187500.02235174447,-187500.02235174447,-187500.02235174447,-187500.02235174447,-187500.02235174447,1730988685.830146,1730988684.3909433,5000
-5742.94546162432,-77678.838691573,4291.378473207769,-187500.02235174447,-187500.02235174447,-187500.02235174447,-187500.02235174447,-187500.02235174447,1730988685.8342416,1730988684.3909433,5000
-5714.603449654991,-77743.47993653774,4309.505737961023,-187500.02235174447,-187500.02235174447,-187500.02235174447,-187500.02235174447,-187500.02235174447,1730988685.8391397,1730988684.3909433,5000
-5747.9746041267645,-77661.80666229806,4307.024694326484,-187500.02235174447,-187500.02235174447,-187500.02235174447,-187500.02235174447,-187500.02235174447,1730988685.8431938,1730988684.3909433,5000
-5709.08256877453,-77588.29177478455,4281.543705647434,-187500.02235174447,-187500.02235174447,-187500.02235174447,-187500.02235174447,-187500.02235174447,1730988685.8471744,1730988684.3909433,5000
-5688.27309468664,-77643.56763882251,4283.9129905596965,-187500.02235174447,-187500.02235174447,-187500.02235174447,-187500.02235174447,-187500.02235174447,1730988685.8502967,1730988684.3909433,5000
-5738.184540055339,-77705.52667445263,4315.987743853062,-187500.02235174447,-187500.02235174447,-187500.02235174447,-187500.02235174447,-187500.02235174447,1730988685.854421,1730988684.3909433,5000
-5769.789906715144,-77674.2342322152,4322.693267189654,-187500.02235174447,-187500.02235174447,-187500.02235174447,-187500.02235174447,-187500.02235174447,1730988685.8581443,1730988684.3909433,5000
-5742.409019757392,-77650.54138309257,4297.301685488425,-187500.02235174447,-187500.02235174447,-187500.02235174447,-187500.02235174447,-187500.02235174447,1730988685.8622148,1730988684.3909433,5000
-5703.852260571988,-77658.05156922956,4289.500926673523,-187500.02235174447,-187500.02235174447,-187500.02235174447,-187500.02235174447,-187500.02235174447,1730988685.866305,1730988684.3909433,5000
-5695.582115123524,-77658.47625237421,4307.9187641046965,-187500.02235174447,-187500.02235174447,-187500.02235174447,-187500.02235174447,-187500.02235174447,1730988685.871295,1730988684.3909433,5000
-5718.93968807932,-77729.3983375309,4319.765188666009,-187500.02235174447,-187500.02235174447,-187500.02235174447,-187500.02235174447,-187500.02235174447,1730988685.8752704,1730988684.3909433,5000
-5699.806594825577,-77656.03991222857,4302.9343250911625,-187500.02235174447,-187500.02235174447,-187500.02235174447,-187500.02235174447,-187500.02235174447,1730988685.8783023,1730988684.3909433,5000
-5697.012626768664,-77632.19060089477,4285.0305777824615,-187500.02235174447,-187500.02235174447,-187500.02235174447,-187500.02235174447,-187500.02235174447,1730988685.8822606,1730988684.3909433,5000
-5734.161226053385,-77749.69372149631,4297.927534333174,-187500.02235174447,-187500.02235174447,-187500.02235174447,-187500.02235174447,-187500.02235174447,1730988685.886346,1730988684.3909433,5000
-5685.456774885271,-77739.97071265825,4312.94790660714,-187500.02235174447,-187500.02235174447,-187500.02235174447,-187500.02235174447,-187500.02235174447,1730988685.8904278,1730988684.3909433,5000
-5746.342926781527,-77666.56758386703,4282.460127170101,-187500.02235174447,-187500.02235174447,-187500.02235174447,-187500.02235174447,-187500.02235174447,1730988685.8943512,1730988684.3909433,5000
-5758.144647853929,-77675.46357816024,4276.805135822909,-187500.02235174447,-187500.02235174447,-187500.02235174447,-187500.02235174447,-187500.02235174447,1730988685.8993497,1730988684.3909433,5000
-5738.788037155633,-77698.46352320476,4292.227839497071,-187500.02235174447,-187500.02235174447,-187500.02235174447,-187500.02235174447,-187500.02235174447,1730988685.9033515,1730988684.3909433,5000
-5736.999897599208,-77757.89681171141,4319.273450287992,-187500.02235174447,-187500.02235174447,-187500.02235174447,-187500.02235174447,-187500.02235174447,1730988685.906288,1730988684.3909433,5000
-5741.313784279083,-77728.23604681922,4302.867269857797,-187500.02235174447,-187500.02235174447,-187500.02235174447,-187500.02235174447,-187500.02235174447,1730988685.910366,1730988684.3909433,5000
-5710.93776356432,-77654.69880756126,4275.955769533607,-187500.02235174447,-187500.02235174447,-187500.02235174447,-187500.02235174447,-187500.02235174447,1730988685.9142995,1730988684.3909433,5000
-5723.812368370577,-77686.41593294335,4282.840106825842,-187500.02235174447,-187500.02235174447,-187500.02235174447,-187500.02235174447,-187500.02235174447,1730988685.91838,1730988684.3909433,5000
-5740.643231945423,-77736.52854401214,4301.257944257015,-187500.02235174447,-187500.02235174447,-187500.02235174447,-187500.02235174447,-187500.02235174447,1730988685.9222655,1730988684.3909433,5000
-5706.378007695438,-77698.84350286049,4304.342484991847,-187500.02235174447,-187500.02235174447,-187500.02235174447,-187500.02235174447,-187500.02235174447,1730988685.927442,1730988684.3909433,5000
-5700.767719837156,-77678.19049098379,4286.639903383244,-187500.02235174447,-187500.02235174447,-187500.02235174447,-187500.02235174447,-187500.02235174447,1730988685.9314148,1730988684.3909433,5000
-5744.040697102631,-77690.32748822302,4281.119022502783,-187500.02235174447,-187500.02235174447,-187500.02235174447,-187500.02235174447,-187500.02235174447,1730988685.9344728,1730988684.3909433,5000
-5736.776380154655,-77699.29053774959,4306.600011181833,-187500.02235174447,-187500.02235174447,-187500.02235174447,-187500.02235174447,-187500.02235174447,1730988685.9384267,1730988684.3909433,5000
-5732.976583597253,-77709.4382297323,4313.797272896441,-187500.02235174447,-187500.02235174447,-187500.02235174447,-187500.02235174447,-187500.02235174447,1730988685.9424248,1730988684.3909433,5000
-5691.4470423992925,-77629.88837121587,4297.033464554962,-187500.02235174447,-187500.02235174447,-187500.02235174447,-187500.02235174447,-187500.02235174447,1730988685.9464238,1730988684.3909433,5000
-5624.078884610997,-77611.38112680688,4281.65546436971,-187500.02235174447,-187500.02235174447,-187500.02235174447,-187500.02235174447,-187500.02235174447,1730988685.9505808,1730988684.3909433,5000
-5734.094170820019,-77703.51501745165,4287.779842350465,-187500.02235174447,-187500.02235174447,-187500.02235174447,-187500.02235174447,-187500.02235174447,1730988685.9554467,1730988684.3909433,5000
-5773.656758505912,-77728.12428809695,4313.305534518425,-187500.02235174447,-187500.02235174447,-187500.02235174447,-187500.02235174447,-187500.02235174447,1730988685.9595597,1730988684.3909433,5000
-5776.607188774013,-77633.59876079544,4297.748720377532,-187500.02235174447,-187500.02235174447,-187500.02235174447,-187500.02235174447,-187500.02235174447,1730988685.962456,1730988684.3909433,5000
-5736.1728830543625,-77621.26059785612,4287.243400483537,-187500.02235174447,-187500.02235174447,-187500.02235174447,-187500.02235174447,-187500.02235174447,1730988685.9666097,1730988684.3909433,5000
-5702.4217489268485,-77688.96403181125,4302.666104157699,-187500.02235174447,-187500.02235174447,-187500.02235174447,-187500.02235174447,-187500.02235174447,1730988685.9704616,1730988684.3909433,5000
-5718.559708423581,-77737.73553821273,4306.577659437377,-187500.02235174447,-187500.02235174447,-187500.02235174447,-187500.02235174447,-187500.02235174447,1730988685.9746392,1730988684.3909433,5000
-5736.999897599208,-77664.93590652179,4287.645731883733,-187500.02235174447,-187500.02235174447,-187500.02235174447,-187500.02235174447,-187500.02235174447,1730988685.9786136,1730988684.3909433,5000
-5735.703496420801,-77578.74757990213,4292.339598219347,-187500.02235174447,-187500.02235174447,-187500.02235174447,-187500.02235174447,-187500.02235174447,1730988685.9824743,1730988684.3909433,5000
-5710.55778390858,-77669.87564204642,4308.365798993802,-187500.02235174447,-187500.02235174447,-187500.02235174447,-187500.02235174447,-187500.02235174447,1730988685.9875617,1730988684.3909433,5000
-5725.3769904824485,-77762.6577332804,4316.859461886819,-187500.02235174447,-187500.02235174447,-187500.02235174447,-187500.02235174447,-187500.02235174447,1730988685.9904628,1730988684.3909433,5000
-5728.506234706192,-77750.40897731889,4295.580601165367,-187500.02235174447,-187500.02235174447,-187500.02235174447,-187500.02235174447,-187500.02235174447,1730988685.9945111,1730988684.3909433,5000
-5716.011609555675,-77624.23337986867,4281.320188202881,-187500.02235174447,-187500.02235174447,-187500.02235174447,-187500.02235174447,-187500.02235174447,1730988685.998494,1730988684.3909433,5000
-5688.943647020298,-77659.2809151746,4303.13549079126,-187500.02235174447,-187500.02235174447,-187500.02235174447,-187500.02235174447,-187500.02235174447,1730988686.0024424,1730988684.3909433,5000
-5681.41110913886,-77755.43811982132,4321.128645077783,-187500.02235174447,-187500.02235174447,-187500.02235174447,-187500.02235174447,-187500.02235174447,1730988686.0064318,1730988684.3909433,5000
-5736.888138876932,-77732.92991315483,4302.688455902155,-187500.02235174447,-187500.02235174447,-187500.02235174447,-187500.02235174447,-187500.02235174447,1730988686.0116043,1730988684.3909433,5000
-5746.588795970535,-77632.43647008378,4278.146240490227,-187500.02235174447,-187500.02235174447,-187500.02235174447,-187500.02235174447,-187500.02235174447,1730988686.0147629,1730988684.3909433,5000
-5724.326458493049,-77659.66089483033,4286.326978960869,-187500.02235174447,-187500.02235174447,-187500.02235174447,-187500.02235174447,-187500.02235174447,1730988686.01767,1730988684.3909433,5000
-5709.149624007896,-77759.88611696793,4300.90031634573,-187500.02235174447,-187500.02235174447,-187500.02235174447,-187500.02235174447,-187500.02235174447,1730988686.0225666,1730988684.3909433,5000
-5718.425597956848,-77717.70837518077,4296.877002343775,-187500.02235174447,-187500.02235174447,-187500.02235174447,-187500.02235174447,-187500.02235174447,1730988686.026659,1730988684.3909433,5000
-5731.99310684122,-77616.2761588426,4292.294894730437,-187500.02235174447,-187500.02235174447,-187500.02235174447,-187500.02235174447,-187500.02235174447,1730988686.0305865,1730988684.3909433,5000
-5714.603449654991,-77670.2332699577,4292.004322052518,-187500.02235174447,-187500.02235174447,-187500.02235174447,-187500.02235174447,-187500.02235174447,1730988686.0345652,1730988684.3909433,5000
-5693.145774977896,-77761.92012571337,4307.5164327045,-187500.02235174447,-187500.02235174447,-187500.02235174447,-187500.02235174447,-187500.02235174447,1730988686.0397732,1730988684.3909433,5000
-5705.707455361779,-77710.13113381043,4298.285162244459,-187500.02235174447,-187500.02235174447,-187500.02235174447,-187500.02235174447,-187500.02235174447,1730988686.042699,1730988684.3909433,5000
-5736.37404875446,-77612.7669349631,4279.129717246261,-187500.02235174447,-187500.02235174447,-187500.02235174447,-187500.02235174447,-187500.02235174447,1730988686.045726,1730988684.3909433,5000
-5723.968830581764,-77626.40149908084,4285.455260927112,-187500.02235174447,-187500.02235174447,-187500.02235174447,-187500.02235174447,-187500.02235174447,1730988686.050748,1730988684.3909433,5000
-5716.7492171227,-77723.22925606123,4304.834223369864,-187500.02235174447,-187500.02235174447,-187500.02235174447,-187500.02235174447,-187500.02235174447,1730988686.054598,1730988684.3909433,5000
-5732.462493474781,-77713.01450884515,4299.916839589696,-187500.02235174447,-187500.02235174447,-187500.02235174447,-187500.02235174447,-187500.02235174447,1730988686.0587344,1730988684.3909433,5000
-5706.109786761974,-77602.90981565832,4267.149182218216,-187500.02235174447,-187500.02235174447,-187500.02235174447,-187500.02235174447,-187500.02235174447,1730988686.0628157,1730988684.3909433,5000
-5698.17491748034,-77601.3675452909,4269.6078741083,-187500.02235174447,-187500.02235174447,-187500.02235174447,-187500.02235174447,-187500.02235174447,1730988686.0668151,1730988684.3909433,5000
-5767.152400869418,-77699.51405519416,4299.290990744948,-187500.02235174447,-187500.02235174447,-187500.02235174447,-187500.02235174447,-187500.02235174447,1730988686.0707204,1730988684.3909433,5000
-5735.167054553874,-77756.37689308845,4311.964429851107,-187500.02235174447,-187500.02235174447,-187500.02235174447,-187500.02235174447,-187500.02235174447,1730988686.0738752,1730988684.3909433,5000
-5712.144757764907,-77676.62586887191,4286.997531294529,-187500.02235174447,-187500.02235174447,-187500.02235174447,-187500.02235174447,-187500.02235174447,1730988686.0787752,1730988684.3909433,5000
-5748.846322160522,-77667.43930190078,4271.105440986806,-187500.02235174447,-187500.02235174447,-187500.02235174447,-187500.02235174447,-187500.02235174447,1730988686.0828123,1730988684.3909433,5000
-5727.410999227882,-77757.62859077795,4286.304627216414,-187500.02235174447,-187500.02235174447,-187500.02235174447,-187500.02235174447,-187500.02235174447,1730988686.0867982,1730988684.3909433,5000
-5727.187481783329,-77760.37785534596,4293.568944164389,-187500.02235174447,-187500.02235174447,-187500.02235174447,-187500.02235174447,-187500.02235174447,1730988686.0907369,1730988684.3909433,5000
-5737.826912144054,-77718.0436513476,4284.13650800425,-187500.02235174447,-187500.02235174447,-187500.02235174447,-187500.02235174447,-187500.02235174447,1730988686.0947917,1730988684.3909433,5000
-5746.94642388182,-77701.54806393958,4270.121964230772,-187500.02235174447,-187500.02235174447,-187500.02235174447,-187500.02235174447,-187500.02235174447,1730988686.0989249,1730988684.3909433,5000
-5734.228281286751,-77685.72302886522,4282.951865548118,-187500.02235174447,-187500.02235174447,-187500.02235174447,-187500.02235174447,-187500.02235174447,1730988686.1016817,1730988684.3909433,5000
-5718.045618301108,-77751.92889594185,4300.5650401789,-187500.02235174447,-187500.02235174447,-187500.02235174447,-187500.02235174447,-187500.02235174447,1730988686.1056635,1730988684.3909433,5000
-5741.09026683453,-77699.58111042752,4290.6632173852,-187500.02235174447,-187500.02235174447,-187500.02235174447,-187500.02235174447,-187500.02235174447,1730988686.1106937,1730988684.3909433,5000
-5747.862845404487,-77679.37513343991,4281.186077736149,-187500.02235174447,-187500.02235174447,-187500.02235174447,-187500.02235174447,-187500.02235174447,1730988686.1146555,1730988684.3909433,5000
-5725.309935249083,-77745.26807609416,4289.769147606987,-187500.02235174447,-187500.02235174447,-187500.02235174447,-187500.02235174447,-187500.02235174447,1730988686.1186552,1730988684.3909433,5000
-5706.445062928804,-77759.59554429002,4299.425101211679,-187500.02235174447,-187500.02235174447,-187500.02235174447,-187500.02235174447,-187500.02235174447,1730988686.12153,1730988684.3909433,5000
-5718.425597956848,-77738.36138705748,4293.345426719836,-187500.02235174447,-187500.02235174447,-187500.02235174447,-187500.02235174447,-187500.02235174447,1730988686.1256697,1730988684.3909433,5000
-5708.099092018497,-77734.53923875562,4273.27356019897,-187500.02235174447,-187500.02235174447,-187500.02235174447,-187500.02235174447,-187500.02235174447,1730988686.129659,1730988684.3909433,5000
-5750.701516950312,-77685.4324561873,4270.189019464137,-187500.02235174447,-187500.02235174447,-187500.02235174447,-187500.02235174447,-187500.02235174447,1730988686.1338954,1730988684.3909433,5000
-5747.527569237658,-77765.78697750413,4306.75647339302,-187500.02235174447,-187500.02235174447,-187500.02235174447,-187500.02235174447,-187500.02235174447,1730988686.1386364,1730988684.3909433,5000
-5702.309990204572,-77794.03958249565,4296.094691287839,-187500.02235174447,-187500.02235174447,-187500.02235174447,-187500.02235174447,-187500.02235174447,1730988686.1428216,1730988684.3909433,5000
-5739.078609833552,-77676.35764793845,4255.012184978984,-187500.02235174447,-187500.02235174447,-187500.02235174447,-187500.02235174447,-187500.02235174447,1730988686.1469789,1730988684.3909433,5000
-5764.716060723789,-77633.03996718407,4272.2900834429365,-187500.02235174447,-187500.02235174447,-187500.02235174447,-187500.02235174447,-187500.02235174447,1730988686.1497316,1730988684.3909433,5000
-5741.403191256904,-77745.71511098328,4310.086883316861,-187500.02235174447,-187500.02235174447,-187500.02235174447,-187500.02235174447,-187500.02235174447,1730988686.1538303,1730988684.3909433,5000
-5741.961984868287,-77815.74312636175,4309.885717616763,-187500.02235174447,-187500.02235174447,-187500.02235174447,-187500.02235174447,-187500.02235174447,1730988686.1578715,1730988684.3909433,5000
-5749.271005305172,-77702.06215406206,4283.287141714948,-187500.02235174447,-187500.02235174447,-187500.02235174447,-187500.02235174447,-187500.02235174447,1730988686.1617365,1730988684.3909433,5000
-5744.800656414111,-77643.03119695559,4270.725461331065,-187500.02235174447,-187500.02235174447,-187500.02235174447,-187500.02235174447,-187500.02235174447,1730988686.166891,1730988684.3909433,5000
-5730.495539962714,-77774.21358516379,4283.46595567059,-187500.02235174447,-187500.02235174447,-187500.02235174447,-187500.02235174447,-187500.02235174447,1730988686.1707647,1730988684.3909433,5000
-5711.563612409069,-77801.08038199907,4284.963522549096,-187500.02235174447,-187500.02235174447,-187500.02235174447,-187500.02235174447,-187500.02235174447,1730988686.1749263,1730988684.3909433,5000
-5741.85022614601,-77728.9960061307,4276.738080589543,-187500.02235174447,-187500.02235174447,-187500.02235174447,-187500.02235174447,-187500.02235174447,1730988686.177905,1730988684.3909433,5000
-5755.842418175032,-77710.55581695508,4269.250246197015,-187500.02235174447,-187500.02235174447,-187500.02235174447,-187500.02235174447,-187500.02235174447,1730988686.1818,1730988684.3909433,5000
-5720.884289846932,-77780.27090791118,4283.734176604054,-187500.02235174447,-187500.02235174447,-187500.02235174447,-187500.02235174447,-187500.02235174447,1730988686.1859634,1730988684.3909433,5000
-5742.207854057295,-77817.79948685164,4301.6155721683,-187500.02235174447,-187500.02235174447,-187500.02235174447,-187500.02235174447,-187500.02235174447,1730988686.1899583,1730988684.3909433,5000
-5765.051336890619,-77749.78312847414,4292.943095319641,-187500.02235174447,-187500.02235174447,-187500.02235174447,-187500.02235174447,-187500.02235174447,1730988686.1939871,1730988684.3909433,5000
-5755.775362941667,-77690.77452311212,4267.931493274152,-187500.02235174447,-187500.02235174447,-187500.02235174447,-187500.02235174447,-187500.02235174447,1730988686.1989543,1730988684.3909433,5000
-5735.837606887532,-77775.73350378675,4275.285217199948,-187500.02235174447,-187500.02235174447,-187500.02235174447,-187500.02235174447,-187500.02235174447,1730988686.202927,1730988684.3909433,5000
-5728.841510873021,-77806.08717275705,4289.27740922897,-187500.02235174447,-187500.02235174447,-187500.02235174447,-187500.02235174447,-187500.02235174447,1730988686.205742,1730988684.3909433,5000
-5730.964926596275,-77747.16797437286,4283.354196948314,-187500.02235174447,-187500.02235174447,-187500.02235174447,-187500.02235174447,-187500.02235174447,1730988686.2099469,1730988684.3909433,5000
-5755.373031541471,-77682.2808602191,4270.479592142056,-187500.02235174447,-187500.02235174447,-187500.02235174447,-187500.02235174447,-187500.02235174447,1730988686.213826,1730988684.3909433,5000
-5748.354583782504,-77749.58196277404,4274.145278232727,-187500.02235174447,-187500.02235174447,-187500.02235174447,-187500.02235174447,-187500.02235174447,1730988686.2179992,1730988684.3909433,5000
-5724.102941048496,-77823.5662369211,4294.686531387154,-187500.02235174447,-187500.02235174447,-187500.02235174447,-187500.02235174447,-187500.02235174447,1730988686.2228048,1730988684.3909433,5000
-5753.204912329306,-77791.87146328347,4288.115118517294,-187500.02235174447,-187500.02235174447,-187500.02235174447,-187500.02235174447,-187500.02235174447,1730988686.2259953,1730988684.3909433,5000
-5735.99406909872,-77707.00188958668,4254.140466945228,-187500.02235174447,-187500.02235174447,-187500.02235174447,-187500.02235174447,-187500.02235174447,1730988686.2298565,1730988684.3909433,5000
-5720.057275302086,-77725.28561655112,4264.221103694571,-187500.02235174447,-187500.02235174447,-187500.02235174447,-187500.02235174447,-187500.02235174447,1730988686.2340364,1730988684.3909433,5000
-5727.32159225006,-77803.04733551113,4298.0616447999055,-187500.02235174447,-187500.02235174447,-187500.02235174447,-187500.02235174447,-187500.02235174447,1730988686.238875,1730988684.3909433,5000
-5765.341909568538,-77798.33111743107,4295.111214531805,-187500.02235174447,-187500.02235174447,-187500.02235174447,-187500.02235174447,-187500.02235174447,1730988686.2428997,1730988684.3909433,5000
-5750.366240783482,-77741.17770685884,4279.2191242240815,-187500.02235174447,-187500.02235174447,-187500.02235174447,-187500.02235174447,-187500.02235174447,1730988686.2458537,1730988684.3909433,5000
-5740.129141822951,-77763.75296875871,4264.89165602823,-187500.02235174447,-187500.02235174447,-187500.02235174447,-187500.02235174447,-187500.02235174447,1730988686.2497444,1730988684.3909433,5000
-5756.870598419977,-77795.67125984088,4278.146240490227,-187500.02235174447,-187500.02235174447,-187500.02235174447,-187500.02235174447,-187500.02235174447,1730988686.2537389,1730988684.3909433,5000
-5747.438162259837,-77769.47501533927,4286.550496405423,-187500.02235174447,-187500.02235174447,-187500.02235174447,-187500.02235174447,-187500.02235174447,1730988686.2577865,1730988684.3909433,5000
-5757.161171097895,-77756.84627972201,4269.920798530674,-187500.02235174447,-187500.02235174447,-187500.02235174447,-187500.02235174447,-187500.02235174447,1730988686.2618735,1730988684.3909433,5000
-5733.445970230815,-77744.53046852714,4262.276501926959,-187500.02235174447,-187500.02235174447,-187500.02235174447,-187500.02235174447,-187500.02235174447,1730988686.2659397,1730988684.3909433,5000
-5667.709489787757,-77712.92510186734,4282.795403336931,-187500.02235174447,-187500.02235174447,-187500.02235174447,-187500.02235174447,-187500.02235174447,1730988686.2708564,1730988684.3909433,5000
-5717.442121200815,-77803.56142563361,4292.5407639194445,-187500.02235174447,-187500.02235174447,-187500.02235174447,-187500.02235174447,-187500.02235174447,1730988686.2740357,1730988684.3909433,5000
-5796.634351805968,-77814.87140832799,4283.220086481582,-187500.02235174447,-187500.02235174447,-187500.02235174447,-187500.02235174447,-187500.02235174447,1730988686.2780776,1730988684.3909433,5000
-5767.845304947532,-77685.81243584305,4270.859571797797,-187500.02235174447,-187500.02235174447,-187500.02235174447,-187500.02235174447,-187500.02235174447,1730988686.2819118,1730988684.3909433,5000
-5739.346830767016,-77749.8054802186,4279.710862602099,-187500.02235174447,-187500.02235174447,-187500.02235174447,-187500.02235174447,-187500.02235174447,1730988686.2860868,1730988684.3909433,5000
-5739.682106933846,-77845.51564997622,4290.998493552029,-187500.02235174447,-187500.02235174447,-187500.02235174447,-187500.02235174447,-187500.02235174447,1730988686.2901711,1730988684.3909433,5000
-5750.18742682784,-77797.07941974157,4291.043197040939,-187500.02235174447,-187500.02235174447,-187500.02235174447,-187500.02235174447,-187500.02235174447,1730988686.2941215,1730988684.3909433,5000
-5761.229188588762,-77713.12626756744,4277.65450211221,-187500.02235174447,-187500.02235174447,-187500.02235174447,-187500.02235174447,-187500.02235174447,1730988686.2990909,1730988684.3909433,5000
-5765.431316546359,-77797.19117846385,4285.231743482559,-187500.02235174447,-187500.02235174447,-187500.02235174447,-187500.02235174447,-187500.02235174447,1730988686.301988,1730988684.3909433,5000
-5751.819104173077,-77831.21053352482,4297.4134442107015,-187500.02235174447,-187500.02235174447,-187500.02235174447,-187500.02235174447,-187500.02235174447,1730988686.306013,1730988684.3909433,5000
-5738.028077844153,-77788.02696323716,4293.479537186568,-187500.02235174447,-187500.02235174447,-187500.02235174447,-187500.02235174447,-187500.02235174447,1730988686.3099413,1730988684.3909433,5000
-5741.604356957002,-77779.28743115514,4289.836202840353,-187500.02235174447,-187500.02235174447,-187500.02235174447,-187500.02235174447,-187500.02235174447,1730988686.313994,1730988684.3909433,5000
-5750.701516950312,-77804.05316401162,4285.075281271373,-187500.02235174447,-187500.02235174447,-187500.02235174447,-187500.02235174447,-187500.02235174447,1730988686.3181198,1730988684.3909433,5000
-5754.277796063161,-77816.45838218431,4294.485365687056,-187500.02235174447,-187500.02235174447,-187500.02235174447,-187500.02235174447,-187500.02235174447,1730988686.321932,1730988684.3909433,5000
-5750.679165205856,-77871.19780435537,4294.977104065073,-187500.02235174447,-187500.02235174447,-187500.02235174447,-187500.02235174447,-187500.02235174447,1730988686.3259797,1730988684.3909433,5000
-5746.007650614697,-77811.25042572623,4278.928551546162,-187500.02235174447,-187500.02235174447,-187500.02235174447,-187500.02235174447,-187500.02235174447,1730988686.3291435,1730988684.3909433,5000
-5737.603394699502,-77748.50907904019,4279.889676557741,-187500.02235174447,-187500.02235174447,-187500.02235174447,-187500.02235174447,-187500.02235174447,1730988686.3341336,1730988684.3909433,5000
-5737.245766788217,-77831.92578934738,4299.223935511582,-187500.02235174447,-187500.02235174447,-187500.02235174447,-187500.02235174447,-187500.02235174447,1730988686.3380127,1730988684.3909433,5000
-5745.538263981136,-77863.44174902937,4299.559211678411,-187500.02235174447,-187500.02235174447,-187500.02235174447,-187500.02235174447,-187500.02235174447,1730988686.3419936,1730988684.3909433,5000
-5758.971662398775,-77788.67516382637,4279.286179457447,-187500.02235174447,-187500.02235174447,-187500.02235174447,-187500.02235174447,-187500.02235174447,1730988686.346001,1730988684.3909433,5000
-5750.746220439222,-77737.33320681253,4277.520391645478,-187500.02235174447,-187500.02235174447,-187500.02235174447,-187500.02235174447,-187500.02235174447,1730988686.350335,1730988684.3909433,5000
-5732.462493474781,-77832.50693470323,4294.485365687056,-187500.02235174447,-187500.02235174447,-187500.02235174447,-187500.02235174447,-187500.02235174447,1730988686.35407,1730988684.3909433,5000
-5741.246729045717,-77881.881938205,4303.604877424822,-187500.02235174447,-187500.02235174447,-187500.02235174447,-187500.02235174447,-187500.02235174447,1730988686.3569396,1730988684.3909433,5000
-5751.573234984068,-77800.49923664323,4289.880906329263,-187500.02235174447,-187500.02235174447,-187500.02235174447,-187500.02235174447,-187500.02235174447,1730988686.3614268,1730988684.3909433,5000
-5754.791886185633,-77733.95809339978,4274.793478821931,-187500.02235174447,-187500.02235174447,-187500.02235174447,-187500.02235174447,-187500.02235174447,1730988686.3662372,1730988684.3909433,5000
-5732.820121386066,-77840.28534177368,4285.678778371665,-187500.02235174447,-187500.02235174447,-187500.02235174447,-187500.02235174447,-187500.02235174447,1730988686.370263,1730988684.3909433,5000
-5735.345868509516,-77893.90717672196,4295.625304654277,-187500.02235174447,-187500.02235174447,-187500.02235174447,-187500.02235174447,-187500.02235174447,1730988686.3742898,1730988684.3909433,5000
-5750.634461716946,-77798.21935870878,4282.773051592476,-187500.02235174447,-187500.02235174447,-187500.02235174447,-187500.02235174447,-187500.02235174447,1730988686.378234,1730988684.3909433,5000
-5742.766647668677,-77738.94253241332,4253.402859378202,-187500.02235174447,-187500.02235174447,-187500.02235174447,-187500.02235174447,-187500.02235174447,1730988686.381961,1730988684.3909433,5000
-5722.538318936625,-77783.9589457463,4265.808077550898,-187500.02235174447,-187500.02235174447,-187500.02235174447,-187500.02235174447,-187500.02235174447,1730988686.385275,1730988684.3909433,5000
-5723.633554414935,-77891.51554006524,4293.9489238201295,-187500.02235174447,-187500.02235174447,-187500.02235174447,-187500.02235174447,-187500.02235174447,1730988686.3890517,1730988684.3909433,5000
-5768.337043325549,-77879.40089457046,4290.03736854045,-187500.02235174447,-187500.02235174447,-187500.02235174447,-187500.02235174447,-187500.02235174447,1730988686.394303,1730988684.3909433,5000
-5737.581042955047,-77753.42646282035,4270.568999119878,-187500.02235174447,-187500.02235174447,-187500.02235174447,-187500.02235174447,-187500.02235174447,1730988686.398362,1730988684.3909433,5000
-5738.542167966624,-77771.86665199598,4284.963522549096,-187500.02235174447,-187500.02235174447,-187500.02235174447,-187500.02235174447,-187500.02235174447,1730988686.4020543,1730988684.3909433,5000
-5757.965833898286,-77881.59136552709,4304.610705925311,-187500.02235174447,-187500.02235174447,-187500.02235174447,-187500.02235174447,-187500.02235174447,1730988686.4061956,1730988684.3909433,5000
-5762.302072322616,-77851.3271035346,4301.1685372791935,-187500.02235174447,-187500.02235174447,-187500.02235174447,-187500.02235174447,-187500.02235174447,1730988686.4103255,1730988684.3909433,5000
-5753.629595473957,-77739.63543649143,4278.079185256861,-187500.02235174447,-187500.02235174447,-187500.02235174447,-187500.02235174447,-187500.02235174447,1730988686.4131873,1730988684.3909433,5000
-5746.3876302704375,-77742.67527373735,4278.32505444587,-187500.02235174447,-187500.02235174447,-187500.02235174447,-187500.02235174447,-187500.02235174447,1730988686.417346,1730988684.3909433,5000
-5731.970755096764,-77866.19101359737,4287.46691792809,-187500.02235174447,-187500.02235174447,-187500.02235174447,-187500.02235174447,-187500.02235174447,1730988686.422043,1730988684.3909433,5000
-5736.552862710102,-77859.15021409396,4278.682682357155,-187500.02235174447,-187500.02235174447,-187500.02235174447,-187500.02235174447,-187500.02235174447,1730988686.4263072,1730988684.3909433,5000
-5766.1689241133845,-77758.38855008942,4265.405746150702,-187500.02235174447,-187500.02235174447,-187500.02235174447,-187500.02235174447,-187500.02235174447,1730988686.4301748,1730988684.3909433,5000
-5759.4186972878815,-77744.41870980486,4261.650653082211,-187500.02235174447,-187500.02235174447,-187500.02235174447,-187500.02235174447,-187500.02235174447,1730988686.4342935,1730988684.3909433,5000
-5744.152455824907,-77884.20651962835,4295.80411860992,-187500.02235174447,-187500.02235174447,-187500.02235174447,-187500.02235174447,-187500.02235174447,1730988686.4381533,1730988684.3909433,5000
-5740.062086589585,-77888.09572316358,4318.781711909976,-187500.02235174447,-187500.02235174447,-187500.02235174447,-187500.02235174447,-187500.02235174447,1730988686.441486,1730988684.3909433,5000
-5746.499388992714,-77753.29235235362,4280.984912036051,-187500.02235174447,-187500.02235174447,-187500.02235174447,-187500.02235174447,-187500.02235174447,1730988686.4453309,1730988684.3909433,5000
-5746.767609926178,-77725.46443050676,4271.597179364822,-187500.02235174447,-187500.02235174447,-187500.02235174447,-187500.02235174447,-187500.02235174447,1730988686.4503436,1730988684.3909433,5000
-5736.821083643566,-77831.25523701373,4288.808022595408,-187500.02235174447,-187500.02235174447,-187500.02235174447,-187500.02235174447,-187500.02235174447,1730988686.454188,1730988684.3909433,5000
-5739.212720300284,-77872.98594391179,4301.70497914612,-187500.02235174447,-187500.02235174447,-187500.02235174447,-187500.02235174447,-187500.02235174447,1730988686.4583251,1730988684.3909433,5000
-5745.51591223668,-77776.06877995358,4286.818717338886,-187500.02235174447,-187500.02235174447,-187500.02235174447,-187500.02235174447,-187500.02235174447,1730988686.461818,1730988684.3909433,5000
-5764.38078455696,-77725.86676190696,4270.256074697504,-187500.02235174447,-187500.02235174447,-187500.02235174447,-187500.02235174447,-187500.02235174447,1730988686.4656975,1730988684.3909433,5000
-5762.436182789348,-77833.69157715936,4283.063624270395,-187500.02235174447,-187500.02235174447,-187500.02235174447,-187500.02235174447,-187500.02235174447,1730988686.4693418,1730988684.3909433,5000
-5748.958080882798,-77883.96065043935,4291.937266819152,-187500.02235174447,-187500.02235174447,-187500.02235174447,-187500.02235174447,-187500.02235174447,1730988686.473086,1730988684.3909433,5000
-5738.832740644543,-77812.92680656038,4280.448470169124,-187500.02235174447,-187500.02235174447,-187500.02235174447,-187500.02235174447,-187500.02235174447,1730988686.4785607,1730988684.3909433,5000
-5752.08732510654,-77764.53527981463,4267.573865362867,-187500.02235174447,-187500.02235174447,-187500.02235174447,-187500.02235174447,-187500.02235174447,1730988686.4821544,1730988684.3909433,5000
-5753.406078029404,-77821.59928340904,4278.190943979138,-187500.02235174447,-187500.02235174447,-187500.02235174447,-187500.02235174447,-187500.02235174447,1730988686.486354,1730988684.3909433,5000
-5752.601415229013,-77801.99680352173,4297.681665144166,-187500.02235174447,-187500.02235174447,-187500.02235174447,-187500.02235174447,-187500.02235174447,1730988686.4894664,1730988684.3909433,5000
-5761.072726377574,-77817.0618792846,4288.696263873132,-187500.02235174447,-187500.02235174447,-187500.02235174447,-187500.02235174447,-187500.02235174447,1730988686.4936905,1730988684.3909433,5000
-5763.509066523203,-77780.91910850038,4269.004377008007,-187500.02235174447,-187500.02235174447,-187500.02235174447,-187500.02235174447,-187500.02235174447,1730988686.49725,1730988684.3909433,5000
-5761.273892077672,-77761.22722163526,4270.658406097699,-187500.02235174447,-187500.02235174447,-187500.02235174447,-187500.02235174447,-187500.02235174447,1730988686.501532,1730988684.3909433,5000
-5740.956156367798,-77874.75173172377,4287.936304561652,-187500.02235174447,-187500.02235174447,-187500.02235174447,-187500.02235174447,-187500.02235174447,1730988686.5052528,1730988684.3909433,5000
-5732.864824874977,-77880.60788877105,4301.347351234836,-187500.02235174447,-187500.02235174447,-187500.02235174447,-187500.02235174447,-187500.02235174447,1730988686.5104792,1730988684.3909433,5000
-5751.394421028426,-77794.37485866247,4288.875077828775,-187500.02235174447,-187500.02235174447,-187500.02235174447,-187500.02235174447,-187500.02235174447,1730988686.51422,1730988684.3909433,5000
-5760.625691488468,-77821.2193037533,4272.468897398579,-187500.02235174447,-187500.02235174447,-187500.02235174447,-187500.02235174447,-187500.02235174447,1730988686.5175004,1730988684.3909433,5000
-5749.785095427644,-77910.46981936334,4282.840106825842,-187500.02235174447,-187500.02235174447,-187500.02235174447,-187500.02235174447,-187500.02235174447,1730988686.521427,1730988684.3909433,5000
-5764.000804901219,-77899.69627853588,4304.9906855810505,-187500.02235174447,-187500.02235174447,-187500.02235174447,-187500.02235174447,-187500.02235174447,1730988686.5257316,1730988684.3909433,5000
-5778.305921352616,-77792.13968421695,4293.546592419933,-187500.02235174447,-187500.02235174447,-187500.02235174447,-187500.02235174447,-187500.02235174447,1730988686.529306,1730988684.3909433,5000
-5761.296243822128,-77776.5605183316,4274.3464439328245,-187500.02235174447,-187500.02235174447,-187500.02235174447,-187500.02235174447,-187500.02235174447,1730988686.5333595,1730988684.3909433,5000
-5741.939633123831,-77877.36688582503,4283.376548692769,-187500.02235174447,-187500.02235174447,-187500.02235174447,-187500.02235174447,-187500.02235174447,1730988686.5383158,1730988684.3909433,5000
-5752.132028595452,-77917.60002584459,4292.429005197168,-187500.02235174447,-187500.02235174447,-187500.02235174447,-187500.02235174447,-187500.02235174447,1730988686.542328,1730988684.3909433,5000
-5757.47409552027,-77824.75087937724,4277.185115478649,-187500.02235174447,-187500.02235174447,-187500.02235174447,-187500.02235174447,-187500.02235174447,1730988686.5457475,1730988684.3909433,5000
-5751.595586728524,-77757.33801810002,4270.948978775618,-187500.02235174447,-187500.02235174447,-187500.02235174447,-187500.02235174447,-187500.02235174447,1730988686.5492935,1730988684.3909433,5000
-5745.337098281038,-77833.84803937055,4289.880906329263,-187500.02235174447,-187500.02235174447,-187500.02235174447,-187500.02235174447,-187500.02235174447,1730988686.553931,1730988684.3909433,5000
-5727.455702716792,-77896.76820001223,4296.072339543383,-187500.02235174447,-187500.02235174447,-187500.02235174447,-187500.02235174447,-187500.02235174447,1730988686.5574453,1730988684.3909433,5000
-5762.704403722812,-77836.61965568301,4290.551458662922,-187500.02235174447,-187500.02235174447,-187500.02235174447,-187500.02235174447,-187500.02235174447,1730988686.561446,1730988684.3909433,5000
-5800.300037896638,-77798.24171045324,4273.944112532629,-187500.02235174447,-187500.02235174447,-187500.02235174447,-187500.02235174447,-187500.02235174447,1730988686.5663073,1730988684.3909433,5000
-5774.260255606206,-77864.24641182976,4281.320188202881,-187500.02235174447,-187500.02235174447,-187500.02235174447,-187500.02235174447,-187500.02235174447,1730988686.5703204,1730988684.3909433,5000
-5760.312767066093,-77921.19865670189,4293.725406375576,-187500.02235174447,-187500.02235174447,-187500.02235174447,-187500.02235174447,-187500.02235174447,1730988686.5732374,1730988684.3909433,5000
-5756.177694341862,-77825.51083868872,4284.13650800425,-187500.02235174447,-187500.02235174447,-187500.02235174447,-187500.02235174447,-187500.02235174447,1730988686.577191,1730988684.3909433,5000
-5773.924979439375,-77812.72564086028,4272.245379954026,-187500.02235174447,-187500.02235174447,-187500.02235174447,-187500.02235174447,-187500.02235174447,1730988686.5811892,1730988684.3909433,5000
-5772.695633494334,-77888.3862958415,4277.8109643233975,-187500.02235174447,-187500.02235174447,-187500.02235174447,-187500.02235174447,-187500.02235174447,1730988686.5853624,1730988684.3909433,5000
-5773.813220717099,-77925.71370908186,4286.03640628295,-187500.02235174447,-187500.02235174447,-187500.02235174447,-187500.02235174447,-187500.02235174447,1730988686.5893612,1730988684.3909433,5000
-5774.416717817392,-77849.58366746709,4275.46403115559,-187500.02235174447,-187500.02235174447,-187500.02235174447,-187500.02235174447,-187500.02235174447,1730988686.594352,1730988684.3909433,5000
-5771.7121567383,-77799.15813197591,4257.8508565248085,-187500.02235174447,-187500.02235174447,-187500.02235174447,-187500.02235174447,-187500.02235174447,1730988686.597432,1730988684.3909433,5000
-5766.124220624473,-77832.90926610342,4266.568036862378,-187500.02235174447,-187500.02235174447,-187500.02235174447,-187500.02235174447,-187500.02235174447,1730988686.6004157,1730988684.3909433,5000
-5749.271005305172,-77860.80424318365,4299.872136100786,-187500.02235174447,-187500.02235174447,-187500.02235174447,-187500.02235174447,-187500.02235174447,1730988686.6053178,1730988684.3909433,5000
-5742.654888946401,-77850.70125468985,4288.696263873132,-187500.02235174447,-187500.02235174447,-187500.02235174447,-187500.02235174447,-187500.02235174447,1730988686.6093965,1730988684.3909433,5000
-5762.167961855885,-77853.00348436875,4261.98592924904,-187500.02235174447,-187500.02235174447,-187500.02235174447,-187500.02235174447,-187500.02235174447,1730988686.6132684,1730988684.3909433,5000
-5777.903589952421,-77852.69055994636,4264.645786839222,-187500.02235174447,-187500.02235174447,-187500.02235174447,-187500.02235174447,-187500.02235174447,1730988686.61755,1730988684.3909433,5000
-5767.644139247434,-77877.29983059167,4288.472746428579,-187500.02235174447,-187500.02235174447,-187500.02235174447,-187500.02235174447,-187500.02235174447,1730988686.6224475,1730988684.3909433,5000
-5773.902627694921,-77915.63307233252,4288.0257115394725,-187500.02235174447,-187500.02235174447,-187500.02235174447,-187500.02235174447,-187500.02235174447,1730988686.6255624,1730988684.3909433,5000
-5801.931715241875,-77805.75189659023,4268.691452585632,-187500.02235174447,-187500.02235174447,-187500.02235174447,-187500.02235174447,-187500.02235174447,1730988686.6283867,1730988684.3909433,5000
-5780.831668476066,-77799.47105639828,4265.405746150702,-187500.02235174447,-187500.02235174447,-187500.02235174447,-187500.02235174447,-187500.02235174447,1730988686.6339483,1730988684.3909433,5000
-5746.521740737169,-77899.94214772488,4280.671987613677,-187500.02235174447,-187500.02235174447,-187500.02235174447,-187500.02235174447,-187500.02235174447,1730988686.6376524,1730988684.3909433,5000
-5759.396345543426,-77930.31816843965,4285.790537093943,-187500.02235174447,-187500.02235174447,-187500.02235174447,-187500.02235174447,-187500.02235174447,1730988686.641842,1730988684.3909433,5000
-5785.324369111582,-77888.05101967466,4273.832353810353,-187500.02235174447,-187500.02235174447,-187500.02235174447,-187500.02235174447,-187500.02235174447,1730988686.645811,1730988684.3909433,5000
-5765.945406668831,-77821.80044910914,4259.929568759152,-187500.02235174447,-187500.02235174447,-187500.02235174447,-187500.02235174447,-187500.02235174447,1730988686.6497488,1730988684.3909433,5000
-5763.576121756569,-77887.134598152,4280.9178568026855,-187500.02235174447,-187500.02235174447,-187500.02235174447,-187500.02235174447,-187500.02235174447,1730988686.6536796,1730988684.3909433,5000
-5762.145610111429,-77932.50863939627,4299.447452956135,-187500.02235174447,-187500.02235174447,-187500.02235174447,-187500.02235174447,-187500.02235174447,1730988686.657114,1730988684.3909433,5000
-5772.539171283147,-77854.85867915854,4280.381414935758,-187500.02235174447,-187500.02235174447,-187500.02235174447,-187500.02235174447,-187500.02235174447,1730988686.6618843,1730988684.3909433,5000
-5754.054278618608,-77835.16679229341,4261.382432148746,-187500.02235174447,-187500.02235174447,-187500.02235174447,-187500.02235174447,-187500.02235174447,1730988686.6657205,1730988684.3909433,5000
-5772.941502683342,-77911.56505484165,4269.809039808398,-187500.02235174447,-187500.02235174447,-187500.02235174447,-187500.02235174447,-187500.02235174447,1730988686.6700516,1730988684.3909433,5000
-5776.0930986515405,-77935.59318013111,4285.410557438202,-187500.02235174447,-187500.02235174447,-187500.02235174447,-187500.02235174447,-187500.02235174447,1730988686.673832,1730988684.3909433,5000
-5760.513932766192,-77874.12588287902,4278.32505444587,-187500.02235174447,-187500.02235174447,-187500.02235174447,-187500.02235174447,-187500.02235174447,1730988686.6777008,1730988684.3909433,5000
-5781.435165576359,-77792.51966387268,4262.231798438049,-187500.02235174447,-187500.02235174447,-187500.02235174447,-187500.02235174447,-187500.02235174447,1730988686.6815677,1730988684.3909433,5000
-5801.931715241875,-77850.3212750341,4266.098650228817,-187500.02235174447,-187500.02235174447,-187500.02235174447,-187500.02235174447,-187500.02235174447,1730988686.6846936,1730988684.3909433,5000
-5790.442918591848,-77931.16753472896,4284.672949871177,-187500.02235174447,-187500.02235174447,-187500.02235174447,-187500.02235174447,-187500.02235174447,1730988686.688547,1730988684.3909433,5000
-5788.118337168496,-77880.40672307095,4278.503868401512,-187500.02235174447,-187500.02235174447,-187500.02235174447,-187500.02235174447,-187500.02235174447,1730988686.69357,1730988684.3909433,5000
-5773.902627694921,-77785.2106434358,4258.096725713816,-187500.02235174447,-187500.02235174447,-187500.02235174447,-187500.02235174447,-187500.02235174447,1730988686.6976883,1730988684.3909433,5000
-5770.706328237811,-77835.85969637152,4263.394089149724,-187500.02235174447,-187500.02235174447,-187500.02235174447,-187500.02235174447,-187500.02235174447,1730988686.7017548,1730988684.3909433,5000
-5767.442973547337,-77914.51548510975,4277.207467223104,-187500.02235174447,-187500.02235174447,-187500.02235174447,-187500.02235174447,-187500.02235174447,1730988686.7055876,1730988684.3909433,5000
-5783.647988277435,-77909.0393077182,4272.044214253929,-187500.02235174447,-187500.02235174447,-187500.02235174447,-187500.02235174447,-187500.02235174447,1730988686.70971,1730988684.3909433,5000
-5816.505052626736,-77816.92776881788,4247.390240119725,-187500.02235174447,-187500.02235174447,-187500.02235174447,-187500.02235174447,-187500.02235174447,1730988686.7125945,1730988684.3909433,5000
-5768.292339836638,-77797.6158616085,4256.800324535408,-187500.02235174447,-187500.02235174447,-187500.02235174447,-187500.02235174447,-187500.02235174447,1730988686.716715,1730988684.3909433,5000
-5751.036793117141,-77904.05486870467,4282.437775425646,-187500.02235174447,-187500.02235174447,-187500.02235174447,-187500.02235174447,-187500.02235174447,1730988686.721485,1730988684.3909433,5000
-5777.6130172745015,-77954.7039216404,4297.435795955157,-187500.02235174447,-187500.02235174447,-187500.02235174447,-187500.02235174447,-187500.02235174447,1730988686.7260797,1730988684.3909433,5000
-5798.914229740409,-77868.91792642092,4272.2900834429365,-187500.02235174447,-187500.02235174447,-187500.02235174447,-187500.02235174447,-187500.02235174447,1730988686.7296157,1730988684.3909433,5000
-5804.166889687406,-77836.10556556053,4254.386336134236,-187500.02235174447,-187500.02235174447,-187500.02235174447,-187500.02235174447,-187500.02235174447,1730988686.732485,1730988684.3909433,5000
-5787.648950534935,-77910.5368745967,4274.234685210548,-187500.02235174447,-187500.02235174447,-187500.02235174447,-187500.02235174447,-187500.02235174447,1730988686.7366393,1730988684.3909433,5000
-5761.09507812203,-77942.61162789007,4287.913952817196,-187500.02235174447,-187500.02235174447,-187500.02235174447,-187500.02235174447,-187500.02235174447,1730988686.7409172,1730988684.3909433,5000
-5784.922037711387,-77846.54383022116,4272.267731698481,-187500.02235174447,-187500.02235174447,-187500.02235174447,-187500.02235174447,-187500.02235174447,1730988686.7459705,1730988684.3909433,5000
-5821.91417478492,-77800.14160873194,4272.580656120856,-187500.02235174447,-187500.02235174447,-187500.02235174447,-187500.02235174447,-187500.02235174447,1730988686.749654,1730988684.3909433,5000
-5791.024063947686,-77883.06658066114,4280.2696562134815,-187500.02235174447,-187500.02235174447,-187500.02235174447,-187500.02235174447,-187500.02235174447,1730988686.7542572,1730988684.3909433,5000
-5782.888028965954,-77924.81963930365,4285.119984760283,-187500.02235174447,-187500.02235174447,-187500.02235174447,-187500.02235174447,-187500.02235174447,1730988686.7576911,1730988684.3909433,5000
-5779.624674275479,-77837.46902197231,4264.243455439027,-187500.02235174447,-187500.02235174447,-187500.02235174447,-187500.02235174447,-187500.02235174447,1730988686.7607892,1730988684.3909433,5000
-5790.688787780856,-77787.33405915905,4250.832408765842,-187500.02235174447,-187500.02235174447,-187500.02235174447,-187500.02235174447,-187500.02235174447,1730988686.764564,1730988684.3909433,5000
-5776.786002729655,-77910.98390948582,4272.737118332043,-187500.02235174447,-187500.02235174447,-187500.02235174447,-187500.02235174447,-187500.02235174447,1730988686.768674,1730988684.3909433,5000
-5777.903589952421,-77982.08480859814,4284.449432426623,-187500.02235174447,-187500.02235174447,-187500.02235174447,-187500.02235174447,-187500.02235174447,1730988686.772544,1730988684.3909433,5000
-5788.408909846415,-77925.6913573374,4277.520391645478,-187500.02235174447,-187500.02235174447,-187500.02235174447,-187500.02235174447,-187500.02235174447,1730988686.7780817,1730988684.3909433,5000
-5784.989092944753,-77840.79943189614,4265.450449639613,-187500.02235174447,-187500.02235174447,-187500.02235174447,-187500.02235174447,-187500.02235174447,1730988686.7815657,1730988684.3909433,5000
-5784.162078399906,-77887.71574350784,4271.239551453537,-187500.02235174447,-187500.02235174447,-187500.02235174447,-187500.02235174447,-187500.02235174447,1730988686.785822,1730988684.3909433,5000
-5783.37976734397,-77959.44249146491,4285.187039993649,-187500.02235174447,-187500.02235174447,-187500.02235174447,-187500.02235174447,-187500.02235174447,1730988686.788581,1730988684.3909433,5000
-5809.397197889948,-77919.49992412329,4283.108327759305,-187500.02235174447,-187500.02235174447,-187500.02235174447,-187500.02235174447,-187500.02235174447,1730988686.7929757,1730988684.3909433,5000
-5809.039569978663,-77833.49041145926,4266.880961284753,-187500.02235174447,-187500.02235174447,-187500.02235174447,-187500.02235174447,-187500.02235174447,1730988686.796582,1730988684.3909433,5000
-5791.5828575590685,-77853.53992623567,4268.132658974249,-187500.02235174447,-187500.02235174447,-187500.02235174447,-187500.02235174447,-187500.02235174447,1730988686.8007064,1730988684.3909433,5000
