Fp1,Fp2,C3,C4,P7,P8,O1,O2,time_board,time_marker,marker
26082.563529320185,-96687.81270835552,26381.94279455457,-187500.02235174447,-187500.02235174447,-187500.02235174447,-187500.02235174447,-187500.02235174447,1730655186.9463265,1730655186.9451983,5000
26073.86870072707,-96678.60378963994,26379.3276404533,-187500.02235174447,-187500.02235174447,-187500.02235174447,-187500.02235174447,-187500.02235174447,1730655186.951426,1730655186.9451983,5000
26092.55475909171,-96690.83019385698,26381.898091065657,-187500.02235174447,-187500.02235174447,-187500.02235174447,-187500.02235174447,-187500.02235174447,1730655186.955612,1730655186.9451983,5000
26094.49936085932,-96671.3171209475,26377.114817752223,-187500.02235174447,-187500.02235174447,-187500.02235174447,-187500.02235174447,-187500.02235174447,1730655186.9586017,1730655186.9451983,5000
26094.275843414765,-96701.49197596216,26381.004021287445,-187500.02235174447,-187500.02235174447,-187500.02235174447,-187500.02235174447,-187500.02235174447,1730655186.9625912,1730655186.9451983,5000
26092.487703858344,-96669.70779534672,26371.19160547157,-187500.02235174447,-187500.02235174447,-187500.02235174447,-187500.02235174447,-187500.02235174447,1730655186.9665728,1730655186.9451983,5000
26085.60336656611,-96655.7603068066,26376.936003796574,-187500.02235174447,-187500.02235174447,-187500.02235174447,-187500.02235174447,-187500.02235174447,1730655186.9703658,1730655186.9451983,5000
26097.56154984969,-96645.74672529064,26381.451056176556,-187500.02235174447,-187500.02235174447,-187500.02235174447,-187500.02235174447,-187500.02235174447,1730655186.9744036,1730655186.9451983,5000
26109.27386394428,-96658.64368184136,26383.84269283327,-187500.02235174447,-187500.02235174447,-187500.02235174447,-187500.02235174447,-187500.02235174447,1730655186.9794345,1730655186.9451983,5000
26087.749134033817,-96649.09948695892,26381.629870132198,-187500.02235174447,-187500.02235174447,-187500.02235174447,-187500.02235174447,-187500.02235174447,1730655186.983622,1730655186.9451983,5000
26088.084410200645,-96633.83324549596,26378.25475671944,-187500.02235174447,-187500.02235174447,-187500.02235174447,-187500.02235174447,-187500.02235174447,1730655186.9863598,1730655186.9451983,5000
26103.01537549679,-96652.94398700524,26380.042896275867,-187500.02235174447,-187500.02235174447,-187500.02235174447,-187500.02235174447,-187500.02235174447,1730655186.9906206,1730655186.9451983,5000
26111.62079711209,-96643.66801305627,26381.451056176556,-187500.02235174447,-187500.02235174447,-187500.02235174447,-187500.02235174447,-187500.02235174447,1730655186.994461,1730655186.9451983,5000
26108.78212556626,-96620.53395754503,26379.59586138676,-187500.02235174447,-187500.02235174447,-187500.02235174447,-187500.02235174447,-187500.02235174447,1730655186.998521,1730655186.9451983,5000
26096.64512832703,-96633.94500421824,26379.41704743112,-187500.02235174447,-187500.02235174447,-187500.02235174447,-187500.02235174447,-187500.02235174447,1730655187.0024064,1730655186.9451983,5000
26109.497381388832,-96626.81479773698,26377.15952124113,-187500.02235174447,-187500.02235174447,-187500.02235174447,-187500.02235174447,-187500.02235174447,1730655187.007733,1730655186.9451983,5000
26110.81613431169,-96624.87019596936,26378.32181195281,-187500.02235174447,-187500.02235174447,-187500.02235174447,-187500.02235174447,-187500.02235174447,1730655187.0114737,1730655186.9451983,5000
26081.46829384188,-96648.49598985864,26375.527843895896,-187500.02235174447,-187500.02235174447,-187500.02235174447,-187500.02235174447,-187500.02235174447,1730655187.0146236,1730655186.9451983,5000
26089.64903231252,-96665.75153657811,26368.822320559306,-187500.02235174447,-187500.02235174447,-187500.02235174447,-187500.02235174447,-187500.02235174447,1730655187.0185163,1730655186.9451983,5000
26118.03574777076,-96670.78067908058,26364.709599579528,-187500.02235174447,-187500.02235174447,-187500.02235174447,-187500.02235174447,-187500.02235174447,1730655187.022713,1730655186.9451983,5000
26140.40984397052,-96642.43866711124,26387.664841135127,-187500.02235174447,-187500.02235174447,-187500.02235174447,-187500.02235174447,-187500.02235174447,1730655187.026471,1730655186.9451983,5000
26118.63924487105,-96645.9031875018,26405.926216355118,-187500.02235174447,-187500.02235174447,-187500.02235174447,-187500.02235174447,-187500.02235174447,1730655187.030717,1730655186.9451983,5000
26062.22344186585,-96667.5173243901,26390.905844081142,-187500.02235174447,-187500.02235174447,-187500.02235174447,-187500.02235174447,-187500.02235174447,1730655187.0355384,1730655186.9451983,5000
26088.084410200645,-96680.21311524072,26377.45009391905,-187500.02235174447,-187500.02235174447,-187500.02235174447,-187500.02235174447,-187500.02235174447,1730655187.0385418,1730655186.9451983,5000
26120.27092221629,-96663.40460341032,26381.51811140992,-187500.02235174447,-187500.02235174447,-187500.02235174447,-187500.02235174447,-187500.02235174447,1730655187.0415547,1730655186.9451983,5000
26135.51481193481,-96647.0654782135,26379.93113755359,-187500.02235174447,-187500.02235174447,-187500.02235174447,-187500.02235174447,-187500.02235174447,1730655187.0467324,1730655186.9451983,5000
26107.195151709933,-96666.62325461188,26384.02150678891,-187500.02235174447,-187500.02235174447,-187500.02235174447,-187500.02235174447,-187500.02235174447,1730655187.0506823,1730655186.9451983,5000
26076.014468194782,-96656.25204518462,26374.54436713986,-187500.02235174447,-187500.02235174447,-187500.02235174447,-187500.02235174447,-187500.02235174447,1730655187.0545394,1730655186.9451983,5000
26093.091200958635,-96642.1033909444,26385.586128900784,-187500.02235174447,-187500.02235174447,-187500.02235174447,-187500.02235174447,-187500.02235174447,1730655187.0589,1730655186.9451983,5000
26102.054250485213,-96635.44257109672,26382.859216077235,-187500.02235174447,-187500.02235174447,-187500.02235174447,-187500.02235174447,-187500.02235174447,1730655187.0639377,1730655186.9451983,5000
26064.88329945604,-96615.5048150426,26376.84659681876,-187500.02235174447,-187500.02235174447,-187500.02235174447,-187500.02235174447,-187500.02235174447,1730655187.066492,1730655186.9451983,5000
26046.06313062467,-96638.59416706492,26385.675535878603,-187500.02235174447,-187500.02235174447,-187500.02235174447,-187500.02235174447,-187500.02235174447,1730655187.0694692,1730655186.9451983,5000
26046.10783411358,-96621.74095174564,26390.45880919204,-187500.02235174447,-187500.02235174447,-187500.02235174447,-187500.02235174447,-187500.02235174447,1730655187.0746305,1730655186.9451983,5000
26047.29247656971,-96626.83714948143,26379.215881731023,-187500.02235174447,-187500.02235174447,-187500.02235174447,-187500.02235174447,-187500.02235174447,1730655187.0786605,1730655186.9451983,5000
26064.324505844656,-96621.85271046792,26377.69596310806,-187500.02235174447,-187500.02235174447,-187500.02235174447,-187500.02235174447,-187500.02235174447,1730655187.0826604,1730655186.9451983,5000
26062.08933139913,-96615.16953887577,26373.40442817264,-187500.02235174447,-187500.02235174447,-187500.02235174447,-187500.02235174447,-187500.02235174447,1730655187.086631,1730655186.9451983,5000
26062.91634594397,-96624.31140235798,26380.244061975965,-187500.02235174447,-187500.02235174447,-187500.02235174447,-187500.02235174447,-187500.02235174447,1730655187.09097,1730655186.9451983,5000
26083.34584037612,-96631.17338790576,26380.1770067426,-187500.02235174447,-187500.02235174447,-187500.02235174447,-187500.02235174447,-187500.02235174447,1730655187.0945926,1730655186.9451983,5000
26114.79474482474,-96637.811856009,26384.110913766734,-187500.02235174447,-187500.02235174447,-187500.02235174447,-187500.02235174447,-187500.02235174447,1730655187.097772,1730655186.9451983,5000
26100.377869651067,-96626.32305935895,26380.26641372042,-187500.02235174447,-187500.02235174447,-187500.02235174447,-187500.02235174447,-187500.02235174447,1730655187.1025417,1730655186.9451983,5000
26088.553796834207,-96648.89832125884,26391.576396414806,-187500.02235174447,-187500.02235174447,-187500.02235174447,-187500.02235174447,-187500.02235174447,1730655187.1068645,1730655186.9451983,5000
26091.92891024696,-96662.48818188766,26393.92332958261,-187500.02235174447,-187500.02235174447,-187500.02235174447,-187500.02235174447,-187500.02235174447,1730655187.111797,1730655186.9451983,5000
26096.06398297119,-96642.37161187788,26386.971937057013,-187500.02235174447,-187500.02235174447,-187500.02235174447,-187500.02235174447,-187500.02235174447,1730655187.1159134,1730655186.9451983,5000
26096.466314371388,-96629.20643439372,26378.67943986409,-187500.02235174447,-187500.02235174447,-187500.02235174447,-187500.02235174447,-187500.02235174447,1730655187.1186645,1730655186.9451983,5000
26087.07858170016,-96633.31915537348,26383.574471899807,-187500.02235174447,-187500.02235174447,-187500.02235174447,-187500.02235174447,-187500.02235174447,1730655187.1228902,1730655186.9451983,5000
26085.40220086601,-96637.07424844198,26375.818416573813,-187500.02235174447,-187500.02235174447,-187500.02235174447,-187500.02235174447,-187500.02235174447,1730655187.1258671,1730655186.9451983,5000
26078.853139740604,-96694.4735282032,26376.26545146292,-187500.02235174447,-187500.02235174447,-187500.02235174447,-187500.02235174447,-187500.02235174447,1730655187.1309056,1730655186.9451983,5000
26085.5586630772,-96666.37738542288,26358.965201254512,-187500.02235174447,-187500.02235174447,-187500.02235174447,-187500.02235174447,-187500.02235174447,1730655187.1348,1730655186.9451983,5000
26143.673198661,-96648.0042514806,26376.46661716302,-187500.02235174447,-187500.02235174447,-187500.02235174447,-187500.02235174447,-187500.02235174447,1730655187.1390123,1730655186.9451983,5000
26107.843352299136,-96637.0071932086,26357.53468960937,-187500.02235174447,-187500.02235174447,-187500.02235174447,-187500.02235174447,-187500.02235174447,1730655187.143034,1730655186.9451983,5000
26062.558718032687,-96650.59705383744,26394.973861572013,-187500.02235174447,-187500.02235174447,-187500.02235174447,-187500.02235174447,-187500.02235174447,1730655187.1458406,1730655186.9451983,5000
26101.897788274026,-96625.8536727254,26453.200155878087,-187500.02235174447,-187500.02235174447,-187500.02235174447,-187500.02235174447,-187500.02235174447,1730655187.1498497,1730655186.9451983,5000
26134.956018323424,-96654.77683005056,26400.07005930782,-187500.02235174447,-187500.02235174447,-187500.02235174447,-187500.02235174447,-187500.02235174447,1730655187.1539495,1730655186.9451983,5000
26138.93462883647,-96683.25295248664,26393.14101852668,-187500.02235174447,-187500.02235174447,-187500.02235174447,-187500.02235174447,-187500.02235174447,1730655187.1588404,1730655186.9451983,5000
26061.84346221012,-96661.39294640934,26400.67355640812,-187500.02235174447,-187500.02235174447,-187500.02235174447,-187500.02235174447,-187500.02235174447,1730655187.1626997,1730655186.9451983,5000
26057.64133425252,-96671.07125175848,26363.23438444548,-187500.02235174447,-187500.02235174447,-187500.02235174447,-187500.02235174447,-187500.02235174447,1730655187.1668336,1730655186.9451983,5000
26125.85885833012,-96663.62812085488,26370.00696301544,-187500.02235174447,-187500.02235174447,-187500.02235174447,-187500.02235174447,-187500.02235174447,1730655187.170821,1730655186.9451983,5000
26107.77629706577,-96657.90607427432,26400.3829837302,-187500.02235174447,-187500.02235174447,-187500.02235174447,-187500.02235174447,-187500.02235174447,1730655187.1738043,1730655186.9451983,5000
26004.33242372661,-96664.34337667744,26393.27512899341,-187500.02235174447,-187500.02235174447,-187500.02235174447,-187500.02235174447,-187500.02235174447,1730655187.1777132,1730655186.9451983,5000
26032.51797348475,-96658.77779230809,26362.45207338954,-187500.02235174447,-187500.02235174447,-187500.02235174447,-187500.02235174447,-187500.02235174447,1730655187.1817267,1730655186.9451983,5000
26071.41000883699,-96647.84778926944,26387.93306206859,-187500.02235174447,-187500.02235174447,-187500.02235174447,-187500.02235174447,-187500.02235174447,1730655187.1856868,1730655186.9451983,5000
26118.08045125967,-96660.00713825312,26428.099146854776,-187500.02235174447,-187500.02235174447,-187500.02235174447,-187500.02235174447,-187500.02235174447,1730655187.1906967,1730655186.9451983,5000
26105.138791220044,-96655.73795506216,26381.674573621105,-187500.02235174447,-187500.02235174447,-187500.02235174447,-187500.02235174447,-187500.02235174447,1730655187.1948085,1730655186.9451983,5000
26047.96302890337,-96648.94302474774,26370.69986709355,-187500.02235174447,-187500.02235174447,-187500.02235174447,-187500.02235174447,-187500.02235174447,1730655187.198924,1730655186.9451983,5000
26047.78421494773,-96641.58930082194,26391.88932083718,-187500.02235174447,-187500.02235174447,-187500.02235174447,-187500.02235174447,-187500.02235174447,1730655187.201681,1730655186.9451983,5000
26091.37011663557,-96631.32985011696,26395.26443424993,-187500.02235174447,-187500.02235174447,-187500.02235174447,-187500.02235174447,-187500.02235174447,1730655187.2058847,1730655186.9451983,5000
26150.490480719865,-96648.49598985864,26379.193529986565,-187500.02235174447,-187500.02235174447,-187500.02235174447,-187500.02235174447,-187500.02235174447,1730655187.2097692,1730655186.9451983,5000
26178.832492689195,-96632.44743733972,26376.488968907477,-187500.02235174447,-187500.02235174447,-187500.02235174447,-187500.02235174447,-187500.02235174447,1730655187.2139037,1730655186.9451983,5000
26103.86474178609,-96628.49117857112,26406.954396600056,-187500.02235174447,-187500.02235174447,-187500.02235174447,-187500.02235174447,-187500.02235174447,1730655187.2188013,1730655186.9451983,5000
26069.3536483471,-96604.61951549289,26406.88734136669,-187500.02235174447,-187500.02235174447,-187500.02235174447,-187500.02235174447,-187500.02235174447,1730655187.222963,1730655186.9451983,5000
26158.827681401694,-96630.25696638312,26358.69698032105,-187500.02235174447,-187500.02235174447,-187500.02235174447,-187500.02235174447,-187500.02235174447,1730655187.2260013,1730655186.9451983,5000
26126.350596708133,-96638.77298102058,26344.905953992125,-187500.02235174447,-187500.02235174447,-187500.02235174447,-187500.02235174447,-187500.02235174447,1730655187.2299695,1730655186.9451983,5000
26082.2059014089,-96645.12087644589,26375.34902994025,-187500.02235174447,-187500.02235174447,-187500.02235174447,-187500.02235174447,-187500.02235174447,1730655187.2339668,1730655186.9451983,5000
26141.05804455973,-96655.22386493967,26415.26924553743,-187500.02235174447,-187500.02235174447,-187500.02235174447,-187500.02235174447,-187500.02235174447,1730655187.2379708,1730655186.9451983,5000
26177.42433278851,-96644.1597514343,26384.42383818911,-187500.02235174447,-187500.02235174447,-187500.02235174447,-187500.02235174447,-187500.02235174447,1730655187.2419727,1730655186.9451983,5000
26170.428236774,-96649.03243172556,26343.676608047084,-187500.02235174447,-187500.02235174447,-187500.02235174447,-187500.02235174447,-187500.02235174447,1730655187.2469363,1730655186.9451983,5000
26084.016392709786,-96675.22867622718,26376.19839622956,-187500.02235174447,-187500.02235174447,-187500.02235174447,-187500.02235174447,-187500.02235174447,1730655187.250947,1730655186.9451983,5000
26053.10393012809,-96657.34728066291,26451.25555411048,-187500.02235174447,-187500.02235174447,-187500.02235174447,-187500.02235174447,-187500.02235174447,1730655187.2539606,1730655186.9451983,5000
26119.600369882628,-96645.76907703507,26385.4296666896,-187500.02235174447,-187500.02235174447,-187500.02235174447,-187500.02235174447,-187500.02235174447,1730655187.257948,1730655186.9451983,5000
26165.30968729373,-96636.40369610832,26331.271389874382,-187500.02235174447,-187500.02235174447,-187500.02235174447,-187500.02235174447,-187500.02235174447,1730655187.261988,1730655186.9451983,5000
26009.29451099569,-96636.78367576405,26402.014661075435,-187500.02235174447,-187500.02235174447,-187500.02235174447,-187500.02235174447,-187500.02235174447,1730655187.2660348,1730655186.9451983,5000
26013.586045931108,-96632.98387920664,26449.288600598407,-187500.02235174447,-187500.02235174447,-187500.02235174447,-187500.02235174447,-187500.02235174447,1730655187.2698991,1730655186.9451983,5000
26152.16686155401,-96627.59710879292,26428.68029221061,-187500.02235174447,-187500.02235174447,-187500.02235174447,-187500.02235174447,-187500.02235174447,1730655187.2750032,1730655186.9451983,5000
26095.348727148623,-96617.5611755325,26425.662806709148,-187500.02235174447,-187500.02235174447,-187500.02235174447,-187500.02235174447,-187500.02235174447,1730655187.2790515,1730655186.9451983,5000
25946.62021954301,-96633.11798967338,26378.09829450825,-187500.02235174447,-187500.02235174447,-187500.02235174447,-187500.02235174447,-187500.02235174447,1730655187.282034,1730655186.9451983,5000
25939.71353050632,-96651.78169629356,26399.108934296244,-187500.02235174447,-187500.02235174447,-187500.02235174447,-187500.02235174447,-187500.02235174447,1730655187.2860048,1730655186.9451983,5000
25995.883464322505,-96670.44540291374,26374.34320143977,-187500.02235174447,-187500.02235174447,-187500.02235174447,-187500.02235174447,-187500.02235174447,1730655187.2900765,1730655186.9451983,5000
26061.642296510017,-96653.39102189436,26355.16540469711,-187500.02235174447,-187500.02235174447,-187500.02235174447,-187500.02235174447,-187500.02235174447,1730655187.2940767,1730655186.9451983,5000
26103.88709353055,-96625.69721051422,26399.734783140997,-187500.02235174447,-187500.02235174447,-187500.02235174447,-187500.02235174447,-187500.02235174447,1730655187.2979903,1730655186.9451983,5000
26053.97564816185,-96661.34824292045,26384.133265511187,-187500.02235174447,-187500.02235174447,-187500.02235174447,-187500.02235174447,-187500.02235174447,1730655187.3019383,1730655186.9451983,5000
26038.30707529868,-96659.42599289728,26385.13909401168,-187500.02235174447,-187500.02235174447,-187500.02235174447,-187500.02235174447,-187500.02235174447,1730655187.3069117,1730655186.9451983,5000
26130.88800083256,-96638.19183566474,26419.583132217307,-187500.02235174447,-187500.02235174447,-187500.02235174447,-187500.02235174447,-187500.02235174447,1730655187.309846,1730655186.9451983,5000
26248.502880156386,-96617.67293425476,26371.43747466057,-187500.02235174447,-187500.02235174447,-187500.02235174447,-187500.02235174447,-187500.02235174447,1730655187.3139763,1730655186.9451983,5000
26177.11140836613,-96625.22782388066,26375.1255124957,-187500.02235174447,-187500.02235174447,-187500.02235174447,-187500.02235174447,-187500.02235174447,1730655187.3179471,1730655186.9451983,5000
26025.700691425885,-96663.38225166588,26420.27603629542,-187500.02235174447,-187500.02235174447,-187500.02235174447,-187500.02235174447,-187500.02235174447,1730655187.3219936,1730655186.9451983,5000
26056.546098774208,-96657.83901904096,26386.614309145727,-187500.02235174447,-187500.02235174447,-187500.02235174447,-187500.02235174447,-187500.02235174447,1730655187.3259704,1730655186.9451983,5000
26081.624756053065,-96660.09654523092,26384.60265214475,-187500.02235174447,-187500.02235174447,-187500.02235174447,-187500.02235174447,-187500.02235174447,1730655187.3300457,1730655186.9451983,5000
26048.58887774812,-96669.64074011336,26400.807666874847,-187500.02235174447,-187500.02235174447,-187500.02235174447,-187500.02235174447,-187500.02235174447,1730655187.3349144,1730655186.9451983,5000
26032.0932903401,-96662.7116993322,26383.999155044457,-187500.02235174447,-187500.02235174447,-187500.02235174447,-187500.02235174447,-187500.02235174447,1730655187.338176,1730655186.9451983,5000
26093.87351201457,-96654.307443417,26377.785370085883,-187500.02235174447,-187500.02235174447,-187500.02235174447,-187500.02235174447,-187500.02235174447,1730655187.341961,1730655186.9451983,5000
26169.15418734005,-96620.48925405613,26390.257643491943,-187500.02235174447,-187500.02235174447,-187500.02235174447,-187500.02235174447,-187500.02235174447,1730655187.3460815,1730655186.9451983,5000
26134.911314834517,-96639.08590544296,26407.490838466983,-187500.02235174447,-187500.02235174447,-187500.02235174447,-187500.02235174447,-187500.02235174447,1730655187.3499188,1730655186.9451983,5000
26009.89800809598,-96652.6087108384,26420.633664206704,-187500.02235174447,-187500.02235174447,-187500.02235174447,-187500.02235174447,-187500.02235174447,1730655187.3540351,1730655186.9451983,5000
25986.987470029293,-96667.18204822329,26390.57056791432,-187500.02235174447,-187500.02235174447,-187500.02235174447,-187500.02235174447,-187500.02235174447,1730655187.358026,1730655186.9451983,5000
26033.81437466316,-96658.28605393006,26354.40544538563,-187500.02235174447,-187500.02235174447,-187500.02235174447,-187500.02235174447,-187500.02235174447,1730655187.3622031,1730655186.9451983,5000
26114.77239308028,-96657.25787368511,26353.489023862963,-187500.02235174447,-187500.02235174447,-187500.02235174447,-187500.02235174447,-187500.02235174447,1730655187.3651123,1730655186.9451983,5000
26195.99863243087,-96655.80501029552,26381.83103583229,-187500.02235174447,-187500.02235174447,-187500.02235174447,-187500.02235174447,-187500.02235174447,1730655187.37001,1730655186.9451983,5000
26141.438024215466,-96636.31428913047,26415.53746647089,-187500.02235174447,-187500.02235174447,-187500.02235174447,-187500.02235174447,-187500.02235174447,1730655187.374055,1730655186.9451983,5000
25948.676580032898,-96663.9186935328,26398.75130638496,-187500.02235174447,-187500.02235174447,-187500.02235174447,-187500.02235174447,-187500.02235174447,1730655187.378214,1730655186.9451983,5000
25945.077949175597,-96665.32685343348,26358.808739043325,-187500.02235174447,-187500.02235174447,-187500.02235174447,-187500.02235174447,-187500.02235174447,1730655187.3820724,1730655186.9451983,5000
26033.032063607225,-96658.95660626372,26402.12641979771,-187500.02235174447,-187500.02235174447,-187500.02235174447,-187500.02235174447,-187500.02235174447,1730655187.386135,1730655186.9451983,5000
26062.49166279932,-96638.9070914873,26382.658050377137,-187500.02235174447,-187500.02235174447,-187500.02235174447,-187500.02235174447,-187500.02235174447,1730655187.390162,1730655186.9451983,5000
26066.403218079,-96644.5173793456,26414.50928622595,-187500.02235174447,-187500.02235174447,-187500.02235174447,-187500.02235174447,-187500.02235174447,1730655187.3930476,1730655186.9451983,5000
26044.00677013478,-96666.51149588962,26434.80467019137,-187500.02235174447,-187500.02235174447,-187500.02235174447,-187500.02235174447,-187500.02235174447,1730655187.397153,1730655186.9451983,5000
26042.53155500073,-96671.5629901365,26409.99423384598,-187500.02235174447,-187500.02235174447,-187500.02235174447,-187500.02235174447,-187500.02235174447,1730655187.4019942,1730655186.9451983,5000
26057.753092974795,-96685.06344378753,26391.41993420362,-187500.02235174447,-187500.02235174447,-187500.02235174447,-187500.02235174447,-187500.02235174447,1730655187.4061248,1730655186.9451983,5000
26064.99505817832,-96676.5250774056,26385.630832389696,-187500.02235174447,-187500.02235174447,-187500.02235174447,-187500.02235174447,-187500.02235174447,1730655187.4102235,1730655186.9451983,5000
26106.59165460964,-96683.34235946446,26373.29266945037,-187500.02235174447,-187500.02235174447,-187500.02235174447,-187500.02235174447,-187500.02235174447,1730655187.4142406,1730655186.9451983,5000
26108.64801509953,-96673.44053667077,26361.84857628925,-187500.02235174447,-187500.02235174447,-187500.02235174447,-187500.02235174447,-187500.02235174447,1730655187.4180791,1730655186.9451983,5000
26061.86581395457,-96663.73987957716,26401.232350019494,-187500.02235174447,-187500.02235174447,-187500.02235174447,-187500.02235174447,-187500.02235174447,1730655187.423161,1730655186.9451983,5000
26033.05441535168,-96682.89532457537,26411.067117579834,-187500.02235174447,-187500.02235174447,-187500.02235174447,-187500.02235174447,-187500.02235174447,1730655187.4260514,1730655186.9451983,5000
25972.861167533538,-96692.01483631312,26404.830980876803,-187500.02235174447,-187500.02235174447,-187500.02235174447,-187500.02235174447,-187500.02235174447,1730655187.4302998,1730655186.9451983,5000
26011.46263020785,-96676.23450472768,26411.73766991349,-187500.02235174447,-187500.02235174447,-187500.02235174447,-187500.02235174447,-187500.02235174447,1730655187.4342673,1730655186.9451983,5000
26065.68796225643,-96689.19851651177,26412.76585015844,-187500.02235174447,-187500.02235174447,-187500.02235174447,-187500.02235174447,-187500.02235174447,1730655187.4382885,1730655186.9451983,5000
26078.13788391804,-96687.03039729958,26390.41410570313,-187500.02235174447,-187500.02235174447,-187500.02235174447,-187500.02235174447,-187500.02235174447,1730655187.4412422,1730655186.9451983,5000
26032.0932903401,-96700.39674048386,26380.37817244269,-187500.02235174447,-187500.02235174447,-187500.02235174447,-187500.02235174447,-187500.02235174447,1730655187.4452083,1730655186.9451983,5000
26031.690958939907,-96705.4258829863,26407.066155322333,-187500.02235174447,-187500.02235174447,-187500.02235174447,-187500.02235174447,-187500.02235174447,1730655187.4491775,1730655186.9451983,5000
26039.53642124372,-96682.60475189744,26397.387849973187,-187500.02235174447,-187500.02235174447,-187500.02235174447,-187500.02235174447,-187500.02235174447,1730655187.453212,1730655186.9451983,5000
26024.650159436485,-96674.40166168234,26396.65024240616,-187500.02235174447,-187500.02235174447,-187500.02235174447,-187500.02235174447,-187500.02235174447,1730655187.4581485,1730655186.9451983,5000
26031.445089750898,-96681.3754059524,26405.859161121745,-187500.02235174447,-187500.02235174447,-187500.02235174447,-187500.02235174447,-187500.02235174447,1730655187.4622445,1730655186.9451983,5000
26040.34108404411,-96653.18985619424,26382.83686433278,-187500.02235174447,-187500.02235174447,-187500.02235174447,-187500.02235174447,-187500.02235174447,1730655187.4662175,1730655186.9451983,5000
26028.62876994953,-96676.5697808945,26381.78633234338,-187500.02235174447,-187500.02235174447,-187500.02235174447,-187500.02235174447,-187500.02235174447,1730655187.46921,1730655186.9451983,5000
26029.85811589457,-96732.89617692187,26410.351861757263,-187500.02235174447,-187500.02235174447,-187500.02235174447,-187500.02235174447,-187500.02235174447,1730655187.473302,1730655186.9451983,5000
26017.564656444152,-96714.1877668128,26407.26732102243,-187500.02235174447,-187500.02235174447,-187500.02235174447,-187500.02235174447,-187500.02235174447,1730655187.4770937,1730655186.9451983,5000
26020.44803147889,-96700.57555443948,26392.738687126483,-187500.02235174447,-187500.02235174447,-187500.02235174447,-187500.02235174447,-187500.02235174447,1730655187.481118,1730655186.9451983,5000
26043.49268001231,-96693.78062412508,26388.55891091334,-187500.02235174447,-187500.02235174447,-187500.02235174447,-187500.02235174447,-187500.02235174447,1730655187.486173,1730655186.9451983,5000
26042.86683116756,-96717.04879010306,26395.37619297221,-187500.02235174447,-187500.02235174447,-187500.02235174447,-187500.02235174447,-187500.02235174447,1730655187.4902256,1730655186.9451983,5000
26039.87169741055,-96700.21792652822,26387.530730668397,-187500.02235174447,-187500.02235174447,-187500.02235174447,-187500.02235174447,-187500.02235174447,1730655187.4942725,1730655186.9451983,5000
26059.138901131024,-96697.80393812704,26382.725105610505,-187500.02235174447,-187500.02235174447,-187500.02235174447,-187500.02235174447,-187500.02235174447,1730655187.4973955,1730655186.9451983,5000
26047.38188354753,-96704.35299925244,26380.959317798533,-187500.02235174447,-187500.02235174447,-187500.02235174447,-187500.02235174447,-187500.02235174447,1730655187.5011623,1730655186.9451983,5000
26040.76576718876,-96690.60667641244,26403.84750412077,-187500.02235174447,-187500.02235174447,-187500.02235174447,-187500.02235174447,-187500.02235174447,1730655187.5051527,1730655186.9451983,5000
26054.57914526214,-96671.74180409216,26422.690024696592,-187500.02235174447,-187500.02235174447,-187500.02235174447,-187500.02235174447,-187500.02235174447,1730655187.5092974,1730655186.9451983,5000
26050.511127771275,-96669.55133313552,26374.0749805063,-187500.02235174447,-187500.02235174447,-187500.02235174447,-187500.02235174447,-187500.02235174447,1730655187.5132997,1730655186.9451983,5000
26068.705447757897,-96678.89436231783,26363.54730886785,-187500.02235174447,-187500.02235174447,-187500.02235174447,-187500.02235174447,-187500.02235174447,1730655187.518196,1730655186.9451983,5000
26062.938697688427,-96666.04210925604,26384.55794865584,-187500.02235174447,-187500.02235174447,-187500.02235174447,-187500.02235174447,-187500.02235174447,1730655187.521327,1730655186.9451983,5000
26054.95912491788,-96679.94489430723,26370.38694267117,-187500.02235174447,-187500.02235174447,-187500.02235174447,-187500.02235174447,-187500.02235174447,1730655187.5253425,1730655186.9451983,5000
25998.40921144596,-96689.064406045,26387.106047523743,-187500.02235174447,-187500.02235174447,-187500.02235174447,-187500.02235174447,-187500.02235174447,1730655187.52938,1730655186.9451983,5000
26005.20414176037,-96661.12472547588,26407.60259718926,-187500.02235174447,-187500.02235174447,-187500.02235174447,-187500.02235174447,-187500.02235174447,1730655187.5333672,1730655186.9451983,5000
26055.003828406792,-96665.32685343348,26398.863065107234,-187500.02235174447,-187500.02235174447,-187500.02235174447,-187500.02235174447,-187500.02235174447,1730655187.537269,1730655186.9451983,5000
26073.93575596044,-96637.18600716424,26408.429611734107,-187500.02235174447,-187500.02235174447,-187500.02235174447,-187500.02235174447,-187500.02235174447,1730655187.541343,1730655186.9451983,5000
26077.802607751204,-96642.32690838896,26408.362556500742,-187500.02235174447,-187500.02235174447,-187500.02235174447,-187500.02235174447,-187500.02235174447,1730655187.546289,1730655186.9451983,5000
26076.48385482834,-96648.22776892516,26393.25277724896,-187500.02235174447,-187500.02235174447,-187500.02235174447,-187500.02235174447,-187500.02235174447,1730655187.5492887,1730655186.9451983,5000
26070.13595940304,-96647.46780961368,26387.44132369057,-187500.02235174447,-187500.02235174447,-187500.02235174447,-187500.02235174447,-187500.02235174447,1730655187.5533814,1730655186.9451983,5000
26046.465462024866,-96635.28610888554,26415.64922519317,-187500.02235174447,-187500.02235174447,-187500.02235174447,-187500.02235174447,-187500.02235174447,1730655187.557299,1730655186.9451983,5000
26044.78908119072,-96659.15777196382,26381.071076520813,-187500.02235174447,-187500.02235174447,-187500.02235174447,-187500.02235174447,-187500.02235174447,1730655187.561363,1730655186.9451983,5000
26086.92211948897,-96654.95564400622,26377.673611363603,-187500.02235174447,-187500.02235174447,-187500.02235174447,-187500.02235174447,-187500.02235174447,1730655187.5654895,1730655186.9451983,5000
26096.041631226737,-96662.77875456556,26395.040916805377,-187500.02235174447,-187500.02235174447,-187500.02235174447,-187500.02235174447,-187500.02235174447,1730655187.569526,1730655186.9451983,5000
26080.64127929703,-96660.43182139775,26391.866969092724,-187500.02235174447,-187500.02235174447,-187500.02235174447,-187500.02235174447,-187500.02235174447,1730655187.5733583,1730655186.9451983,5000
26029.947522872397,-96680.48133617418,26392.626928404206,-187500.02235174447,-187500.02235174447,-187500.02235174447,-187500.02235174447,-187500.02235174447,1730655187.5773969,1730655186.9451983,5000
26031.35568277308,-96657.92842601876,26390.23529174749,-187500.02235174447,-187500.02235174447,-187500.02235174447,-187500.02235174447,-187500.02235174447,1730655187.5804317,1730655186.9451983,5000
26066.850252968103,-96643.5115508451,26396.22555926151,-187500.02235174447,-187500.02235174447,-187500.02235174447,-187500.02235174447,-187500.02235174447,1730655187.58536,1730655186.9451983,5000
26098.455619627908,-96649.43476312576,26392.69398363757,-187500.02235174447,-187500.02235174447,-187500.02235174447,-187500.02235174447,-187500.02235174447,1730655187.589354,1730655186.9451983,5000
26104.40118365302,-96636.00136470812,26402.998137831462,-187500.02235174447,-187500.02235174447,-187500.02235174447,-187500.02235174447,-187500.02235174447,1730655187.5933704,1730655186.9451983,5000
26071.20884313689,-96643.89153050084,26405.635643677197,-187500.02235174447,-187500.02235174447,-187500.02235174447,-187500.02235174447,-187500.02235174447,1730655187.5974956,1730655186.9451983,5000
26024.851325136584,-96665.30450168902,26404.898036110168,-187500.02235174447,-187500.02235174447,-187500.02235174447,-187500.02235174447,-187500.02235174447,1730655187.6023571,1730655186.9451983,5000
26038.73175844333,-96651.89345501584,26408.809591389847,-187500.02235174447,-187500.02235174447,-187500.02235174447,-187500.02235174447,-187500.02235174447,1730655187.6054971,1730655186.9451983,5000
26056.859023196583,-96643.08686770043,26404.42864947661,-187500.02235174447,-187500.02235174447,-187500.02235174447,-187500.02235174447,-187500.02235174447,1730655187.6085596,1730655186.9451983,5000
26031.78036591773,-96675.1616209938,26364.866061790715,-187500.02235174447,-187500.02235174447,-187500.02235174447,-187500.02235174447,-187500.02235174447,1730655187.613662,1730655186.9451983,5000
26061.888165699027,-96662.33171967648,26356.97589599799,-187500.02235174447,-187500.02235174447,-187500.02235174447,-187500.02235174447,-187500.02235174447,1730655187.6175838,1730655186.9451983,5000
26105.31760517569,-96647.44545786924,26393.565701671327,-187500.02235174447,-187500.02235174447,-187500.02235174447,-187500.02235174447,-187500.02235174447,1730655187.621503,1730655186.9451983,5000
26078.651974040506,-96646.9537194912,26395.1303237832,-187500.02235174447,-187500.02235174447,-187500.02235174447,-187500.02235174447,-187500.02235174447,1730655187.6254632,1730655186.9451983,5000
26092.666517813985,-96668.07611800148,26402.19347503108,-187500.02235174447,-187500.02235174447,-187500.02235174447,-187500.02235174447,-187500.02235174447,1730655187.6295383,1730655186.9451983,5000
26054.802662706694,-96701.06729281752,26401.27705350841,-187500.02235174447,-187500.02235174447,-187500.02235174447,-187500.02235174447,-187500.02235174447,1730655187.6335063,1730655186.9451983,5000
26031.310979284168,-96693.35594098044,26385.0273352894,-187500.02235174447,-187500.02235174447,-187500.02235174447,-187500.02235174447,-187500.02235174447,1730655187.63648,1730655186.9451983,5000
26092.97944223636,-96688.0138740556,26380.713448609527,-187500.02235174447,-187500.02235174447,-187500.02235174447,-187500.02235174447,-187500.02235174447,1730655187.6424687,1730655186.9451983,5000
26065.48679655633,-96683.1635455088,26388.20128300205,-187500.02235174447,-187500.02235174447,-187500.02235174447,-187500.02235174447,-187500.02235174447,1730655187.645556,1730655186.9451983,5000
26067.2525843683,-96672.43470817029,26384.870873078213,-187500.02235174447,-187500.02235174447,-187500.02235174447,-187500.02235174447,-187500.02235174447,1730655187.6495566,1730655186.9451983,5000
26083.435247353944,-96672.85939131492,26378.567681141816,-187500.02235174447,-187500.02235174447,-187500.02235174447,-187500.02235174447,-187500.02235174447,1730655187.653591,1730655186.9451983,5000
26041.88335441153,-96679.58726639596,26405.501533210463,-187500.02235174447,-187500.02235174447,-187500.02235174447,-187500.02235174447,-187500.02235174447,1730655187.656643,1730655186.9451983,5000
26055.316752829167,-96701.69314166228,26389.765905113927,-187500.02235174447,-187500.02235174447,-187500.02235174447,-187500.02235174447,-187500.02235174447,1730655187.660478,1730655186.9451983,5000
26070.49358731432,-96684.07996703147,26381.74162885447,-187500.02235174447,-187500.02235174447,-187500.02235174447,-187500.02235174447,-187500.02235174447,1730655187.66461,1730655186.9451983,5000
26085.06692469918,-96680.1684117518,26385.94375681207,-187500.02235174447,-187500.02235174447,-187500.02235174447,-187500.02235174447,-187500.02235174447,1730655187.669701,1730655186.9451983,5000
26110.972596522883,-96690.8748973459,26390.57056791432,-187500.02235174447,-187500.02235174447,-187500.02235174447,-187500.02235174447,-187500.02235174447,1730655187.6736777,1730655186.9451983,5000
26094.856988770603,-96675.74276634963,26404.42864947661,-187500.02235174447,-187500.02235174447,-187500.02235174447,-187500.02235174447,-187500.02235174447,1730655187.677441,1730655186.9451983,5000
26036.4965839978,-96664.00810051062,26402.0817163088,-187500.02235174447,-187500.02235174447,-187500.02235174447,-187500.02235174447,-187500.02235174447,1730655187.681723,1730655186.9451983,5000
26028.78523216072,-96657.01200449612,26378.053591019347,-187500.02235174447,-187500.02235174447,-187500.02235174447,-187500.02235174447,-187500.02235174447,1730655187.684582,1730655186.9451983,5000
26108.491552888343,-96682.00125479714,26388.49185567997,-187500.02235174447,-187500.02235174447,-187500.02235174447,-187500.02235174447,-187500.02235174447,1730655187.688702,1730655186.9451983,5000
26125.70239611893,-96726.0341913741,26381.83103583229,-187500.02235174447,-187500.02235174447,-187500.02235174447,-187500.02235174447,-187500.02235174447,1730655187.6925263,1730655186.9451983,5000
26096.108686460106,-96709.2256795437,26392.98455631549,-187500.02235174447,-187500.02235174447,-187500.02235174447,-187500.02235174447,-187500.02235174447,1730655187.6966765,1730655186.9451983,5000
26086.78800902224,-96713.69602843476,26404.22748377651,-187500.02235174447,-187500.02235174447,-187500.02235174447,-187500.02235174447,-187500.02235174447,1730655187.7015193,1730655186.9451983,5000
26073.01933443777,-96694.6746939033,26392.112838281733,-187500.02235174447,-187500.02235174447,-187500.02235174447,-187500.02235174447,-187500.02235174447,1730655187.7057364,1730655186.9451983,5000
26073.39931409351,-96687.43272869976,26388.73772486898,-187500.02235174447,-187500.02235174447,-187500.02235174447,-187500.02235174447,-187500.02235174447,1730655187.7096045,1730655186.9451983,5000
26018.056394822168,-96704.42005448582,26377.584204385785,-187500.02235174447,-187500.02235174447,-187500.02235174447,-187500.02235174447,-187500.02235174447,1730655187.7127097,1730655186.9451983,5000
26060.591764520617,-96698.34037999396,26389.631794647197,-187500.02235174447,-187500.02235174447,-187500.02235174447,-187500.02235174447,-187500.02235174447,1730655187.7167168,1730655186.9451983,5000
26102.724802818877,-96703.45892947425,26391.777562114905,-187500.02235174447,-187500.02235174447,-187500.02235174447,-187500.02235174447,-187500.02235174447,1730655187.7207744,1730655186.9451983,5000
26094.38760213704,-96695.00997007012,26399.153637785155,-187500.02235174447,-187500.02235174447,-187500.02235174447,-187500.02235174447,-187500.02235174447,1730655187.7247584,1730655186.9451983,5000
26075.008639694293,-96683.78939435356,26405.099201810262,-187500.02235174447,-187500.02235174447,-187500.02235174447,-187500.02235174447,-187500.02235174447,1730655187.729836,1730655186.9451983,5000
26030.171040316945,-96669.819554069,26395.48795169449,-187500.02235174447,-187500.02235174447,-187500.02235174447,-187500.02235174447,-187500.02235174447,1730655187.733771,1730655186.9451983,5000
26024.471345480844,-96674.17814423778,26376.354858440744,-187500.02235174447,-187500.02235174447,-187500.02235174447,-187500.02235174447,-187500.02235174447,1730655187.7367833,1730655186.9451983,5000
26075.008639694293,-96678.2685134731,26369.33641068177,-187500.02235174447,-187500.02235174447,-187500.02235174447,-187500.02235174447,-187500.02235174447,1730655187.7407618,1730655186.9451983,5000
26083.68111654295,-96680.4142809408,26361.513300122417,-187500.02235174447,-187500.02235174447,-187500.02235174447,-187500.02235174447,-187500.02235174447,1730655187.7445955,1730655186.9451983,5000
26106.904579032016,-96654.97799575068,26384.26737597792,-187500.02235174447,-187500.02235174447,-187500.02235174447,-187500.02235174447,-187500.02235174447,1730655187.7487347,1730655186.9451983,5000
26095.28167191525,-96640.58347232144,26411.62591119121,-187500.02235174447,-187500.02235174447,-187500.02235174447,-187500.02235174447,-187500.02235174447,1730655187.7527084,1730655186.9451983,5000
26067.520805301763,-96642.7515915336,26411.290635024387,-187500.02235174447,-187500.02235174447,-187500.02235174447,-187500.02235174447,-187500.02235174447,1730655187.7577431,1730655186.9451983,5000
26035.96014213087,-96687.03039729958,26409.56955070133,-187500.02235174447,-187500.02235174447,-187500.02235174447,-187500.02235174447,-187500.02235174447,1730655187.7616966,1730655186.9451983,5000
26026.77357515974,-96691.43369095727,26393.49864643796,-187500.02235174447,-187500.02235174447,-187500.02235174447,-187500.02235174447,-187500.02235174447,1730655187.7648375,1730655186.9451983,5000
26031.89212464001,-96693.35594098044,26391.46463769253,-187500.02235174447,-187500.02235174447,-187500.02235174447,-187500.02235174447,-187500.02235174447,1730655187.7686107,1730655186.9451983,5000
26076.640317039528,-96667.89730404584,26377.31598345232,-187500.02235174447,-187500.02235174447,-187500.02235174447,-187500.02235174447,-187500.02235174447,1730655187.7728689,1730655186.9451983,5000
26087.4585613559,-96682.1130135194,26392.761038870936,-187500.02235174447,-187500.02235174447,-187500.02235174447,-187500.02235174447,-187500.02235174447,1730655187.7767026,1730655186.9451983,5000
26066.582032034643,-96685.80105135456,26400.85237036376,-187500.02235174447,-187500.02235174447,-187500.02235174447,-187500.02235174447,-187500.02235174447,1730655187.7808688,1730655186.9451983,5000
26087.145636933525,-96673.19466748174,26391.79991385936,-187500.02235174447,-187500.02235174447,-187500.02235174447,-187500.02235174447,-187500.02235174447,1730655187.785632,1730655186.9451983,5000
26097.606253338607,-96681.93419956377,26387.30721322384,-187500.02235174447,-187500.02235174447,-187500.02235174447,-187500.02235174447,-187500.02235174447,1730655187.789886,1730655186.9451983,5000
26069.30894485819,-96697.91569684932,26362.161500711623,-187500.02235174447,-187500.02235174447,-187500.02235174447,-187500.02235174447,-187500.02235174447,1730655187.7927566,1730655186.9451983,5000
26080.19424440792,-96717.49582499216,26369.291707192864,-187500.02235174447,-187500.02235174447,-187500.02235174447,-187500.02235174447,-187500.02235174447,1730655187.7968998,1730655186.9451983,5000
26070.471235569865,-96698.04980731604,26385.161445756134,-187500.02235174447,-187500.02235174447,-187500.02235174447,-187500.02235174447,-187500.02235174447,1730655187.8008988,1730655186.9451983,5000
26099.148523706022,-96671.02654826958,26393.92332958261,-187500.02235174447,-187500.02235174447,-187500.02235174447,-187500.02235174447,-187500.02235174447,1730655187.8048997,1730655186.9451983,5000
26051.98634290533,-96671.63004536988,26399.958300585546,-187500.02235174447,-187500.02235174447,-187500.02235174447,-187500.02235174447,-187500.02235174447,1730655187.8088822,1730655186.9451983,5000
25998.00688004576,-96696.19461252626,26389.98942255848,-187500.02235174447,-187500.02235174447,-187500.02235174447,-187500.02235174447,-187500.02235174447,1730655187.8136113,1730655186.9451983,5000
26021.073880323635,-96698.09451080496,26389.296518480365,-187500.02235174447,-187500.02235174447,-187500.02235174447,-187500.02235174447,-187500.02235174447,1730655187.8177843,1730655186.9451983,5000
26028.069976338145,-96712.53373772308,26380.624041631705,-187500.02235174447,-187500.02235174447,-187500.02235174447,-187500.02235174447,-187500.02235174447,1730655187.8209116,1730655186.9451983,5000
26068.079598913147,-96672.3676529369,26358.98755299897,-187500.02235174447,-187500.02235174447,-187500.02235174447,-187500.02235174447,-187500.02235174447,1730655187.8249185,1730655186.9451983,5000
26110.50320988932,-96646.10435320192,26364.19550945705,-187500.02235174447,-187500.02235174447,-187500.02235174447,-187500.02235174447,-187500.02235174447,1730655187.829678,1730655186.9451983,5000
26081.64710779752,-96655.1121062174,26413.011719347447,-187500.02235174447,-187500.02235174447,-187500.02235174447,-187500.02235174447,-187500.02235174447,1730655187.8340828,1730655186.9451983,5000
26053.997999906303,-96670.9147895473,26426.445117765084,-187500.02235174447,-187500.02235174447,-187500.02235174447,-187500.02235174447,-187500.02235174447,1730655187.836885,1730655186.9451983,5000
26076.886186228538,-96677.64266462837,26397.61136741774,-187500.02235174447,-187500.02235174447,-187500.02235174447,-187500.02235174447,-187500.02235174447,1730655187.8409705,1730655186.9451983,5000
26088.12911368956,-96678.84965882894,26376.913652052124,-187500.02235174447,-187500.02235174447,-187500.02235174447,-187500.02235174447,-187500.02235174447,1730655187.8449495,1730655186.9451983,5000
26053.43920629492,-96702.78837714058,26372.867986305715,-187500.02235174447,-187500.02235174447,-187500.02235174447,-187500.02235174447,-187500.02235174447,1730655187.8479812,1730655186.9451983,5000
26031.19922056189,-96684.9293333208,26381.451056176556,-187500.02235174447,-187500.02235174447,-187500.02235174447,-187500.02235174447,-187500.02235174447,1730655187.8527465,1730655186.9451983,5000
26059.809453464684,-96679.2743419736,26412.072946080323,-187500.02235174447,-187500.02235174447,-187500.02235174447,-187500.02235174447,-187500.02235174447,1730655187.8568027,1730655186.9451983,5000
26080.77538976376,-96684.05761528702,26389.11770452472,-187500.02235174447,-187500.02235174447,-187500.02235174447,-187500.02235174447,-187500.02235174447,1730655187.8608277,1730655186.9451983,5000
26043.604438734583,-96678.6261413844,26382.56864339932,-187500.02235174447,-187500.02235174447,-187500.02235174447,-187500.02235174447,-187500.02235174447,1730655187.8649192,1730655186.9451983,5000
26014.48011570932,-96675.54160064957,26384.535596911384,-187500.02235174447,-187500.02235174447,-187500.02235174447,-187500.02235174447,-187500.02235174447,1730655187.8688328,1730655186.9451983,5000
26071.20884313689,-96687.38802521086,26378.634736375185,-187500.02235174447,-187500.02235174447,-187500.02235174447,-187500.02235174447,-187500.02235174447,1730655187.8729744,1730655186.9451983,5000
26106.59165460964,-96670.6689203583,26394.973861572013,-187500.02235174447,-187500.02235174447,-187500.02235174447,-187500.02235174447,-187500.02235174447,1730655187.8759797,1730655186.9451983,5000
26100.22140743988,-96682.96237980873,26399.46656220753,-187500.02235174447,-187500.02235174447,-187500.02235174447,-187500.02235174447,-187500.02235174447,1730655187.8810349,1730655186.9451983,5000
26107.239855198844,-96665.57272262248,26383.909748066635,-187500.02235174447,-187500.02235174447,-187500.02235174447,-187500.02235174447,-187500.02235174447,1730655187.884761,1730655186.9451983,5000
26059.27301159776,-96673.39583318184,26402.75226864246,-187500.02235174447,-187500.02235174447,-187500.02235174447,-187500.02235174447,-187500.02235174447,1730655187.8889987,1730655186.9451983,5000
26002.924263825927,-96667.98671102368,26394.12449528271,-187500.02235174447,-187500.02235174447,-187500.02235174447,-187500.02235174447,-187500.02235174447,1730655187.8928072,1730655186.9451983,5000
26040.58695323312,-96659.15777196382,26366.36362866922,-187500.02235174447,-187500.02235174447,-187500.02235174447,-187500.02235174447,-187500.02235174447,1730655187.897019,1730655186.9451983,5000
26056.747264474307,-96681.6659786303,26369.0234862594,-187500.02235174447,-187500.02235174447,-187500.02235174447,-187500.02235174447,-187500.02235174447,1730655187.9010885,1730655186.9451983,5000
26057.95425867489,-96674.33460644896,26401.008832574946,-187500.02235174447,-187500.02235174447,-187500.02235174447,-187500.02235174447,-187500.02235174447,1730655187.904013,1730655186.9451983,5000
26078.27199438477,-96688.46090894472,26404.60746343225,-187500.02235174447,-187500.02235174447,-187500.02235174447,-187500.02235174447,-187500.02235174447,1730655187.9090576,1730655186.9451983,5000
26075.96976470587,-96694.65234215884,26387.9777655575,-187500.02235174447,-187500.02235174447,-187500.02235174447,-187500.02235174447,-187500.02235174447,1730655187.9130564,1730655186.9451983,5000
26055.33910457362,-96715.41711275782,26381.11578000972,-187500.02235174447,-187500.02235174447,-187500.02235174447,-187500.02235174447,-187500.02235174447,1730655187.9170463,1730655186.9451983,5000
26065.732665745338,-96710.43267374428,26379.72997185349,-187500.02235174447,-187500.02235174447,-187500.02235174447,-187500.02235174447,-187500.02235174447,1730655187.92307,1730655186.9451983,5000
26075.16510190548,-96725.98948788518,26372.06332350532,-187500.02235174447,-187500.02235174447,-187500.02235174447,-187500.02235174447,-187500.02235174447,1730655187.9260652,1730655186.9451983,5000
26092.59946258062,-96744.25086310518,26369.761093826422,-187500.02235174447,-187500.02235174447,-187500.02235174447,-187500.02235174447,-187500.02235174447,1730655187.9290152,1730655186.9451983,5000
26117.58871288165,-96708.51042372112,26380.624041631705,-187500.02235174447,-187500.02235174447,-187500.02235174447,-187500.02235174447,-187500.02235174447,1730655187.9320388,1730655186.9451983,5000
26138.64405615855,-96687.99152231116,26403.60163493176,-187500.02235174447,-187500.02235174447,-187500.02235174447,-187500.02235174447,-187500.02235174447,1730655187.9359293,1730655186.9451983,5000
26059.228308108846,-96717.80874941454,26416.99032986049,-187500.02235174447,-187500.02235174447,-187500.02235174447,-187500.02235174447,-187500.02235174447,1730655187.9411025,1730655186.9451983,5000
26003.371298715032,-96737.07595313502,26408.206094289555,-187500.02235174447,-187500.02235174447,-187500.02235174447,-187500.02235174447,-187500.02235174447,1730655187.944994,1730655186.9451983,5000
26033.546153729694,-96731.9797553992,26375.21491947352,-187500.02235174447,-187500.02235174447,-187500.02235174447,-187500.02235174447,-187500.02235174447,1730655187.94909,1730655186.9451983,5000
26049.125319615046,-96737.25476709066,26381.585166643283,-187500.02235174447,-187500.02235174447,-187500.02235174447,-187500.02235174447,-187500.02235174447,1730655187.95195,1730655186.9451983,5000
26037.05537760918,-96727.21883383022,26382.725105610505,-187500.02235174447,-187500.02235174447,-187500.02235174447,-187500.02235174447,-187500.02235174447,1730655187.9559965,1730655186.9451983,5000
26047.15836610298,-96734.63961298938,26383.17214049961,-187500.02235174447,-187500.02235174447,-187500.02235174447,-187500.02235174447,-187500.02235174447,1730655187.959946,1730655186.9451983,5000
26079.2554711408,-96740.71928748125,26382.635698632683,-187500.02235174447,-187500.02235174447,-187500.02235174447,-187500.02235174447,-187500.02235174447,1730655187.964162,1730655186.9451983,5000
26071.052380925703,-96727.19648208575,26390.54821616986,-187500.02235174447,-187500.02235174447,-187500.02235174447,-187500.02235174447,-187500.02235174447,1730655187.9689174,1730655186.9451983,5000
26054.556793517688,-96725.92243265182,26388.3800969577,-187500.02235174447,-187500.02235174447,-187500.02235174447,-187500.02235174447,-187500.02235174447,1730655187.9731383,1730655186.9451983,5000
26073.66753502697,-96732.06916237704,26382.523939910407,-187500.02235174447,-187500.02235174447,-187500.02235174447,-187500.02235174447,-187500.02235174447,1730655187.9769468,1730655186.9451983,5000
26064.950354689405,-96748.05065966256,26380.75815209844,-187500.02235174447,-187500.02235174447,-187500.02235174447,-187500.02235174447,-187500.02235174447,1730655187.9800603,1730655186.9451983,5000
26061.150558132,-96736.24893859016,26377.941832297067,-187500.02235174447,-187500.02235174447,-187500.02235174447,-187500.02235174447,-187500.02235174447,1730655187.9842184,1730655186.9451983,5000
26101.987195251848,-96730.95157515426,26387.061344034835,-187500.02235174447,-187500.02235174447,-187500.02235174447,-187500.02235174447,-187500.02235174447,1730655187.9879675,1730655186.9451983,5000
26113.11836399059,-96751.55988354204,26386.9272335681,-187500.02235174447,-187500.02235174447,-187500.02235174447,-187500.02235174447,-187500.02235174447,1730655187.9920602,1730655186.9451983,5000
26084.1057996876,-96737.8806159354,26395.71146913904,-187500.02235174447,-187500.02235174447,-187500.02235174447,-187500.02235174447,-187500.02235174447,1730655187.9969797,1730655186.9451983,5000
26038.30707529868,-96721.04975236056,26389.65414639165,-187500.02235174447,-187500.02235174447,-187500.02235174447,-187500.02235174447,-187500.02235174447,1730655188.0010552,1730655186.9451983,5000
26052.96981966136,-96737.29947057956,26382.903919566143,-187500.02235174447,-187500.02235174447,-187500.02235174447,-187500.02235174447,-187500.02235174447,1730655188.0051756,1730655186.9451983,5000
26036.74245318681,-96720.89329014935,26364.039047245868,-187500.02235174447,-187500.02235174447,-187500.02235174447,-187500.02235174447,-187500.02235174447,1730655188.0080163,1730655186.9451983,5000
26054.89206968452,-96714.14306332386,26383.35095445525,-187500.02235174447,-187500.02235174447,-187500.02235174447,-187500.02235174447,-187500.02235174447,1730655188.0120687,1730655186.9451983,5000
26062.98340117734,-96710.18680455528,26385.809646345337,-187500.02235174447,-187500.02235174447,-187500.02235174447,-187500.02235174447,-187500.02235174447,1730655188.016016,1730655186.9451983,5000
26055.29440108471,-96707.83987138748,26402.864027364736,-187500.02235174447,-187500.02235174447,-187500.02235174447,-187500.02235174447,-187500.02235174447,1730655188.020048,1730655186.9451983,5000
26046.33135155813,-96733.81259844454,26398.326623240308,-187500.02235174447,-187500.02235174447,-187500.02235174447,-187500.02235174447,-187500.02235174447,1730655188.0241213,1730655186.9451983,5000
26056.501395285297,-96735.04194438958,26385.8767015787,-187500.02235174447,-187500.02235174447,-187500.02235174447,-187500.02235174447,-187500.02235174447,1730655188.0292065,1730655186.9451983,5000
26077.95906996239,-96710.18680455528,26379.05941951984,-187500.02235174447,-187500.02235174447,-187500.02235174447,-187500.02235174447,-187500.02235174447,1730655188.0322254,1730655186.9451983,5000
26072.549947804207,-96724.1789965843,26391.732858625997,-187500.02235174447,-187500.02235174447,-187500.02235174447,-187500.02235174447,-187500.02235174447,1730655188.0361087,1730655186.9451983,5000
26068.54898554671,-96751.51518005316,26394.68328889409,-187500.02235174447,-187500.02235174447,-187500.02235174447,-187500.02235174447,-187500.02235174447,1730655188.0401902,1730655186.9451983,5000
26073.913404215986,-96745.10022939448,26385.966108556524,-187500.02235174447,-187500.02235174447,-187500.02235174447,-187500.02235174447,-187500.02235174447,1730655188.0440304,1730655186.9451983,5000
26080.64127929703,-96730.99627864316,26382.54629165486,-187500.02235174447,-187500.02235174447,-187500.02235174447,-187500.02235174447,-187500.02235174447,1730655188.048226,1730655186.9451983,5000
26099.75202080632,-96739.37818281392,26381.18283524309,-187500.02235174447,-187500.02235174447,-187500.02235174447,-187500.02235174447,-187500.02235174447,1730655188.0520265,1730655186.9451983,5000
26073.08638967113,-96748.81061897404,26397.924291840118,-187500.02235174447,-187500.02235174447,-187500.02235174447,-187500.02235174447,-187500.02235174447,1730655188.0572324,1730655186.9451983,5000
26074.047514682712,-96745.74842998368,26388.76007661344,-187500.02235174447,-187500.02235174447,-187500.02235174447,-187500.02235174447,-187500.02235174447,1730655188.0600567,1730655186.9451983,5000
26064.34685758911,-96746.46368580624,26396.56083542834,-187500.02235174447,-187500.02235174447,-187500.02235174447,-187500.02235174447,-187500.02235174447,1730655188.064058,1730655186.9451983,5000
26045.39257829101,-96740.33930782547,26387.59778590176,-187500.02235174447,-187500.02235174447,-187500.02235174447,-187500.02235174447,-187500.02235174447,1730655188.068077,1730655186.9451983,5000
26078.4061048515,-96714.81361565752,26383.21684398852,-187500.02235174447,-187500.02235174447,-187500.02235174447,-187500.02235174447,-187500.02235174447,1730655188.072172,1730655186.9451983,5000
26078.62962229605,-96722.0779326055,26369.671686848604,-187500.02235174447,-187500.02235174447,-187500.02235174447,-187500.02235174447,-187500.02235174447,1730655188.0760903,1730655186.9451983,5000
26075.835654239138,-96757.21487488924,26399.734783140997,-187500.02235174447,-187500.02235174447,-187500.02235174447,-187500.02235174447,-187500.02235174447,1730655188.0802684,1730655186.9451983,5000
26059.988267420325,-96768.16722967234,26408.67548092312,-187500.02235174447,-187500.02235174447,-187500.02235174447,-187500.02235174447,-187500.02235174447,1730655188.0850756,1730655186.9451983,5000
26060.92704068745,-96740.89810143688,26384.33443121129,-187500.02235174447,-187500.02235174447,-187500.02235174447,-187500.02235174447,-187500.02235174447,1730655188.0882213,1730655186.9451983,5000
26032.54032522921,-96741.34513632598,26376.26545146292,-187500.02235174447,-187500.02235174447,-187500.02235174447,-187500.02235174447,-187500.02235174447,1730655188.092199,1730655186.9451983,5000
26043.269162567754,-96720.84858666046,26380.802855587342,-187500.02235174447,-187500.02235174447,-187500.02235174447,-187500.02235174447,-187500.02235174447,1730655188.096262,1730655186.9451983,5000
26052.79100570572,-96740.8310462035,26383.261547477432,-187500.02235174447,-187500.02235174447,-187500.02235174447,-187500.02235174447,-187500.02235174447,1730655188.1002517,1730655186.9451983,5000
26085.46925609937,-96738.70763048025,26379.08177126429,-187500.02235174447,-187500.02235174447,-187500.02235174447,-187500.02235174447,-187500.02235174447,1730655188.104189,1730655186.9451983,5000
26139.04638755875,-96731.46566527672,26371.1245502382,-187500.02235174447,-187500.02235174447,-187500.02235174447,-187500.02235174447,-187500.02235174447,1730655188.1082392,1730655186.9451983,5000
26089.090238701134,-96750.21877887474,26392.44811444856,-187500.02235174447,-187500.02235174447,-187500.02235174447,-187500.02235174447,-187500.02235174447,1730655188.113253,1730655186.9451983,5000
26032.87560139604,-96777.17498268784,26398.39367847368,-187500.02235174447,-187500.02235174447,-187500.02235174447,-187500.02235174447,-187500.02235174447,1730655188.1161892,1730655186.9451983,5000
26049.237078337323,-96780.77361354514,26396.203207517054,-187500.02235174447,-187500.02235174447,-187500.02235174447,-187500.02235174447,-187500.02235174447,1730655188.1202395,1730655186.9451983,5000
26083.12232293157,-96770.35770062896,26379.797027086857,-187500.02235174447,-187500.02235174447,-187500.02235174447,-187500.02235174447,-187500.02235174447,1730655188.1242087,1730655186.9451983,5000
26085.513959588287,-96763.65217729236,26370.45399790454,-187500.02235174447,-187500.02235174447,-187500.02235174447,-187500.02235174447,-187500.02235174447,1730655188.1281905,1730655186.9451983,5000
26045.638447480014,-96747.3801073289,26384.84852133376,-187500.02235174447,-187500.02235174447,-187500.02235174447,-187500.02235174447,-187500.02235174447,1730655188.1323175,1730655186.9451983,5000
26023.756089658276,-96772.63757856342,26398.88541685169,-187500.02235174447,-187500.02235174447,-187500.02235174447,-187500.02235174447,-187500.02235174447,1730655188.1362944,1730655186.9451983,5000
26054.646200495503,-96763.80863950356,26375.907823551635,-187500.02235174447,-187500.02235174447,-187500.02235174447,-187500.02235174447,-187500.02235174447,1730655188.1393335,1730655186.9451983,5000
26076.841482739623,-96766.4908488382,26388.55891091334,-187500.02235174447,-187500.02235174447,-187500.02235174447,-187500.02235174447,-187500.02235174447,1730655188.143211,1730655186.9451983,5000
26087.726782289363,-96783.25465717968,26380.69109686507,-187500.02235174447,-187500.02235174447,-187500.02235174447,-187500.02235174447,-187500.02235174447,1730655188.1473205,1730655186.9451983,5000
26083.032915953747,-96785.35572115848,26372.73387583898,-187500.02235174447,-187500.02235174447,-187500.02235174447,-187500.02235174447,-187500.02235174447,1730655188.1522691,1730655186.9451983,5000
26030.77453741724,-96784.97574150274,26380.26641372042,-187500.02235174447,-187500.02235174447,-187500.02235174447,-187500.02235174447,-187500.02235174447,1730655188.156453,1730655186.9451983,5000
26041.83865092261,-96752.85628472046,26391.576396414806,-187500.02235174447,-187500.02235174447,-187500.02235174447,-187500.02235174447,-187500.02235174447,1730655188.1602092,1730655186.9451983,5000
26071.2535466258,-96769.57538957304,26385.183797500587,-187500.02235174447,-187500.02235174447,-187500.02235174447,-187500.02235174447,-187500.02235174447,1730655188.1642869,1730655186.9451983,5000
26065.978534934347,-96770.55886632908,26375.907823551635,-187500.02235174447,-187500.02235174447,-187500.02235174447,-187500.02235174447,-187500.02235174447,1730655188.167414,1730655186.9451983,5000
26071.298250114716,-96761.4840580802,26398.505437195952,-187500.02235174447,-187500.02235174447,-187500.02235174447,-187500.02235174447,-187500.02235174447,1730655188.171308,1730655186.9451983,5000
26080.998907208315,-96784.1487269579,26399.26539650743,-187500.02235174447,-187500.02235174447,-187500.02235174447,-187500.02235174447,-187500.02235174447,1730655188.1762836,1730655186.9451983,5000
26076.34974436161,-96765.14974417088,26387.530730668397,-187500.02235174447,-187500.02235174447,-187500.02235174447,-187500.02235174447,-187500.02235174447,1730655188.1804223,1730655186.9451983,5000
26069.08542741364,-96762.8922179809,26388.156579513143,-187500.02235174447,-187500.02235174447,-187500.02235174447,-187500.02235174447,-187500.02235174447,1730655188.184304,1730655186.9451983,5000
26082.563529320185,-96766.69201453828,26390.21294000303,-187500.02235174447,-187500.02235174447,-187500.02235174447,-187500.02235174447,-187500.02235174447,1730655188.1884384,1730655186.9451983,5000
26058.87068019756,-96774.98451173122,26381.473407921007,-187500.02235174447,-187500.02235174447,-187500.02235174447,-187500.02235174447,-187500.02235174447,1730655188.192394,1730655186.9451983,5000
26058.62481100855,-96790.7424915722,26383.820341088813,-187500.02235174447,-187500.02235174447,-187500.02235174447,-187500.02235174447,-187500.02235174447,1730655188.1955,1730655186.9451983,5000
26088.3079276452,-96799.07969225405,26387.821303346314,-187500.02235174447,-187500.02235174447,-187500.02235174447,-187500.02235174447,-187500.02235174447,1730655188.1995468,1730655186.9451983,5000
26078.853139740604,-96806.56752664656,26409.61425419024,-187500.02235174447,-187500.02235174447,-187500.02235174447,-187500.02235174447,-187500.02235174447,1730655188.2034109,1730655186.9451983,5000
26072.68405827094,-96771.07295645152,26392.738687126483,-187500.02235174447,-187500.02235174447,-187500.02235174447,-187500.02235174447,-187500.02235174447,1730655188.2084367,1730655186.9451983,5000
26093.5605875922,-96749.50352305216,26374.253794461943,-187500.02235174447,-187500.02235174447,-187500.02235174447,-187500.02235174447,-187500.02235174447,1730655188.2125962,1730655186.9451983,5000
26074.338087360637,-96753.86211322097,26370.45399790454,-187500.02235174447,-187500.02235174447,-187500.02235174447,-187500.02235174447,-187500.02235174447,1730655188.216498,1730655186.9451983,5000
26071.611174537084,-96760.3888226019,26387.575434157305,-187500.02235174447,-187500.02235174447,-187500.02235174447,-187500.02235174447,-187500.02235174447,1730655188.2205155,1730655186.9451983,5000
26065.3526860896,-96744.92141543885,26387.195454501565,-187500.02235174447,-187500.02235174447,-187500.02235174447,-187500.02235174447,-187500.02235174447,1730655188.2235308,1730655186.9451983,5000
26081.69181128643,-96741.6357090039,26387.44132369057,-187500.02235174447,-187500.02235174447,-187500.02235174447,-187500.02235174447,-187500.02235174447,1730655188.2273383,1730655186.9451983,5000
26099.863779528598,-96767.20610466076,26406.70852741105,-187500.02235174447,-187500.02235174447,-187500.02235174447,-187500.02235174447,-187500.02235174447,1730655188.2314663,1730655186.9451983,5000
26088.196168922925,-96783.32171241305,26376.98070728549,-187500.02235174447,-187500.02235174447,-187500.02235174447,-187500.02235174447,-187500.02235174447,1730655188.2363937,1730655186.9451983,5000
26067.20788087939,-96795.9504480303,26363.010867000925,-187500.02235174447,-187500.02235174447,-187500.02235174447,-187500.02235174447,-187500.02235174447,1730655188.2404552,1730655186.9451983,5000
26036.138956086517,-96805.87462256844,26402.75226864246,-187500.02235174447,-187500.02235174447,-187500.02235174447,-187500.02235174447,-187500.02235174447,1730655188.2444785,1730655186.9451983,5000
26038.977627632332,-96806.85809932448,26404.78627738789,-187500.02235174447,-187500.02235174447,-187500.02235174447,-187500.02235174447,-187500.02235174447,1730655188.2475705,1730655186.9451983,5000
26056.12141562956,-96790.80954680555,26387.50837892394,-187500.02235174447,-187500.02235174447,-187500.02235174447,-187500.02235174447,-187500.02235174447,1730655188.2514558,1730655186.9451983,5000
26072.97463094886,-96795.9504480303,26382.16631199912,-187500.02235174447,-187500.02235174447,-187500.02235174447,-187500.02235174447,-187500.02235174447,1730655188.2556424,1730655186.9451983,5000
26089.090238701134,-96808.13214875844,26391.79991385936,-187500.02235174447,-187500.02235174447,-187500.02235174447,-187500.02235174447,-187500.02235174447,1730655188.259361,1730655186.9451983,5000
26093.046497469724,-96810.63554413745,26404.093373309777,-187500.02235174447,-187500.02235174447,-187500.02235174447,-187500.02235174447,-187500.02235174447,1730655188.2636669,1730655186.9451983,5000
26062.268145354767,-96804.10883475648,26387.17310275711,-187500.02235174447,-187500.02235174447,-187500.02235174447,-187500.02235174447,-187500.02235174447,1730655188.268427,1730655186.9451983,5000
26060.5023575428,-96792.70944508429,26381.272242220908,-187500.02235174447,-187500.02235174447,-187500.02235174447,-187500.02235174447,-187500.02235174447,1730655188.2725165,1730655186.9451983,5000
26088.06205845619,-96778.0467007216,26370.20812871553,-187500.02235174447,-187500.02235174447,-187500.02235174447,-187500.02235174447,-187500.02235174447,1730655188.2756548,1730655186.9451983,5000
26117.74517509284,-96800.46550041028,26380.55698639834,-187500.02235174447,-187500.02235174447,-187500.02235174447,-187500.02235174447,-187500.02235174447,1730655188.2795029,1730655186.9451983,5000
26085.245738654823,-96799.72789284324,26398.17016102912,-187500.02235174447,-187500.02235174447,-187500.02235174447,-187500.02235174447,-187500.02235174447,1730655188.2835493,1730655186.9451983,5000
26054.28857258422,-96805.74051210172,26383.574471899807,-187500.02235174447,-187500.02235174447,-187500.02235174447,-187500.02235174447,-187500.02235174447,1730655188.2875526,1730655186.9451983,5000
26078.808436251693,-96799.9514102878,26396.449076706063,-187500.02235174447,-187500.02235174447,-187500.02235174447,-187500.02235174447,-187500.02235174447,1730655188.291565,1730655186.9451983,5000
26097.38273589405,-96777.51025885469,26403.646338420676,-187500.02235174447,-187500.02235174447,-187500.02235174447,-187500.02235174447,-187500.02235174447,1730655188.296512,1730655186.9451983,5000
26072.03585768173,-96805.4499394238,26393.118666782226,-187500.02235174447,-187500.02235174447,-187500.02235174447,-187500.02235174447,-187500.02235174447,1730655188.3005772,1730655186.9451983,5000
26043.269162567754,-96801.96306728876,26386.03316378989,-187500.02235174447,-187500.02235174447,-187500.02235174447,-187500.02235174447,-187500.02235174447,1730655188.3035777,1730655186.9451983,5000
26057.12724413005,-96769.30716863956,26377.15952124113,-187500.02235174447,-187500.02235174447,-187500.02235174447,-187500.02235174447,-187500.02235174447,1730655188.307446,1730655186.9451983,5000
26072.862872226586,-96765.70853778228,26386.83782659028,-187500.02235174447,-187500.02235174447,-187500.02235174447,-187500.02235174447,-187500.02235174447,1730655188.3115747,1730655186.9451983,5000
26050.15349985999,-96758.95831095676,26389.207111502543,-187500.02235174447,-187500.02235174447,-187500.02235174447,-187500.02235174447,-187500.02235174447,1730655188.3157356,1730655186.9451983,5000
26077.91436647348,-96781.51122111216,26394.973861572013,-187500.02235174447,-187500.02235174447,-187500.02235174447,-187500.02235174447,-187500.02235174447,1730655188.3194804,1730655186.9451983,5000
26109.318567433187,-96799.01263702069,26387.55308241285,-187500.02235174447,-187500.02235174447,-187500.02235174447,-187500.02235174447,-187500.02235174447,1730655188.324605,1730655186.9451983,5000
26105.988157509342,-96773.73281404172,26387.3295649683,-187500.02235174447,-187500.02235174447,-187500.02235174447,-187500.02235174447,-187500.02235174447,1730655188.3275783,1730655186.9451983,5000
26103.194189452435,-96781.6453315789,26391.062306292333,-187500.02235174447,-187500.02235174447,-187500.02235174447,-187500.02235174447,-187500.02235174447,1730655188.3309774,1730655186.9451983,5000
26084.910462487995,-96771.25177040718,26387.75424811295,-187500.02235174447,-187500.02235174447,-187500.02235174447,-187500.02235174447,-187500.02235174447,1730655188.33553,1730655186.9451983,5000
26068.68309601344,-96766.60260756048,26386.54725391236,-187500.02235174447,-187500.02235174447,-187500.02235174447,-187500.02235174447,-187500.02235174447,1730655188.339726,1730655186.9451983,5000
26101.428401640464,-96798.05151200909,26385.809646345337,-187500.02235174447,-187500.02235174447,-187500.02235174447,-187500.02235174447,-187500.02235174447,1730655188.3435335,1730655186.9451983,5000
26081.758866519795,-96803.103006256,26392.246948748467,-187500.02235174447,-187500.02235174447,-187500.02235174447,-187500.02235174447,-187500.02235174447,1730655188.3478236,1730655186.9451983,5000
26022.124412313035,-96796.3974829194,26392.917501082124,-187500.02235174447,-187500.02235174447,-187500.02235174447,-187500.02235174447,-187500.02235174447,1730655188.352671,1730655186.9451983,5000
26050.53347951573,-96788.57437236005,26386.480198679,-187500.02235174447,-187500.02235174447,-187500.02235174447,-187500.02235174447,-187500.02235174447,1730655188.3557312,1730655186.9451983,5000
26076.23798563933,-96805.49464291272,26402.171123286626,-187500.02235174447,-187500.02235174447,-187500.02235174447,-187500.02235174447,-187500.02235174447,1730655188.3587515,1730655186.9451983,5000
26067.006715179294,-96796.71040734176,26403.42282097612,-187500.02235174447,-187500.02235174447,-187500.02235174447,-187500.02235174447,-187500.02235174447,1730655188.363614,1730655186.9451983,5000
26076.014468194782,-96805.06995976808,26392.20224525956,-187500.02235174447,-187500.02235174447,-187500.02235174447,-187500.02235174447,-187500.02235174447,1730655188.3676417,1730655186.9451983,5000
26098.47797137237,-96816.26818374016,26387.17310275711,-187500.02235174447,-187500.02235174447,-187500.02235174447,-187500.02235174447,-187500.02235174447,1730655188.3716583,1730655186.9451983,5000
26077.53438681774,-96819.9115180864,26373.829111317293,-187500.02235174447,-187500.02235174447,-187500.02235174447,-187500.02235174447,-187500.02235174447,1730655188.3756423,1730655186.9451983,5000
26099.37204115058,-96794.98932301872,26368.867024048213,-187500.02235174447,-187500.02235174447,-187500.02235174447,-187500.02235174447,-187500.02235174447,1730655188.380703,1730655186.9451983,5000
26101.45075338492,-96796.10691024148,26402.75226864246,-187500.02235174447,-187500.02235174447,-187500.02235174447,-187500.02235174447,-187500.02235174447,1730655188.3837278,1730655186.9451983,5000
26050.77934870474,-96812.08840752704,26413.771678658926,-187500.02235174447,-187500.02235174447,-187500.02235174447,-187500.02235174447,-187500.02235174447,1730655188.3867548,1730655186.9451983,5000
26053.238040594824,-96829.12043680195,26393.07396329331,-187500.02235174447,-187500.02235174447,-187500.02235174447,-187500.02235174447,-187500.02235174447,1730655188.3918085,1730655186.9451983,5000
26083.614061309585,-96839.58105320705,26377.4277421746,-187500.02235174447,-187500.02235174447,-187500.02235174447,-187500.02235174447,-187500.02235174447,1730655188.3957827,1730655186.9451983,5000
26072.572299548665,-96824.0465908106,26377.293631707864,-187500.02235174447,-187500.02235174447,-187500.02235174447,-187500.02235174447,-187500.02235174447,1730655188.399829,1730655186.9451983,5000
26066.582032034643,-96803.43828242282,26386.815474845826,-187500.02235174447,-187500.02235174447,-187500.02235174447,-187500.02235174447,-187500.02235174447,1730655188.4037547,1730655186.9451983,5000
26104.13296271956,-96841.97268986376,26409.61425419024,-187500.02235174447,-187500.02235174447,-187500.02235174447,-187500.02235174447,-187500.02235174447,1730655188.4078324,1730655186.9451983,5000
26086.743305533328,-96843.26909104218,26390.704678381047,-187500.02235174447,-187500.02235174447,-187500.02235174447,-187500.02235174447,-187500.02235174447,1730655188.4117937,1730655186.9451983,5000
26079.43428509644,-96830.23802402471,26385.0273352894,-187500.02235174447,-187500.02235174447,-187500.02235174447,-187500.02235174447,-187500.02235174447,1730655188.4147148,1730655186.9451983,5000
26101.294291173734,-96848.0076608667,26376.488968907477,-187500.02235174447,-187500.02235174447,-187500.02235174447,-187500.02235174447,-187500.02235174447,1730655188.4197905,1730655186.9451983,5000
26100.668442328984,-96844.4537334983,26381.763980598927,-187500.02235174447,-187500.02235174447,-187500.02235174447,-187500.02235174447,-187500.02235174447,1730655188.4237833,1730655186.9451983,5000
26076.3050408727,-96806.00873303518,26387.50837892394,-187500.02235174447,-187500.02235174447,-187500.02235174447,-187500.02235174447,-187500.02235174447,1730655188.4278052,1730655186.9451983,5000
26043.783252690228,-96790.2507531942,26389.274166735908,-187500.02235174447,-187500.02235174447,-187500.02235174447,-187500.02235174447,-187500.02235174447,1730655188.4318233,1730655186.9451983,5000
26076.640317039528,-96807.68511386932,26383.3286027108,-187500.02235174447,-187500.02235174447,-187500.02235174447,-187500.02235174447,-187500.02235174447,1730655188.4346857,1730655186.9451983,5000
26088.576148578664,-96817.07284654056,26402.70756515355,-187500.02235174447,-187500.02235174447,-187500.02235174447,-187500.02235174447,-187500.02235174447,1730655188.4388368,1730655186.9451983,5000
26079.121360674068,-96808.13214875844,26397.41020171764,-187500.02235174447,-187500.02235174447,-187500.02235174447,-187500.02235174447,-187500.02235174447,1730655188.4426377,1730655186.9451983,5000
26082.407067109,-96809.16032900338,26390.727030125505,-187500.02235174447,-187500.02235174447,-187500.02235174447,-187500.02235174447,-187500.02235174447,1730655188.4478664,1730655186.9451983,5000
26090.58780557964,-96806.61223013548,26400.94177734158,-187500.02235174447,-187500.02235174447,-187500.02235174447,-187500.02235174447,-187500.02235174447,1730655188.4517071,1730655186.9451983,5000
26096.287500415743,-96838.105838073,26384.02150678891,-187500.02235174447,-187500.02235174447,-187500.02235174447,-187500.02235174447,-187500.02235174447,1730655188.4563448,1730655186.9451983,5000
26091.884206758048,-96833.09904731502,26381.56281489883,-187500.02235174447,-187500.02235174447,-187500.02235174447,-187500.02235174447,-187500.02235174447,1730655188.4596927,1730655186.9451983,5000
26052.25456383879,-96805.38288419045,26399.62302441872,-187500.02235174447,-187500.02235174447,-187500.02235174447,-187500.02235174447,-187500.02235174447,1730655188.4629557,1730655186.9451983,5000
26057.12724413005,-96827.33229724556,26397.83488486229,-187500.02235174447,-187500.02235174447,-187500.02235174447,-187500.02235174447,-187500.02235174447,1730655188.4671905,1730655186.9451983,5000
26085.335145632645,-96818.34689597452,26390.682326636597,-187500.02235174447,-187500.02235174447,-187500.02235174447,-187500.02235174447,-187500.02235174447,1730655188.471249,1730655186.9451983,5000
26085.58101482165,-96772.5481715856,26396.1808557726,-187500.02235174447,-187500.02235174447,-187500.02235174447,-187500.02235174447,-187500.02235174447,1730655188.4760883,1730655186.9451983,5000
26089.47021835688,-96795.77163407466,26393.38688771569,-187500.02235174447,-187500.02235174447,-187500.02235174447,-187500.02235174447,-187500.02235174447,1730655188.4797325,1730655186.9451983,5000
26086.005697966302,-96836.60827119448,26389.56473941383,-187500.02235174447,-187500.02235174447,-187500.02235174447,-187500.02235174447,-187500.02235174447,1730655188.4868276,1730655186.9451983,5000
26069.44305532492,-96848.8123236671,26386.860178334737,-187500.02235174447,-187500.02235174447,-187500.02235174447,-187500.02235174447,-187500.02235174447,1730655188.4898396,1730655186.9451983,5000
26069.644221025017,-96851.31571904608,26385.362611456232,-187500.02235174447,-187500.02235174447,-187500.02235174447,-187500.02235174447,-187500.02235174447,1730655188.4927285,1730655186.9451983,5000
26087.659727055998,-96848.2535300557,26394.70564063855,-187500.02235174447,-187500.02235174447,-187500.02235174447,-187500.02235174447,-187500.02235174447,1730655188.495852,1730655186.9451983,5000
26078.92019497397,-96838.88814912894,26402.238178519987,-187500.02235174447,-187500.02235174447,-187500.02235174447,-187500.02235174447,-187500.02235174447,1730655188.4999871,1730655186.9451983,5000
26085.58101482165,-96827.1534832899,26388.64831789116,-187500.02235174447,-187500.02235174447,-187500.02235174447,-187500.02235174447,-187500.02235174447,1730655188.5027685,1730655186.9451983,5000
26115.4652971584,-96815.28470698414,26365.13428272418,-187500.02235174447,-187500.02235174447,-187500.02235174447,-187500.02235174447,-187500.02235174447,1730655188.507923,1730655186.9451983,5000
26101.60721559611,-96813.34010521651,26374.74553283996,-187500.02235174447,-187500.02235174447,-187500.02235174447,-187500.02235174447,-187500.02235174447,1730655188.5120013,1730655186.9451983,5000
26070.35947684759,-96805.49464291272,26389.631794647197,-187500.02235174447,-187500.02235174447,-187500.02235174447,-187500.02235174447,-187500.02235174447,1730655188.5159888,1730655186.9451983,5000
26090.43134336845,-96842.59853870852,26389.54238766937,-187500.02235174447,-187500.02235174447,-187500.02235174447,-187500.02235174447,-187500.02235174447,1730655188.5188324,1730655186.9451983,5000
26110.279692444765,-96843.04557359764,26375.46078866253,-187500.02235174447,-187500.02235174447,-187500.02235174447,-187500.02235174447,-187500.02235174447,1730655188.5230515,1730655186.9451983,5000
26117.00756752581,-96831.08739031405,26376.01958227391,-187500.02235174447,-187500.02235174447,-187500.02235174447,-187500.02235174447,-187500.02235174447,1730655188.5268028,1730655186.9451983,5000
26109.251512199826,-96816.98343956274,26388.581262657797,-187500.02235174447,-187500.02235174447,-187500.02235174447,-187500.02235174447,-187500.02235174447,1730655188.5309305,1730655186.9451983,5000
26072.08056117065,-96822.37020997646,26401.992309330977,-187500.02235174447,-187500.02235174447,-187500.02235174447,-187500.02235174447,-187500.02235174447,1730655188.5370135,1730655186.9451983,5000
26048.365360303567,-96815.53057617314,26393.74451562697,-187500.02235174447,-187500.02235174447,-187500.02235174447,-187500.02235174447,-187500.02235174447,1730655188.5399885,1730655186.9451983,5000
26064.34685758911,-96792.75414857318,26386.65901263464,-187500.02235174447,-187500.02235174447,-187500.02235174447,-187500.02235174447,-187500.02235174447,1730655188.54283,1730655186.9451983,5000
26088.576148578664,-96797.22449746424,26395.59971041676,-187500.02235174447,-187500.02235174447,-187500.02235174447,-187500.02235174447,-187500.02235174447,1730655188.5480328,1730655186.9451983,5000
26105.92110227598,-96799.41496842088,26392.55987317084,-187500.02235174447,-187500.02235174447,-187500.02235174447,-187500.02235174447,-187500.02235174447,1730655188.5510008,1730655186.9451983,5000
26105.96580576489,-96819.88916634192,26389.43062894709,-187500.02235174447,-187500.02235174447,-187500.02235174447,-187500.02235174447,-187500.02235174447,1730655188.554824,1730655186.9451983,5000
26062.98340117734,-96850.1087248455,26393.09631503777,-187500.02235174447,-187500.02235174447,-187500.02235174447,-187500.02235174447,-187500.02235174447,1730655188.5589416,1730655186.9451983,5000
26072.99698269332,-96840.87745438548,26395.73382088349,-187500.02235174447,-187500.02235174447,-187500.02235174447,-187500.02235174447,-187500.02235174447,1730655188.563995,1730655186.9451983,5000
26091.794799780226,-96835.04364908264,26379.662916620127,-187500.02235174447,-187500.02235174447,-187500.02235174447,-187500.02235174447,-187500.02235174447,1730655188.5678165,1730655186.9451983,5000
26082.272956642268,-96849.52757948966,26365.24604144645,-187500.02235174447,-187500.02235174447,-187500.02235174447,-187500.02235174447,-187500.02235174447,1730655188.5710535,1730655186.9451983,5000
26090.23017766836,-96833.14375080392,26382.680402121598,-187500.02235174447,-187500.02235174447,-187500.02235174447,-187500.02235174447,-187500.02235174447,1730655188.575115,1730655186.9451983,5000
26086.184511921947,-96832.09321881452,26399.064230807333,-187500.02235174447,-187500.02235174447,-187500.02235174447,-187500.02235174447,-187500.02235174447,1730655188.5791,1730655186.9451983,5000
26078.093180429125,-96851.606291724,26386.994288801467,-187500.02235174447,-187500.02235174447,-187500.02235174447,-187500.02235174447,-187500.02235174447,1730655188.5832508,1730655186.9451983,5000
26073.3546106046,-96851.06984985709,26373.49383515046,-187500.02235174447,-187500.02235174447,-187500.02235174447,-187500.02235174447,-187500.02235174447,1730655188.58715,1730655186.9451983,5000
26061.597593021103,-96831.13209380295,26376.712486352026,-187500.02235174447,-187500.02235174447,-187500.02235174447,-187500.02235174447,-187500.02235174447,1730655188.5911713,1730655186.9451983,5000
26070.292421614224,-96846.9124253884,26394.146847027165,-187500.02235174447,-187500.02235174447,-187500.02235174447,-187500.02235174447,-187500.02235174447,1730655188.5961504,1730655186.9451983,5000
26089.82784626816,-96852.79093418014,26393.90097783816,-187500.02235174447,-187500.02235174447,-187500.02235174447,-187500.02235174447,-187500.02235174447,1730655188.5991492,1730655186.9451983,5000
26088.151465434014,-96808.355666203,26377.13716949668,-187500.02235174447,-187500.02235174447,-187500.02235174447,-187500.02235174447,-187500.02235174447,1730655188.603102,1730655186.9451983,5000
26055.473215040354,-96768.32369188352,26378.590032886277,-187500.02235174447,-187500.02235174447,-187500.02235174447,-187500.02235174447,-187500.02235174447,1730655188.6071532,1730655186.9451983,5000
26092.33124164716,-96765.64148254888,26389.452980691556,-187500.02235174447,-187500.02235174447,-187500.02235174447,-187500.02235174447,-187500.02235174447,1730655188.61112,1730655186.9451983,5000
26104.89292203104,-96774.67158730884,26398.907768596146,-187500.02235174447,-187500.02235174447,-187500.02235174447,-187500.02235174447,-187500.02235174447,1730655188.6150591,1730655186.9451983,5000
26081.982383964347,-96807.9533348028,26391.576396414806,-187500.02235174447,-187500.02235174447,-187500.02235174447,-187500.02235174447,-187500.02235174447,1730655188.6201105,1730655186.9451983,5000
26107.48572438785,-96779.7454333002,26376.01958227391,-187500.02235174447,-187500.02235174447,-187500.02235174447,-187500.02235174447,-187500.02235174447,1730655188.6230664,1730655186.9451983,5000
26093.5605875922,-96811.7531313602,26386.54725391236,-187500.02235174447,-187500.02235174447,-187500.02235174447,-187500.02235174447,-187500.02235174447,1730655188.6259472,1730655186.9451983,5000
26079.59074730763,-96820.09033204202,26385.51907366742,-187500.02235174447,-187500.02235174447,-187500.02235174447,-187500.02235174447,-187500.02235174447,1730655188.6311693,1730655186.9451983,5000
26110.81613431169,-96798.56560213157,26369.917556037613,-187500.02235174447,-187500.02235174447,-187500.02235174447,-187500.02235174447,-187500.02235174447,1730655188.634917,1730655186.9451983,5000
26095.86281727109,-96798.05151200909,26385.362611456232,-187500.02235174447,-187500.02235174447,-187500.02235174447,-187500.02235174447,-187500.02235174447,1730655188.6392007,1730655186.9451983,5000
26092.39829688052,-96832.4061432369,26397.81253311784,-187500.02235174447,-187500.02235174447,-187500.02235174447,-187500.02235174447,-187500.02235174447,1730655188.643006,1730655186.9451983,5000
26079.657802540994,-96802.67832311134,26390.324698725308,-187500.02235174447,-187500.02235174447,-187500.02235174447,-187500.02235174447,-187500.02235174447,1730655188.6492083,1730655186.9451983,5000
26067.16317739048,-96818.97274481926,26409.74836465697,-187500.02235174447,-187500.02235174447,-187500.02235174447,-187500.02235174447,-187500.02235174447,1730655188.6520474,1730655186.9451983,5000
26058.334238330637,-96798.27502945364,26386.25668123444,-187500.02235174447,-187500.02235174447,-187500.02235174447,-187500.02235174447,-187500.02235174447,1730655188.6550803,1730655186.9451983,5000
26083.524654331763,-96792.7988520621,26376.55602414084,-187500.02235174447,-187500.02235174447,-187500.02235174447,-187500.02235174447,-187500.02235174447,1730655188.65909,1730655186.9451983,5000
26091.951261991413,-96808.46742492529,26386.32373646781,-187500.02235174447,-187500.02235174447,-187500.02235174447,-187500.02235174447,-187500.02235174447,1730655188.6631613,1730655186.9451983,5000
26089.73843929034,-96803.57239288956,26380.109951509232,-187500.02235174447,-187500.02235174447,-187500.02235174447,-187500.02235174447,-187500.02235174447,1730655188.6672163,1730655186.9451983,5000
26119.64507337154,-96794.5422881296,26381.585166643283,-187500.02235174447,-187500.02235174447,-187500.02235174447,-187500.02235174447,-187500.02235174447,1730655188.6712236,1730655186.9451983,5000
26118.303968704226,-96809.51795691469,26393.118666782226,-187500.02235174447,-187500.02235174447,-187500.02235174447,-187500.02235174447,-187500.02235174447,1730655188.6751893,1730655186.9451983,5000
26078.517863573776,-96803.93002080084,26394.057440049342,-187500.02235174447,-187500.02235174447,-187500.02235174447,-187500.02235174447,-187500.02235174447,1730655188.6792245,1730655186.9451983,5000
26055.96495341837,-96802.09717775552,26388.60361440225,-187500.02235174447,-187500.02235174447,-187500.02235174447,-187500.02235174447,-187500.02235174447,1730655188.6821887,1730655186.9451983,5000
26087.726782289363,-96816.357590718,26383.529768410892,-187500.02235174447,-187500.02235174447,-187500.02235174447,-187500.02235174447,-187500.02235174447,1730655188.6860926,1730655186.9451983,5000
26096.39925913802,-96871.47699254478,26378.724143353003,-187500.02235174447,-187500.02235174447,-187500.02235174447,-187500.02235174447,-187500.02235174447,1730655188.6913185,1730655186.9451983,5000
26083.36819212057,-96851.5168847462,26394.03508830489,-187500.02235174447,-187500.02235174447,-187500.02235174447,-187500.02235174447,-187500.02235174447,1730655188.6952243,1730655186.9451983,5000
26068.68309601344,-96819.08450354154,26400.718259897025,-187500.02235174447,-187500.02235174447,-187500.02235174447,-187500.02235174447,-187500.02235174447,1730655188.6992862,1730655186.9451983,5000
26080.551872319207,-96812.87071858296,26392.246948748467,-187500.02235174447,-187500.02235174447,-187500.02235174447,-187500.02235174447,-187500.02235174447,1730655188.7032332,1730655186.9451983,5000
26065.531500045243,-96791.18952646133,26380.22171023151,-187500.02235174447,-187500.02235174447,-187500.02235174447,-187500.02235174447,-187500.02235174447,1730655188.7061813,1730655186.9451983,5000
26068.03489542424,-96801.35957018848,26388.29068997988,-187500.02235174447,-187500.02235174447,-187500.02235174447,-187500.02235174447,-187500.02235174447,1730655188.710053,1730655186.9451983,5000
26091.92891024696,-96808.6462388809,26373.762056083928,-187500.02235174447,-187500.02235174447,-187500.02235174447,-187500.02235174447,-187500.02235174447,1730655188.7141967,1730655186.9451983,5000
26102.6130440966,-96835.28951827165,26375.952527040547,-187500.02235174447,-187500.02235174447,-187500.02235174447,-187500.02235174447,-187500.02235174447,1730655188.7191772,1730655186.9451983,5000
26091.30306140221,-96834.75307640473,26404.518056454428,-187500.02235174447,-187500.02235174447,-187500.02235174447,-187500.02235174447,-187500.02235174447,1730655188.7231767,1730655186.9451983,5000
26091.16895093548,-96813.60832615,26376.01958227391,-187500.02235174447,-187500.02235174447,-187500.02235174447,-187500.02235174447,-187500.02235174447,1730655188.727171,1730655186.9451983,5000
26109.65384360002,-96817.83280585204,26380.73580035398,-187500.02235174447,-187500.02235174447,-187500.02235174447,-187500.02235174447,-187500.02235174447,1730655188.730326,1730655186.9451983,5000
26082.608232809096,-96810.4567301818,26416.185667060097,-187500.02235174447,-187500.02235174447,-187500.02235174447,-187500.02235174447,-187500.02235174447,1730655188.7342663,1730655186.9451983,5000
26078.76373276278,-96806.00873303518,26404.383945987694,-187500.02235174447,-187500.02235174447,-187500.02235174447,-187500.02235174447,-187500.02235174447,1730655188.7382,1730655186.9451983,5000
26112.157238979013,-96812.1554627604,26385.13909401168,-187500.02235174447,-187500.02235174447,-187500.02235174447,-187500.02235174447,-187500.02235174447,1730655188.7423472,1730655186.9451983,5000
26096.756887049305,-96788.10498572647,26381.495759665464,-187500.02235174447,-187500.02235174447,-187500.02235174447,-187500.02235174447,-187500.02235174447,1730655188.7463903,1730655186.9451983,5000
26070.91827045897,-96797.00098001969,26398.684251151597,-187500.02235174447,-187500.02235174447,-187500.02235174447,-187500.02235174447,-187500.02235174447,1730655188.7511292,1730655186.9451983,5000
26065.978534934347,-96812.82601509403,26398.2819197514,-187500.02235174447,-187500.02235174447,-187500.02235174447,-187500.02235174447,-187500.02235174447,1730655188.755322,1730655186.9451983,5000
26100.489628373343,-96817.34106747402,26380.087599764774,-187500.02235174447,-187500.02235174447,-187500.02235174447,-187500.02235174447,-187500.02235174447,1730655188.7583644,1730655186.9451983,5000
26131.02211129929,-96800.30903819908,26381.674573621105,-187500.02235174447,-187500.02235174447,-187500.02235174447,-187500.02235174447,-187500.02235174447,1730655188.7622316,1730655186.9451983,5000
26122.34963445063,-96794.20701196278,26371.03514326038,-187500.02235174447,-187500.02235174447,-187500.02235174447,-187500.02235174447,-187500.02235174447,1730655188.7663162,1730655186.9451983,5000
26109.38562266656,-96786.96504675926,26381.11578000972,-187500.02235174447,-187500.02235174447,-187500.02235174447,-187500.02235174447,-187500.02235174447,1730655188.7703505,1730655186.9451983,5000
26060.03297090924,-96807.90863131388,26398.259568006943,-187500.02235174447,-187500.02235174447,-187500.02235174447,-187500.02235174447,-187500.02235174447,1730655188.774263,1730655186.9451983,5000
26063.34102908862,-96813.54127091664,26382.59099514377,-187500.02235174447,-187500.02235174447,-187500.02235174447,-187500.02235174447,-187500.02235174447,1730655188.7793827,1730655186.9451983,5000
26101.20488419591,-96781.51122111216,26378.232404974988,-187500.02235174447,-187500.02235174447,-187500.02235174447,-187500.02235174447,-187500.02235174447,1730655188.7834358,1730655186.9451983,5000
26108.46920114389,-96773.10696519696,26386.25668123444,-187500.02235174447,-187500.02235174447,-187500.02235174447,-187500.02235174447,-187500.02235174447,1730655188.786341,1730655186.9451983,5000
26057.57427901915,-96778.78430828862,26377.40539043014,-187500.02235174447,-187500.02235174447,-187500.02235174447,-187500.02235174447,-187500.02235174447,1730655188.7905164,1730655186.9451983,5000
26042.88918291201,-96792.0388927506,26379.55115789785,-187500.02235174447,-187500.02235174447,-187500.02235174447,-187500.02235174447,-187500.02235174447,1730655188.7944112,1730655186.9451983,5000
26093.11355270309,-96806.92515455784,26378.232404974988,-187500.02235174447,-187500.02235174447,-187500.02235174447,-187500.02235174447,-187500.02235174447,1730655188.7985573,1730655186.9451983,5000
26115.17472448048,-96860.45758252832,26389.83296034729,-187500.02235174447,-187500.02235174447,-187500.02235174447,-187500.02235174447,-187500.02235174447,1730655188.802226,1730655186.9451983,5000
26100.1096487176,-96859.92114066138,26389.69884988056,-187500.02235174447,-187500.02235174447,-187500.02235174447,-187500.02235174447,-187500.02235174447,1730655188.8073976,1730655186.9451983,5000
26104.26707318629,-96827.26524201216,26403.154600042653,-187500.02235174447,-187500.02235174447,-187500.02235174447,-187500.02235174447,-187500.02235174447,1730655188.8114774,1730655186.9451983,5000
26090.811323024194,-96825.58886117802,26404.47335296552,-187500.02235174447,-187500.02235174447,-187500.02235174447,-187500.02235174447,-187500.02235174447,1730655188.8144107,1730655186.9451983,5000
26068.593689035617,-96847.02418411068,26383.015678288422,-187500.02235174447,-187500.02235174447,-187500.02235174447,-187500.02235174447,-187500.02235174447,1730655188.818222,1730655186.9451983,5000
26093.27001491428,-96861.2175418398,26369.31405893732,-187500.02235174447,-187500.02235174447,-187500.02235174447,-187500.02235174447,-187500.02235174447,1730655188.8224308,1730655186.9451983,5000
26101.87543652957,-96839.75986716268,26379.88643406468,-187500.02235174447,-187500.02235174447,-187500.02235174447,-187500.02235174447,-187500.02235174447,1730655188.8262603,1730655186.9451983,5000
26085.804532266204,-96818.5033581857,26385.563777156327,-187500.02235174447,-187500.02235174447,-187500.02235174447,-187500.02235174447,-187500.02235174447,1730655188.8306296,1730655186.9451983,5000
26098.947358005928,-96808.89210806992,26377.74066659697,-187500.02235174447,-187500.02235174447,-187500.02235174447,-187500.02235174447,-187500.02235174447,1730655188.8352494,1730655186.9451983,5000
26093.985270736848,-96830.08156181355,26386.480198679,-187500.02235174447,-187500.02235174447,-187500.02235174447,-187500.02235174447,-187500.02235174447,1730655188.8384962,1730655186.9451983,5000
26097.65095682752,-96806.58987839102,26419.89605663968,-187500.02235174447,-187500.02235174447,-187500.02235174447,-187500.02235174447,-187500.02235174447,1730655188.841716,1730655186.9451983,5000
26071.16413964798,-96787.81441304856,26387.15075101265,-187500.02235174447,-187500.02235174447,-187500.02235174447,-187500.02235174447,-187500.02235174447,1730655188.8466356,1730655186.9451983,5000
26076.573261806163,-96811.86489008248,26383.261547477432,-187500.02235174447,-187500.02235174447,-187500.02235174447,-187500.02235174447,-187500.02235174447,1730655188.8505738,1730655186.9451983,5000
26085.22338691037,-96822.54902393212,26382.03220153239,-187500.02235174447,-187500.02235174447,-187500.02235174447,-187500.02235174447,-187500.02235174447,1730655188.8543525,1730655186.9451983,5000
26108.73742207735,-96800.68901785482,26380.668745120616,-187500.02235174447,-187500.02235174447,-187500.02235174447,-187500.02235174447,-187500.02235174447,1730655188.8585112,1730655186.9451983,5000
26122.66255887301,-96770.89414249588,26389.005945802444,-187500.02235174447,-187500.02235174447,-187500.02235174447,-187500.02235174447,-187500.02235174447,1730655188.8635502,1730655186.9451983,5000
26080.21659615238,-96810.63554413745,26392.246948748467,-187500.02235174447,-187500.02235174447,-187500.02235174447,-187500.02235174447,-187500.02235174447,1730655188.8665051,1730655186.9451983,5000
26075.74624726132,-96836.63062293896,26389.65414639165,-187500.02235174447,-187500.02235174447,-187500.02235174447,-187500.02235174447,-187500.02235174447,1730655188.869649,1730655186.9451983,5000
26100.53433186225,-96811.64137263793,26383.61917538872,-187500.02235174447,-187500.02235174447,-187500.02235174447,-187500.02235174447,-187500.02235174447,1730655188.8744347,1730655186.9451983,5000
26077.690849028928,-96813.02718079416,26387.038992290378,-187500.02235174447,-187500.02235174447,-187500.02235174447,-187500.02235174447,-187500.02235174447,1730655188.878585,1730655186.9451983,5000
26070.940622203427,-96821.67730589837,26389.452980691556,-187500.02235174447,-187500.02235174447,-187500.02235174447,-187500.02235174447,-187500.02235174447,1730655188.8825376,1730655186.9451983,5000
26079.43428509644,-96826.9523175898,26374.41025667313,-187500.02235174447,-187500.02235174447,-187500.02235174447,-187500.02235174447,-187500.02235174447,1730655188.886457,1730655186.9451983,5000
26121.902599561527,-96803.9970760342,26378.142997997165,-187500.02235174447,-187500.02235174447,-187500.02235174447,-187500.02235174447,-187500.02235174447,1730655188.8905575,1730655186.9451983,5000
26127.803460097726,-96791.59185786152,26392.04578304837,-187500.02235174447,-187500.02235174447,-187500.02235174447,-187500.02235174447,-187500.02235174447,1730655188.894478,1730655186.9451983,5000
26096.73453530485,-96818.32454423004,26384.915576567124,-187500.02235174447,-187500.02235174447,-187500.02235174447,-187500.02235174447,-187500.02235174447,1730655188.898553,1730655186.9451983,5000
26112.1125354901,-96843.64907069792,26379.774675342403,-187500.02235174447,-187500.02235174447,-187500.02235174447,-187500.02235174447,-187500.02235174447,1730655188.9024017,1730655186.9451983,5000
26107.888055788047,-96852.32154754658,26396.98551857299,-187500.02235174447,-187500.02235174447,-187500.02235174447,-187500.02235174447,-187500.02235174447,1730655188.9065523,1730655186.9451983,5000
26071.27589837025,-96854.42261152536,26398.438381962584,-187500.02235174447,-187500.02235174447,-187500.02235174447,-187500.02235174447,-187500.02235174447,1730655188.910647,1730655186.9451983,5000
26080.954203719404,-96814.5470994171,26377.986535785974,-187500.02235174447,-187500.02235174447,-187500.02235174447,-187500.02235174447,-187500.02235174447,1730655188.914574,1730655186.9451983,5000
26101.07077372918,-96819.08450354154,26385.65318413415,-187500.02235174447,-187500.02235174447,-187500.02235174447,-187500.02235174447,-187500.02235174447,1730655188.9195237,1730655186.9451983,5000
26070.068904169668,-96813.8988988279,26391.53169292589,-187500.02235174447,-187500.02235174447,-187500.02235174447,-187500.02235174447,-187500.02235174447,1730655188.9226089,1730655186.9451983,5000
26067.0514186682,-96796.55394513058,26395.48795169449,-187500.02235174447,-187500.02235174447,-187500.02235174447,-187500.02235174447,-187500.02235174447,1730655188.92566,1730655186.9451983,5000
26074.583956549643,-96783.7463955577,26391.777562114905,-187500.02235174447,-187500.02235174447,-187500.02235174447,-187500.02235174447,-187500.02235174447,1730655188.9306135,1730655186.9451983,5000
26076.014468194782,-96802.03012252212,26383.753285855448,-187500.02235174447,-187500.02235174447,-187500.02235174447,-187500.02235174447,-187500.02235174447,1730655188.9343815,1730655186.9451983,5000
26079.68015428545,-96811.596669149,26387.217806246023,-187500.02235174447,-187500.02235174447,-187500.02235174447,-187500.02235174447,-187500.02235174447,1730655188.9386728,1730655186.9451983,5000
26085.670421799477,-96813.27304998317,26385.161445756134,-187500.02235174447,-187500.02235174447,-187500.02235174447,-187500.02235174447,-187500.02235174447,1730655188.9424884,1730655186.9451983,5000
26098.612081839092,-96823.33133498803,26384.870873078213,-187500.02235174447,-187500.02235174447,-187500.02235174447,-187500.02235174447,-187500.02235174447,1730655188.9455073,1730655186.9451983,5000
26106.97163426538,-96814.27887848364,26375.88547180718,-187500.02235174447,-187500.02235174447,-187500.02235174447,-187500.02235174447,-187500.02235174447,1730655188.9496603,1730655186.9451983,5000
26095.72870680436,-96820.6044221645,26380.55698639834,-187500.02235174447,-187500.02235174447,-187500.02235174447,-187500.02235174447,-187500.02235174447,1730655188.9558308,1730655186.9451983,5000
26087.68207880045,-96848.03001261115,26384.356782955743,-187500.02235174447,-187500.02235174447,-187500.02235174447,-187500.02235174447,-187500.02235174447,1730655188.958745,1730655186.9451983,5000
26068.39252333552,-96830.9085763584,26351.387959884163,-187500.02235174447,-187500.02235174447,-187500.02235174447,-187500.02235174447,-187500.02235174447,1730655188.9627562,1730655186.9451983,5000
26083.09997118711,-96874.80740246862,26362.40736990063,-187500.02235174447,-187500.02235174447,-187500.02235174447,-187500.02235174447,-187500.02235174447,1730655188.966699,1730655186.9451983,5000
26109.944416277936,-96841.4138962524,26370.543404882363,-187500.02235174447,-187500.02235174447,-187500.02235174447,-187500.02235174447,-187500.02235174447,1730655188.9706929,1730655186.9451983,5000
26119.08627976016,-96827.06407631208,26401.053536063857,-187500.02235174447,-187500.02235174447,-187500.02235174447,-187500.02235174447,-187500.02235174447,1730655188.973616,1730655186.9451983,5000
26089.581977079157,-96831.13209380295,26420.521905484427,-187500.02235174447,-187500.02235174447,-187500.02235174447,-187500.02235174447,-187500.02235174447,1730655188.9777129,1730655186.9451983,5000
26079.97072696337,-96835.69184967184,26401.835847119797,-187500.02235174447,-187500.02235174447,-187500.02235174447,-187500.02235174447,-187500.02235174447,1730655188.9816823,1730655186.9451983,5000
26099.036764983743,-96828.4051809794,26361.558003611328,-187500.02235174447,-187500.02235174447,-187500.02235174447,-187500.02235174447,-187500.02235174447,1730655188.9855523,1730655186.9451983,5000
26112.470163401387,-96842.59853870852,26335.674683532085,-187500.02235174447,-187500.02235174447,-187500.02235174447,-187500.02235174447,-187500.02235174447,1730655188.990693,1730655186.9451983,5000
26138.532297436275,-96837.41293399488,26369.515224637416,-187500.02235174447,-187500.02235174447,-187500.02235174447,-187500.02235174447,-187500.02235174447,1730655188.994608,1730655186.9451983,5000
26109.74325057784,-96824.18070127736,26406.306196010853,-187500.02235174447,-187500.02235174447,-187500.02235174447,-187500.02235174447,-187500.02235174447,1730655188.998669,1730655186.9451983,5000
26073.712238515884,-96854.7578876922,26402.84167562028,-187500.02235174447,-187500.02235174447,-187500.02235174447,-187500.02235174447,-187500.02235174447,1730655189.0015366,1730655186.9451983,5000
26089.06788695668,-96840.87745438548,26383.28389922189,-187500.02235174447,-187500.02235174447,-187500.02235174447,-187500.02235174447,-187500.02235174447,1730655189.00562,1730655186.9451983,5000
26081.334183375144,-96831.78029439216,26388.156579513143,-187500.02235174447,-187500.02235174447,-187500.02235174447,-187500.02235174447,-187500.02235174447,1730655189.0096033,1730655186.9451983,5000
26093.58293933665,-96841.7044689303,26392.44811444856,-187500.02235174447,-187500.02235174447,-187500.02235174447,-187500.02235174447,-187500.02235174447,1730655189.013682,1730655186.9451983,5000
26085.26809039928,-96813.38480870544,26383.23919573297,-187500.02235174447,-187500.02235174447,-187500.02235174447,-187500.02235174447,-187500.02235174447,1730655189.0185478,1730655186.9451983,5000
26074.718067016373,-96811.46255868228,26380.48993116497,-187500.02235174447,-187500.02235174447,-187500.02235174447,-187500.02235174447,-187500.02235174447,1730655189.0227697,1730655186.9451983,5000
26076.193282150423,-96828.98632633525,26395.219730761022,-187500.02235174447,-187500.02235174447,-187500.02235174447,-187500.02235174447,-187500.02235174447,1730655189.0258102,1730655186.9451983,5000
26084.262261898788,-96807.3051342136,26405.61329193274,-187500.02235174447,-187500.02235174447,-187500.02235174447,-187500.02235174447,-187500.02235174447,1730655189.0307777,1730655186.9451983,5000
26104.89292203104,-96815.73174187324,26390.23529174749,-187500.02235174447,-187500.02235174447,-187500.02235174447,-187500.02235174447,-187500.02235174447,1730655189.03378,1730655186.9451983,5000
26100.1096487176,-96810.79200634862,26388.31304172433,-187500.02235174447,-187500.02235174447,-187500.02235174447,-187500.02235174447,-187500.02235174447,1730655189.0378888,1730655186.9451983,5000
26071.722933259363,-96785.66864558084,26383.23919573297,-187500.02235174447,-187500.02235174447,-187500.02235174447,-187500.02235174447,-187500.02235174447,1730655189.041852,1730655186.9451983,5000
26081.42359035297,-96812.75895986069,26376.578375885296,-187500.02235174447,-187500.02235174447,-187500.02235174447,-187500.02235174447,-187500.02235174447,1730655189.0468907,1730655186.9451983,5000
26089.604328823607,-96882.94343745036,26388.067172535324,-187500.02235174447,-187500.02235174447,-187500.02235174447,-187500.02235174447,-187500.02235174447,1730655189.050808,1730655186.9451983,5000
26103.149485963524,-96853.0591551136,26381.920442810115,-187500.02235174447,-187500.02235174447,-187500.02235174447,-187500.02235174447,-187500.02235174447,1730655189.053907,1730655186.9451983,5000
26108.871532544083,-96864.48089653028,26379.59586138676,-187500.02235174447,-187500.02235174447,-187500.02235174447,-187500.02235174447,-187500.02235174447,1730655189.0577655,1730655186.9451983,5000
26086.2068636664,-96855.85312317051,26382.88156782169,-187500.02235174447,-187500.02235174447,-187500.02235174447,-187500.02235174447,-187500.02235174447,1730655189.06187,1730655186.9451983,5000
26078.4061048515,-96840.609233452,26394.25860574944,-187500.02235174447,-187500.02235174447,-187500.02235174447,-187500.02235174447,-187500.02235174447,1730655189.0657165,1730655186.9451983,5000
26081.49064558633,-96837.01060259467,26388.715373124527,-187500.02235174447,-187500.02235174447,-187500.02235174447,-187500.02235174447,-187500.02235174447,1730655189.069736,1730655186.9451983,5000
26093.40412538101,-96829.67923041336,26381.853387576743,-187500.02235174447,-187500.02235174447,-187500.02235174447,-187500.02235174447,-187500.02235174447,1730655189.074815,1730655186.9451983,5000
26108.044517999235,-96825.87943385595,26390.011774302933,-187500.02235174447,-187500.02235174447,-187500.02235174447,-187500.02235174447,-187500.02235174447,1730655189.0788465,1730655186.9451983,5000
26092.53240734725,-96812.49073892724,26387.843655090768,-187500.02235174447,-187500.02235174447,-187500.02235174447,-187500.02235174447,-187500.02235174447,1730655189.0818708,1730655186.9451983,5000
26100.243759184334,-96792.77650031765,26379.88643406468,-187500.02235174447,-187500.02235174447,-187500.02235174447,-187500.02235174447,-187500.02235174447,1730655189.0858684,1730655186.9451983,5000
26116.58288438116,-96798.02916026465,26398.23721626249,-187500.02235174447,-187500.02235174447,-187500.02235174447,-187500.02235174447,-187500.02235174447,1730655189.0898995,1730655186.9451983,5000
26068.571337291163,-96842.44207649732,26406.976748344518,-187500.02235174447,-187500.02235174447,-187500.02235174447,-187500.02235174447,-187500.02235174447,1730655189.0936828,1730655186.9451983,5000
26075.07569492766,-96835.04364908264,26379.662916620127,-187500.02235174447,-187500.02235174447,-187500.02235174447,-187500.02235174447,-187500.02235174447,1730655189.0978875,1730655186.9451983,5000
26091.057192213204,-96816.2011285068,26378.813550330822,-187500.02235174447,-187500.02235174447,-187500.02235174447,-187500.02235174447,-187500.02235174447,1730655189.1017098,1730655186.9451983,5000
26104.66940458649,-96820.02327680866,26383.50741666644,-187500.02235174447,-187500.02235174447,-187500.02235174447,-187500.02235174447,-187500.02235174447,1730655189.106866,1730655186.9451983,5000
26099.617910339584,-96836.29534677212,26377.69596310806,-187500.02235174447,-187500.02235174447,-187500.02235174447,-187500.02235174447,-187500.02235174447,1730655189.1097329,1730655186.9451983,5000
26060.39059882052,-96844.67725094288,26376.712486352026,-187500.02235174447,-187500.02235174447,-187500.02235174447,-187500.02235174447,-187500.02235174447,1730655189.1138017,1730655186.9451983,5000
26060.25648835379,-96836.83178863904,26371.43747466057,-187500.02235174447,-187500.02235174447,-187500.02235174447,-187500.02235174447,-187500.02235174447,1730655189.1177237,1730655186.9451983,5000
26082.898805487017,-96814.9941343062,26378.433570675086,-187500.02235174447,-187500.02235174447,-187500.02235174447,-187500.02235174447,-187500.02235174447,1730655189.1219168,1730655186.9451983,5000
26110.32439593368,-96801.40427367738,26384.535596911384,-187500.02235174447,-187500.02235174447,-187500.02235174447,-187500.02235174447,-187500.02235174447,1730655189.1257796,1730655186.9451983,5000
26127.714053119907,-96811.48491042672,26374.18673922858,-187500.02235174447,-187500.02235174447,-187500.02235174447,-187500.02235174447,-187500.02235174447,1730655189.1303637,1730655186.9451983,5000
26103.797686552727,-96817.4081227074,26383.14978875516,-187500.02235174447,-187500.02235174447,-187500.02235174447,-187500.02235174447,-187500.02235174447,1730655189.1340775,1730655186.9451983,5000
26068.370171591065,-96823.19722452133,26405.59094018828,-187500.02235174447,-187500.02235174447,-187500.02235174447,-187500.02235174447,-187500.02235174447,1730655189.1370816,1730655186.9451983,5000
26071.92409895946,-96820.2020907643,26392.51516968193,-187500.02235174447,-187500.02235174447,-187500.02235174447,-187500.02235174447,-187500.02235174447,1730655189.1418417,1730655186.9451983,5000
26094.186436436947,-96797.51507014217,26381.674573621105,-187500.02235174447,-187500.02235174447,-187500.02235174447,-187500.02235174447,-187500.02235174447,1730655189.1458807,1730655186.9451983,5000
26106.412840654,-96812.51309067168,26396.963166828536,-187500.02235174447,-187500.02235174447,-187500.02235174447,-187500.02235174447,-187500.02235174447,1730655189.1498797,1730655186.9451983,5000
26083.211729909388,-96809.16032900338,26431.51896375644,-187500.02235174447,-187500.02235174447,-187500.02235174447,-187500.02235174447,-187500.02235174447,1730655189.154172,1730655186.9451983,5000
26082.384715364544,-96832.47319847028,26390.905844081142,-187500.02235174447,-187500.02235174447,-187500.02235174447,-187500.02235174447,-187500.02235174447,1730655189.1579397,1730655186.9451983,5000
26076.90853797299,-96814.5023959282,26368.01765775891,-187500.02235174447,-187500.02235174447,-187500.02235174447,-187500.02235174447,-187500.02235174447,1730655189.161937,1730655186.9451983,5000
26048.611229492573,-96824.18070127736,26385.47437017851,-187500.02235174447,-187500.02235174447,-187500.02235174447,-187500.02235174447,-187500.02235174447,1730655189.1649263,1730655186.9451983,5000
26061.53053778774,-96815.28470698414,26384.33443121129,-187500.02235174447,-187500.02235174447,-187500.02235174447,-187500.02235174447,-187500.02235174447,1730655189.1701963,1730655186.9451983,5000
26088.37498287857,-96807.23807898024,26381.42870443209,-187500.02235174447,-187500.02235174447,-187500.02235174447,-187500.02235174447,-187500.02235174447,1730655189.1739204,1730655186.9451983,5000
26124.562457151707,-96814.12241627244,26379.84173057577,-187500.02235174447,-187500.02235174447,-187500.02235174447,-187500.02235174447,-187500.02235174447,1730655189.1779213,1730655186.9451983,5000
26123.377814695577,-96821.4537884538,26383.14978875516,-187500.02235174447,-187500.02235174447,-187500.02235174447,-187500.02235174447,-187500.02235174447,1730655189.1819468,1730655186.9451983,5000
26078.517863573776,-96818.1457302744,26392.805742359847,-187500.02235174447,-187500.02235174447,-187500.02235174447,-187500.02235174447,-187500.02235174447,1730655189.1860704,1730655186.9451983,5000
26057.1495958745,-96827.08642805651,26406.17208554412,-187500.02235174447,-187500.02235174447,-187500.02235174447,-187500.02235174447,-187500.02235174447,1730655189.1900413,1730655186.9451983,5000
26075.27686062776,-96827.7569803902,26392.69398363757,-187500.02235174447,-187500.02235174447,-187500.02235174447,-187500.02235174447,-187500.02235174447,1730655189.192844,1730655186.9451983,5000
26076.573261806163,-96823.82307336606,26374.32084969531,-187500.02235174447,-187500.02235174447,-187500.02235174447,-187500.02235174447,-187500.02235174447,1730655189.1969948,1730655186.9451983,5000
26090.36428813509,-96813.87654708343,26372.89033805017,-187500.02235174447,-187500.02235174447,-187500.02235174447,-187500.02235174447,-187500.02235174447,1730655189.2019827,1730655186.9451983,5000
26092.443000369432,-96820.69382914231,26372.13037873869,-187500.02235174447,-187500.02235174447,-187500.02235174447,-187500.02235174447,-187500.02235174447,1730655189.206098,1730655186.9451983,5000
26071.052380925703,-96813.80949185009,26363.100273978744,-187500.02235174447,-187500.02235174447,-187500.02235174447,-187500.02235174447,-187500.02235174447,1730655189.2099445,1730655186.9451983,5000
26097.516846360788,-96833.38961999291,26384.3791347002,-187500.02235174447,-187500.02235174447,-187500.02235174447,-187500.02235174447,-187500.02235174447,1730655189.213992,1730655186.9451983,5000
26117.611064626108,-96831.69088741433,26389.16240801363,-187500.02235174447,-187500.02235174447,-187500.02235174447,-187500.02235174447,-187500.02235174447,1730655189.217935,1730655186.9451983,5000
26094.23113992585,-96823.01841056568,26394.88445459419,-187500.02235174447,-187500.02235174447,-187500.02235174447,-187500.02235174447,-187500.02235174447,1730655189.2209775,1730655186.9451983,5000
26058.91538368647,-96828.11460830148,26384.915576567124,-187500.02235174447,-187500.02235174447,-187500.02235174447,-187500.02235174447,-187500.02235174447,1730655189.2251484,1730655186.9451983,5000
26051.606363249583,-96864.32443431907,26377.114817752223,-187500.02235174447,-187500.02235174447,-187500.02235174447,-187500.02235174447,-187500.02235174447,1730655189.2301824,1730655186.9451983,5000
26059.74239823132,-96820.6044221645,26369.15759672613,-187500.02235174447,-187500.02235174447,-187500.02235174447,-187500.02235174447,-187500.02235174447,1730655189.2341807,1730655186.9451983,5000
26073.801645493702,-96824.2030530218,26384.736762611483,-187500.02235174447,-187500.02235174447,-187500.02235174447,-187500.02235174447,-187500.02235174447,1730655189.23813,1730655186.9451983,5000
26074.62866003855,-96799.43732016532,26360.14984371065,-187500.02235174447,-187500.02235174447,-187500.02235174447,-187500.02235174447,-187500.02235174447,1730655189.241112,1730655186.9451983,5000
26095.08050621516,-96797.60447711998,26396.829056361803,-187500.02235174447,-187500.02235174447,-187500.02235174447,-187500.02235174447,-187500.02235174447,1730655189.2451353,1730655186.9451983,5000
26083.010564209293,-96776.21385767624,26400.65120466366,-187500.02235174447,-187500.02235174447,-187500.02235174447,-187500.02235174447,-187500.02235174447,1730655189.2493095,1730655186.9451983,5000
26075.92506121696,-96786.853288037,26393.07396329331,-187500.02235174447,-187500.02235174447,-187500.02235174447,-187500.02235174447,-187500.02235174447,1730655189.2531164,1730655186.9451983,5000
26105.518770875788,-96814.63650639492,26392.69398363757,-187500.02235174447,-187500.02235174447,-187500.02235174447,-187500.02235174447,-187500.02235174447,1730655189.2581513,1730655186.9451983,5000
26106.144619720533,-96831.98146009224,26399.153637785155,-187500.02235174447,-187500.02235174447,-187500.02235174447,-187500.02235174447,-187500.02235174447,1730655189.262098,1730655186.9451983,5000
26079.657802540994,-96807.68511386932,26397.79018137338,-187500.02235174447,-187500.02235174447,-187500.02235174447,-187500.02235174447,-187500.02235174447,1730655189.2661707,1730655186.9451983,5000
26079.41193335199,-96796.01750326366,26391.196416759067,-187500.02235174447,-187500.02235174447,-187500.02235174447,-187500.02235174447,-187500.02235174447,1730655189.269098,1730655186.9451983,5000
26095.39343063753,-96773.21872391924,26380.19935848705,-187500.02235174447,-187500.02235174447,-187500.02235174447,-187500.02235174447,-187500.02235174447,1730655189.2730613,1730655186.9451983,5000
26110.63732035605,-96776.86205826544,26399.108934296244,-187500.02235174447,-187500.02235174447,-187500.02235174447,-187500.02235174447,-187500.02235174447,1730655189.2771416,1730655186.9451983,5000
26094.856988770603,-96816.29053548464,26393.69981213806,-187500.02235174447,-187500.02235174447,-187500.02235174447,-187500.02235174447,-187500.02235174447,1730655189.2811716,1730655186.9451983,5000
26107.575131365676,-96801.58308763304,26375.729009595994,-187500.02235174447,-187500.02235174447,-187500.02235174447,-187500.02235174447,-187500.02235174447,1730655189.2850251,1730655186.9451983,5000
26113.900675046527,-96809.07092202557,26374.901995051147,-187500.02235174447,-187500.02235174447,-187500.02235174447,-187500.02235174447,-187500.02235174447,1730655189.2901013,1730655186.9451983,5000
26067.096122157112,-96824.0465908106,26379.215881731023,-187500.02235174447,-187500.02235174447,-187500.02235174447,-187500.02235174447,-187500.02235174447,1730655189.2941484,1730655186.9451983,5000
26045.3478748021,-96825.67826815584,26364.150805968144,-187500.02235174447,-187500.02235174447,-187500.02235174447,-187500.02235174447,-187500.02235174447,1730655189.297201,1730655186.9451983,5000
26075.612136794585,-96798.56560213157,26376.60072762975,-187500.02235174447,-187500.02235174447,-187500.02235174447,-187500.02235174447,-187500.02235174447,1730655189.301044,1730655186.9451983,5000
26101.182532451458,-96811.08257902654,26403.691041909584,-187500.02235174447,-187500.02235174447,-187500.02235174447,-187500.02235174447,-187500.02235174447,1730655189.305205,1730655186.9451983,5000
26079.903671730004,-96805.15936674588,26409.65895767915,-187500.02235174447,-187500.02235174447,-187500.02235174447,-187500.02235174447,-187500.02235174447,1730655189.309108,1730655186.9451983,5000
26078.741381018328,-96817.63164015194,26396.53848368389,-187500.02235174447,-187500.02235174447,-187500.02235174447,-187500.02235174447,-187500.02235174447,1730655189.3140972,1730655186.9451983,5000
26079.97072696337,-96814.21182325028,26392.135190026187,-187500.02235174447,-187500.02235174447,-187500.02235174447,-187500.02235174447,-187500.02235174447,1730655189.3180676,1730655186.9451983,5000
26072.952279204404,-96795.25754395218,26383.64152713317,-187500.02235174447,-187500.02235174447,-187500.02235174447,-187500.02235174447,-187500.02235174447,1730655189.3212788,1730655186.9451983,5000
26080.19424440792,-96819.7550558752,26378.433570675086,-187500.02235174447,-187500.02235174447,-187500.02235174447,-187500.02235174447,-187500.02235174447,1730655189.3250875,1730655186.9451983,5000
26082.384715364544,-96844.38667826494,26397.052573806355,-187500.02235174447,-187500.02235174447,-187500.02235174447,-187500.02235174447,-187500.02235174447,1730655189.3291411,1730655186.9451983,5000
26087.413857866988,-96825.94648908931,26387.664841135127,-187500.02235174447,-187500.02235174447,-187500.02235174447,-187500.02235174447,-187500.02235174447,1730655189.333197,1730655186.9451983,5000
26092.21948292488,-96808.48977666972,26368.26352694792,-187500.02235174447,-187500.02235174447,-187500.02235174447,-187500.02235174447,-187500.02235174447,1730655189.337211,1730655186.9451983,5000
26083.614061309585,-96829.4557129688,26353.109044207224,-187500.02235174447,-187500.02235174447,-187500.02235174447,-187500.02235174447,-187500.02235174447,1730655189.341104,1730655186.9451983,5000
26082.71999153137,-96854.0649836141,26387.24015799048,-187500.02235174447,-187500.02235174447,-187500.02235174447,-187500.02235174447,-187500.02235174447,1730655189.3463228,1730655186.9451983,5000
26086.54213983323,-96846.44303875483,26397.723126140016,-187500.02235174447,-187500.02235174447,-187500.02235174447,-187500.02235174447,-187500.02235174447,1730655189.3492632,1730655186.9451983,5000
26093.247663169823,-96850.60046322353,26393.968033071524,-187500.02235174447,-187500.02235174447,-187500.02235174447,-187500.02235174447,-187500.02235174447,1730655189.3531857,1730655186.9451983,5000
26081.3565351196,-96849.23700681176,26385.809646345337,-187500.02235174447,-187500.02235174447,-187500.02235174447,-187500.02235174447,-187500.02235174447,1730655189.3571427,1730655186.9451983,5000
