Fp1,Fp2,C3,C4,P7,P8,O1,O2,time_board,time_marker,marker
-504.300058400638,-187500.02235174447,8872.27909234513,-187500.02235174447,-187500.02235174447,-187500.02235174447,-187500.02235174447,-187500.02235174447,1730330738.1829922,1730330738.180279,6000
-478.8190697215879,-187500.02235174447,8894.630836800437,-187500.02235174447,-187500.02235174447,-187500.02235174447,-187500.02235174447,-187500.02235174447,1730330738.1860502,1730330738.180279,6000
-547.3048147326488,-187500.02235174447,8909.517098607672,-187500.02235174447,-187500.02235174447,-187500.02235174447,-187500.02235174447,-187500.02235174447,1730330738.1900551,1730330738.180279,6000
-586.7332919518104,-187500.02235174447,8885.310159362574,-187500.02235174447,-187500.02235174447,-187500.02235174447,-187500.02235174447,-187500.02235174447,1730330738.1941028,1730330738.180279,6000
-527.2552999562383,-187500.02235174447,8862.8913596739,-187500.02235174447,-187500.02235174447,-187500.02235174447,-187500.02235174447,-187500.02235174447,1730330738.197984,1730330738.180279,6000
-481.21070637830576,-187500.02235174447,8882.158563394376,-187500.02235174447,-187500.02235174447,-187500.02235174447,-187500.02235174447,-187500.02235174447,1730330738.2031007,1730330738.180279,6000
-536.5759773941013,-187500.02235174447,8901.13519443693,-187500.02235174447,-187500.02235174447,-187500.02235174447,-187500.02235174447,-187500.02235174447,1730330738.206997,1730330738.180279,6000
-591.5612687541567,-187500.02235174447,8881.398604082895,-187500.02235174447,-187500.02235174447,-187500.02235174447,-187500.02235174447,-187500.02235174447,1730330738.211141,1730330738.180279,6000
-545.6954891318667,-187500.02235174447,8852.60955722446,-187500.02235174447,-187500.02235174447,-187500.02235174447,-187500.02235174447,-187500.02235174447,1730330738.2140045,1730330738.180279,6000
-482.7529767457219,-187500.02235174447,8872.144981878399,-187500.02235174447,-187500.02235174447,-187500.02235174447,-187500.02235174447,-187500.02235174447,1730330738.2179909,1730330738.180279,6000
-522.7625993207216,-187500.02235174447,8898.207115913287,-187500.02235174447,-187500.02235174447,-187500.02235174447,-187500.02235174447,-187500.02235174447,1730330738.2220232,1730330738.180279,6000
-587.8955826634864,-187500.02235174447,8884.751365751192,-187500.02235174447,-187500.02235174447,-187500.02235174447,-187500.02235174447,-187500.02235174447,1730330738.2261207,1730330738.180279,6000
-557.3183962486263,-187500.02235174447,8855.13530434791,-187500.02235174447,-187500.02235174447,-187500.02235174447,-187500.02235174447,-187500.02235174447,1730330738.2310307,1730330738.180279,6000
-487.8715262259873,-187500.02235174447,8863.494856774194,-187500.02235174447,-187500.02235174447,-187500.02235174447,-187500.02235174447,-187500.02235174447,1730330738.2350235,1730330738.180279,6000
-509.4409596253586,-187500.02235174447,8897.290694390618,-187500.02235174447,-187500.02235174447,-187500.02235174447,-187500.02235174447,-187500.02235174447,1730330738.2380235,1730330738.180279,6000
-581.100652349073,-187500.02235174447,8894.072043189055,-187500.02235174447,-187500.02235174447,-187500.02235174447,-187500.02235174447,-187500.02235174447,1730330738.2420216,1730330738.180279,6000
-570.3047597771597,-187500.02235174447,8861.259682328664,-187500.02235174447,-187500.02235174447,-187500.02235174447,-187500.02235174447,-187500.02235174447,1730330738.246048,1730330738.180279,6000
-493.3700553619928,-187500.02235174447,8864.344223063496,-187500.02235174447,-187500.02235174447,-187500.02235174447,-187500.02235174447,-187500.02235174447,1730330738.2500856,1730330738.180279,6000
-496.9686862192973,-187500.02235174447,8894.720243778258,-187500.02235174447,-187500.02235174447,-187500.02235174447,-187500.02235174447,-187500.02235174447,1730330738.254073,1730330738.180279,6000
-573.9257423789195,-187500.02235174447,8895.346092623007,-187500.02235174447,-187500.02235174447,-187500.02235174447,-187500.02235174447,-187500.02235174447,1730330738.259048,1730330738.180279,6000
-585.9286291514194,-187500.02235174447,8859.203321838775,-187500.02235174447,-187500.02235174447,-187500.02235174447,-187500.02235174447,-187500.02235174447,1730330738.263064,1730330738.180279,6000
-511.8772997709871,-187500.02235174447,8855.962318892756,-187500.02235174447,-187500.02235174447,-187500.02235174447,-187500.02235174447,-187500.02235174447,1730330738.2661288,1730330738.180279,6000
-487.80447099262136,-187500.02235174447,8904.33149389404,-187500.02235174447,-187500.02235174447,-187500.02235174447,-187500.02235174447,-187500.02235174447,1730330738.270046,1730330738.180279,6000
-550.0540793006516,-187500.02235174447,8920.894136535422,-187500.02235174447,-187500.02235174447,-187500.02235174447,-187500.02235174447,-187500.02235174447,1730330738.2741091,1730330738.180279,6000
-581.6147424715451,-187500.02235174447,8873.754307479181,-187500.02235174447,-187500.02235174447,-187500.02235174447,-187500.02235174447,-187500.02235174447,1730330738.2781444,1730330738.180279,6000
-520.393314408459,-187500.02235174447,8851.313156046052,-187500.02235174447,-187500.02235174447,-187500.02235174447,-187500.02235174447,-187500.02235174447,1730330738.2822464,1730330738.180279,6000
-490.1961076493392,-187500.02235174447,8881.979749438733,-187500.02235174447,-187500.02235174447,-187500.02235174447,-187500.02235174447,-187500.02235174447,1730330738.2870712,1730330738.180279,6000
-552.780992124199,-187500.02235174447,8901.314008392574,-187500.02235174447,-187500.02235174447,-187500.02235174447,-187500.02235174447,-187500.02235174447,1730330738.2911203,1730330738.180279,6000
-586.6438849739892,-187500.02235174447,8872.010871411667,-187500.02235174447,-187500.02235174447,-187500.02235174447,-187500.02235174447,-187500.02235174447,1730330738.294132,1730330738.180279,6000
-532.329145947593,-187500.02235174447,8850.8884729014,-187500.02235174447,-187500.02235174447,-187500.02235174447,-187500.02235174447,-187500.02235174447,1730330738.298139,1730330738.180279,6000
-484.2728953686829,-187500.02235174447,8871.04974640009,-187500.02235174447,-187500.02235174447,-187500.02235174447,-187500.02235174447,-187500.02235174447,1730330738.302165,1730330738.180279,6000
-537.0900675165734,-187500.02235174447,8892.641531543915,-187500.02235174447,-187500.02235174447,-187500.02235174447,-187500.02235174447,-187500.02235174447,1730330738.3061714,1730330738.180279,6000
-594.198774599883,-187500.02235174447,8875.318929591052,-187500.02235174447,-187500.02235174447,-187500.02235174447,-187500.02235174447,-187500.02235174447,1730330738.310184,1730330738.180279,6000
-544.9131780759309,-187500.02235174447,8852.56485373555,-187500.02235174447,-187500.02235174447,-187500.02235174447,-187500.02235174447,-187500.02235174447,1730330738.314185,1730330738.180279,6000
-482.9541424458197,-187500.02235174447,8865.104182374977,-187500.02235174447,-187500.02235174447,-187500.02235174447,-187500.02235174447,-187500.02235174447,1730330738.3191547,1730330738.180279,6000
-513.5760323495904,-187500.02235174447,8898.251819402198,-187500.02235174447,-187500.02235174447,-187500.02235174447,-187500.02235174447,-187500.02235174447,1730330738.322225,1730330738.180279,6000
-575.5350679797016,-187500.02235174447,8896.128403678942,-187500.02235174447,-187500.02235174447,-187500.02235174447,-187500.02235174447,-187500.02235174447,1730330738.3262093,1730330738.180279,6000
-546.1425240209728,-187500.02235174447,8891.501592576695,-187500.02235174447,-187500.02235174447,-187500.02235174447,-187500.02235174447,-187500.02235174447,1730330738.3301752,1730330738.180279,6000
-470.0124824061969,-187500.02235174447,8936.987392543244,-187500.02235174447,-187500.02235174447,-187500.02235174447,-187500.02235174447,-187500.02235174447,1730330738.334262,1730330738.180279,6000
-491.02312219418553,-187500.02235174447,8957.282776508662,-187500.02235174447,-187500.02235174447,-187500.02235174447,-187500.02235174447,-187500.02235174447,1730330738.3382723,1730330738.180279,6000
-570.0588905881514,-187500.02235174447,8886.070118674055,-187500.02235174447,-187500.02235174447,-187500.02235174447,-187500.02235174447,-187500.02235174447,1730330738.3422613,1730330738.180279,6000
-563.4427742293805,-187500.02235174447,8865.730031219726,-187500.02235174447,-187500.02235174447,-187500.02235174447,-187500.02235174447,-187500.02235174447,1730330738.346214,1730330738.180279,6000
-490.6431425384453,-187500.02235174447,8850.307327545563,-187500.02235174447,-187500.02235174447,-187500.02235174447,-187500.02235174447,-187500.02235174447,1730330738.34928,1730330738.180279,6000
-489.5926105490459,-187500.02235174447,8877.576455781038,-187500.02235174447,-187500.02235174447,-187500.02235174447,-187500.02235174447,-187500.02235174447,1730330738.3542328,1730330738.180279,6000
-561.006434083752,-187500.02235174447,8891.680406532336,-187500.02235174447,-187500.02235174447,-187500.02235174447,-187500.02235174447,-187500.02235174447,1730330738.3583665,1730330738.180279,6000
-574.9762743683189,-187500.02235174447,8855.090600859,-187500.02235174447,-187500.02235174447,-187500.02235174447,-187500.02235174447,-187500.02235174447,1730330738.3622146,1730330738.180279,6000
-503.60715432252346,-187500.02235174447,8839.489083229195,-187500.02235174447,-187500.02235174447,-187500.02235174447,-187500.02235174447,-187500.02235174447,1730330738.366334,1730330738.180279,6000
-481.6577412674119,-187500.02235174447,8874.670729001848,-187500.02235174447,-187500.02235174447,-187500.02235174447,-187500.02235174447,-187500.02235174447,1730330738.3722887,1730330738.180279,6000
-554.1444485359727,-187500.02235174447,8890.13813616492,-187500.02235174447,-187500.02235174447,-187500.02235174447,-187500.02235174447,-187500.02235174447,1730330738.3753152,1730330738.180279,6000
-587.2697338187378,-187500.02235174447,8864.433630041318,-187500.02235174447,-187500.02235174447,-187500.02235174447,-187500.02235174447,-187500.02235174447,1730330738.379321,1730330738.180279,6000
-518.426360896392,-187500.02235174447,8864.880664930424,-187500.02235174447,-187500.02235174447,-187500.02235174447,-187500.02235174447,-187500.02235174447,1730330738.3823416,1730330738.180279,6000
-470.50422078421366,-187500.02235174447,8911.819328286569,-187500.02235174447,-187500.02235174447,-187500.02235174447,-187500.02235174447,-187500.02235174447,1730330738.3863325,1730330738.180279,6000
-520.4380178973696,-187500.02235174447,8942.552976912615,-187500.02235174447,-187500.02235174447,-187500.02235174447,-187500.02235174447,-187500.02235174447,1730330738.3903751,1730330738.180279,6000
-565.6779486749111,-187500.02235174447,8896.575438568048,-187500.02235174447,-187500.02235174447,-187500.02235174447,-187500.02235174447,-187500.02235174447,1730330738.394487,1730330738.180279,6000
-524.10370398804,-187500.02235174447,8865.528865519627,-187500.02235174447,-187500.02235174447,-187500.02235174447,-187500.02235174447,-187500.02235174447,1730330738.3992963,1730330738.180279,6000
-480.4060435779147,-187500.02235174447,8892.865048988468,-187500.02235174447,-187500.02235174447,-187500.02235174447,-187500.02235174447,-187500.02235174447,1730330738.402304,1730330738.180279,6000
-524.5060353882355,-187500.02235174447,8927.286735449641,-187500.02235174447,-187500.02235174447,-187500.02235174447,-187500.02235174447,-187500.02235174447,1730330738.4053965,1730330738.180279,6000
-583.6263994725227,-187500.02235174447,8942.329459468063,-187500.02235174447,-187500.02235174447,-187500.02235174447,-187500.02235174447,-187500.02235174447,1730330738.4103904,1730330738.180279,6000
-551.4845909457912,-187500.02235174447,8914.367427154473,-187500.02235174447,-187500.02235174447,-187500.02235174447,-187500.02235174447,-187500.02235174447,1730330738.4143453,1730330738.180279,6000
-482.685921512356,-187500.02235174447,8912.33341840904,-187500.02235174447,-187500.02235174447,-187500.02235174447,-187500.02235174447,-187500.02235174447,1730330738.418383,1730330738.180279,6000
-496.4992995857358,-187500.02235174447,8934.886328564446,-187500.02235174447,-187500.02235174447,-187500.02235174447,-187500.02235174447,-187500.02235174447,1730330738.4223871,1730330738.180279,6000
-568.4495649873692,-187500.02235174447,8898.47533684675,-187500.02235174447,-187500.02235174447,-187500.02235174447,-187500.02235174447,-187500.02235174447,1730330738.4263728,1730330738.180279,6000
-570.5506289661681,-187500.02235174447,8873.217865612252,-187500.02235174447,-187500.02235174447,-187500.02235174447,-187500.02235174447,-187500.02235174447,1730330738.4303854,1730330738.180279,6000
-492.6995030283336,-187500.02235174447,8917.921354522867,-187500.02235174447,-187500.02235174447,-187500.02235174447,-187500.02235174447,-187500.02235174447,1730330738.4334376,1730330738.180279,6000
-475.7345289867556,-187500.02235174447,8970.090326081554,-187500.02235174447,-187500.02235174447,-187500.02235174447,-187500.02235174447,-187500.02235174447,1730330738.4373367,1730330738.180279,6000
-570.5506289661681,-187500.02235174447,8928.270212205674,-187500.02235174447,-187500.02235174447,-187500.02235174447,-187500.02235174447,-187500.02235174447,1730330738.4424648,1730330738.180279,6000
-579.06664360364,-187500.02235174447,8837.186853550298,-187500.02235174447,-187500.02235174447,-187500.02235174447,-187500.02235174447,-187500.02235174447,1730330738.4463732,1730330738.180279,6000
-492.5430408171465,-187500.02235174447,8866.154714364377,-187500.02235174447,-187500.02235174447,-187500.02235174447,-187500.02235174447,-187500.02235174447,1730330738.4504511,1730330738.180279,6000
-479.556677288613,-187500.02235174447,8958.422715475883,-187500.02235174447,-187500.02235174447,-187500.02235174447,-187500.02235174447,-187500.02235174447,1730330738.4543755,1730330738.180279,6000
-558.2795212602045,-187500.02235174447,8933.366409941484,-187500.02235174447,-187500.02235174447,-187500.02235174447,-187500.02235174447,-187500.02235174447,1730330738.4584715,1730330738.180279,6000
-576.6079517135563,-187500.02235174447,8874.067231901554,-187500.02235174447,-187500.02235174447,-187500.02235174447,-187500.02235174447,-187500.02235174447,1730330738.4614787,1730330738.180279,6000
-507.9880962357636,-187500.02235174447,8854.688269458804,-187500.02235174447,-187500.02235174447,-187500.02235174447,-187500.02235174447,-187500.02235174447,1730330738.4654691,1730330738.180279,6000
-474.4157760638924,-187500.02235174447,8887.433575085828,-187500.02235174447,-187500.02235174447,-187500.02235174447,-187500.02235174447,-187500.02235174447,1730330738.4704435,1730330738.180279,6000
-542.7227071193108,-187500.02235174447,8925.744465082225,-187500.02235174447,-187500.02235174447,-187500.02235174447,-187500.02235174447,-187500.02235174447,1730330738.47441,1730330738.180279,6000
-574.4174807569362,-187500.02235174447,8930.326572695563,-187500.02235174447,-187500.02235174447,-187500.02235174447,-187500.02235174447,-187500.02235174447,1730330738.4785795,1730330738.180279,6000
-503.60715432252346,-187500.02235174447,8938.52966291066,-187500.02235174447,-187500.02235174447,-187500.02235174447,-187500.02235174447,-187500.02235174447,1730330738.4815035,1730330738.180279,6000
-466.5703137600796,-187500.02235174447,8912.512232364683,-187500.02235174447,-187500.02235174447,-187500.02235174447,-187500.02235174447,-187500.02235174447,1730330738.4857552,1730330738.180279,6000
-528.4846459012801,-187500.02235174447,8918.52485162316,-187500.02235174447,-187500.02235174447,-187500.02235174447,-187500.02235174447,-187500.02235174447,1730330738.4894657,1730330738.180279,6000
-567.1531638089614,-187500.02235174447,8911.707569564292,-187500.02235174447,-187500.02235174447,-187500.02235174447,-187500.02235174447,-187500.02235174447,1730330738.4934628,1730330738.180279,6000
-515.9453172618529,-187500.02235174447,8888.819383242057,-187500.02235174447,-187500.02235174447,-187500.02235174447,-187500.02235174447,-187500.02235174447,1730330738.4984677,1730330738.180279,6000
-486.9998081922303,-187500.02235174447,8930.684200606847,-187500.02235174447,-187500.02235174447,-187500.02235174447,-187500.02235174447,-187500.02235174447,1730330738.5025015,1730330738.180279,6000
-535.2348727267829,-187500.02235174447,8953.035945062154,-187500.02235174447,-187500.02235174447,-187500.02235174447,-187500.02235174447,-187500.02235174447,1730330738.5064893,1730330738.180279,6000
-573.0093208562519,-187500.02235174447,8945.34694496953,-187500.02235174447,-187500.02235174447,-187500.02235174447,-187500.02235174447,-187500.02235174447,1730330738.5095077,1730330738.180279,6000
-522.4943783872579,-187500.02235174447,8914.255668432197,-187500.02235174447,-187500.02235174447,-187500.02235174447,-187500.02235174447,-187500.02235174447,1730330738.51394,1730330738.180279,6000
-465.00569164820814,-187500.02235174447,8903.817403771569,-187500.02235174447,-187500.02235174447,-187500.02235174447,-187500.02235174447,-187500.02235174447,1730330738.5174975,1730330738.180279,6000
-502.0648839551072,-187500.02235174447,8940.451912933817,-187500.02235174447,-187500.02235174447,-187500.02235174447,-187500.02235174447,-187500.02235174447,1730330738.5215533,1730330738.180279,6000
-563.8004021406654,-187500.02235174447,8961.909587610911,-187500.02235174447,-187500.02235174447,-187500.02235174447,-187500.02235174447,-187500.02235174447,1730330738.5266008,1730330738.180279,6000
-552.1774950239056,-187500.02235174447,8927.264383705186,-187500.02235174447,-187500.02235174447,-187500.02235174447,-187500.02235174447,-187500.02235174447,1730330738.5306334,1730330738.180279,6000
-486.2174971362945,-187500.02235174447,8925.744465082225,-187500.02235174447,-187500.02235174447,-187500.02235174447,-187500.02235174447,-187500.02235174447,1730330738.5346289,1730330738.180279,6000
-492.8559652395208,-187500.02235174447,8980.215666319807,-187500.02235174447,-187500.02235174447,-187500.02235174447,-187500.02235174447,-187500.02235174447,1730330738.5375204,1730330738.180279,6000
-581.0112453712518,-187500.02235174447,8964.860017879011,-187500.02235174447,-187500.02235174447,-187500.02235174447,-187500.02235174447,-187500.02235174447,1730330738.5416207,1730330738.180279,6000
-567.3990329979698,-187500.02235174447,8932.67350586337,-187500.02235174447,-187500.02235174447,-187500.02235174447,-187500.02235174447,-187500.02235174447,1730330738.545601,1730330738.180279,6000
-474.0581481526075,-187500.02235174447,8934.461645419795,-187500.02235174447,-187500.02235174447,-187500.02235174447,-187500.02235174447,-187500.02235174447,1730330738.5495226,1730330738.180279,6000
-476.8744679539762,-187500.02235174447,8965.687032423859,-187500.02235174447,-187500.02235174447,-187500.02235174447,-187500.02235174447,-187500.02235174447,1730330738.5535953,1730330738.180279,6000
-599.9655246693521,-187500.02235174447,9117.813005186676,-187500.02235174447,-187500.02235174447,-187500.02235174447,-187500.02235174447,-187500.02235174447,1730330738.558548,1730330738.180279,6000
-660.3599381875919,-187500.02235174447,9117.500080764305,-187500.02235174447,-187500.02235174447,-187500.02235174447,-187500.02235174447,-187500.02235174447,1730330738.5627213,1730330738.180279,6000
-570.4612219883469,-187500.02235174447,8931.712380851792,-187500.02235174447,-187500.02235174447,-187500.02235174447,-187500.02235174447,-187500.02235174447,1730330738.5655725,1730330738.180279,6000
-450.0970780965183,-187500.02235174447,8837.879757628412,-187500.02235174447,-187500.02235174447,-187500.02235174447,-187500.02235174447,-187500.02235174447,1730330738.569676,1730330738.180279,6000
-498.5333083311687,-187500.02235174447,8892.060386188077,-187500.02235174447,-187500.02235174447,-187500.02235174447,-187500.02235174447,-187500.02235174447,1730330738.573629,1730330738.180279,6000
-558.0783555601067,-187500.02235174447,8882.739708750214,-187500.02235174447,-187500.02235174447,-187500.02235174447,-187500.02235174447,-187500.02235174447,1730330738.5777133,1730330738.180279,6000
-513.0172387382077,-187500.02235174447,8866.378231808929,-187500.02235174447,-187500.02235174447,-187500.02235174447,-187500.02235174447,-187500.02235174447,1730330738.5817485,1730330738.180279,6000
-491.2242878942833,-187500.02235174447,8953.751200884724,-187500.02235174447,-187500.02235174447,-187500.02235174447,-187500.02235174447,-187500.02235174447,1730330738.5867171,1730330738.180279,6000
-557.2736927597157,-187500.02235174447,8986.697672211847,-187500.02235174447,-187500.02235174447,-187500.02235174447,-187500.02235174447,-187500.02235174447,1730330738.5895965,1730330738.180279,6000
-591.0024751427741,-187500.02235174447,8909.561802096583,-187500.02235174447,-187500.02235174447,-187500.02235174447,-187500.02235174447,-187500.02235174447,1730330738.5937347,1730330738.180279,6000
-520.6615353419227,-187500.02235174447,8899.302351391596,-187500.02235174447,-187500.02235174447,-187500.02235174447,-187500.02235174447,-187500.02235174447,1730330738.5976756,1730330738.180279,6000
-464.08927012554057,-187500.02235174447,8915.932049266345,-187500.02235174447,-187500.02235174447,-187500.02235174447,-187500.02235174447,-187500.02235174447,1730330738.6016283,1730330738.180279,6000
-517.2417184402607,-187500.02235174447,8915.015627743678,-187500.02235174447,-187500.02235174447,-187500.02235174447,-187500.02235174447,-187500.02235174447,1730330738.6057436,1730330738.180279,6000
-591.1142338650506,-187500.02235174447,8947.068029292588,-187500.02235174447,-187500.02235174447,-187500.02235174447,-187500.02235174447,-187500.02235174447,1730330738.6096733,1730330738.180279,6000
-562.3028352621598,-187500.02235174447,9039.023105981722,-187500.02235174447,-187500.02235174447,-187500.02235174447,-187500.02235174447,-187500.02235174447,1730330738.614706,1730330738.180279,6000
-528.6634598569226,-187500.02235174447,9100.80332765619,-187500.02235174447,-187500.02235174447,-187500.02235174447,-187500.02235174447,-187500.02235174447,1730330738.617728,1730330738.180279,6000
-597.1492048679835,-187500.02235174447,9113.65558071799,-187500.02235174447,-187500.02235174447,-187500.02235174447,-187500.02235174447,-187500.02235174447,1730330738.621678,1730330738.180279,6000
-644.065516479673,-187500.02235174447,8984.68601521087,-187500.02235174447,-187500.02235174447,-187500.02235174447,-187500.02235174447,-187500.02235174447,1730330738.62575,1730330738.180279,6000
-559.9335503498972,-187500.02235174447,8848.429781011317,-187500.02235174447,-187500.02235174447,-187500.02235174447,-187500.02235174447,-187500.02235174447,1730330738.6296902,1730330738.180279,6000
-456.46732526628085,-187500.02235174447,8889.266418131163,-187500.02235174447,-187500.02235174447,-187500.02235174447,-187500.02235174447,-187500.02235174447,1730330738.6337783,1730330738.180279,6000
-519.5439481191573,-187500.02235174447,9057.396239923984,-187500.02235174447,-187500.02235174447,-187500.02235174447,-187500.02235174447,-187500.02235174447,1730330738.6376867,1730330738.180279,6000
-595.4504722893802,-187500.02235174447,8996.778308961191,-187500.02235174447,-187500.02235174447,-187500.02235174447,-187500.02235174447,-187500.02235174447,1730330738.6428547,1730330738.180279,6000
-570.2824080327044,-187500.02235174447,8912.422825386862,-187500.02235174447,-187500.02235174447,-187500.02235174447,-187500.02235174447,-187500.02235174447,1730330738.6457024,1730330738.180279,6000
-491.2466396387386,-187500.02235174447,8967.095192324543,-187500.02235174447,-187500.02235174447,-187500.02235174447,-187500.02235174447,-187500.02235174447,1730330738.6496956,1730330738.180279,6000
-516.3252969175932,-187500.02235174447,9097.115289821064,-187500.02235174447,-187500.02235174447,-187500.02235174447,-187500.02235174447,-187500.02235174447,1730330738.6537015,1730330738.180279,6000
-659.6670341094773,-187500.02235174447,9238.557128734246,-187500.02235174447,-187500.02235174447,-187500.02235174447,-187500.02235174447,-187500.02235174447,1730330738.6578555,1730330738.180279,6000
-677.6601883959995,-187500.02235174447,9073.780068609723,-187500.02235174447,-187500.02235174447,-187500.02235174447,-187500.02235174447,-187500.02235174447,1730330738.661891,1730330738.180279,6000
-490.9560669608196,-187500.02235174447,8785.97900700319,-187500.02235174447,-187500.02235174447,-187500.02235174447,-187500.02235174447,-187500.02235174447,1730330738.6660166,1730330738.180279,6000
-414.0213625456527,-187500.02235174447,8813.046969538567,-187500.02235174447,-187500.02235174447,-187500.02235174447,-187500.02235174447,-187500.02235174447,1730330738.670034,1730330738.180279,6000
-565.1191550635284,-187500.02235174447,9093.270789774751,-187500.02235174447,-187500.02235174447,-187500.02235174447,-187500.02235174447,-187500.02235174447,1730330738.6738253,1730330738.180279,6000
-663.4891824113348,-187500.02235174447,9122.70803722239,-187500.02235174447,-187500.02235174447,-187500.02235174447,-187500.02235174447,-187500.02235174447,1730330738.6768148,1730330738.180279,6000
-558.9947770827744,-187500.02235174447,8949.77259037168,-187500.02235174447,-187500.02235174447,-187500.02235174447,-187500.02235174447,-187500.02235174447,1730330738.6819043,1730330738.180279,6000
-421.08451379352977,-187500.02235174447,8854.732972947713,-187500.02235174447,-187500.02235174447,-187500.02235174447,-187500.02235174447,-187500.02235174447,1730330738.685874,1730330738.180279,6000
-477.1426888874399,-187500.02235174447,8888.595865797504,-187500.02235174447,-187500.02235174447,-187500.02235174447,-187500.02235174447,-187500.02235174447,1730330738.6898525,1730330738.180279,6000
-629.6262895615447,-187500.02235174447,9067.074545273132,-187500.02235174447,-187500.02235174447,-187500.02235174447,-187500.02235174447,-187500.02235174447,1730330738.6937904,1730330738.180279,6000
-679.3142174856922,-187500.02235174447,9231.136349575085,-187500.02235174447,-187500.02235174447,-187500.02235174447,-187500.02235174447,-187500.02235174447,1730330738.6977973,1730330738.180279,6000
-590.4436815313913,-187500.02235174447,9132.721618738367,-187500.02235174447,-187500.02235174447,-187500.02235174447,-187500.02235174447,-187500.02235174447,1730330738.7017696,1730330738.180279,6000
-525.5342156331797,-187500.02235174447,8900.442290358817,-187500.02235174447,-187500.02235174447,-187500.02235174447,-187500.02235174447,-187500.02235174447,1730330738.7048008,1730330738.180279,6000
-561.297006761671,-187500.02235174447,8911.506403864194,-187500.02235174447,-187500.02235174447,-187500.02235174447,-187500.02235174447,-187500.02235174447,1730330738.710002,1730330738.180279,6000
-543.7285356197996,-187500.02235174447,8932.204119229807,-187500.02235174447,-187500.02235174447,-187500.02235174447,-187500.02235174447,-187500.02235174447,1730330738.7138596,1730330738.180279,6000
-505.93173574587536,-187500.02235174447,8993.336140315074,-187500.02235174447,-187500.02235174447,-187500.02235174447,-187500.02235174447,-187500.02235174447,1730330738.7179253,1730330738.180279,6000
-608.906222451475,-187500.02235174447,9116.337790052628,-187500.02235174447,-187500.02235174447,-187500.02235174447,-187500.02235174447,-187500.02235174447,1730330738.7219808,1730330738.180279,6000
-646.6583188364887,-187500.02235174447,8995.660721738424,-187500.02235174447,-187500.02235174447,-187500.02235174447,-187500.02235174447,-187500.02235174447,1730330738.725031,1730330738.180279,6000
-582.9111436499529,-187500.02235174447,8973.241922049752,-187500.02235174447,-187500.02235174447,-187500.02235174447,-187500.02235174447,-187500.02235174447,1730330738.7289357,1730330738.180279,6000
-507.652820068934,-187500.02235174447,9050.064867742643,-187500.02235174447,-187500.02235174447,-187500.02235174447,-187500.02235174447,-187500.02235174447,1730330738.732994,1730330738.180279,6000
-513.4642736273138,-187500.02235174447,9060.436077169905,-187500.02235174447,-187500.02235174447,-187500.02235174447,-187500.02235174447,-187500.02235174447,1730330738.737,1730330738.180279,6000
-584.3640070395478,-187500.02235174447,8990.720986213802,-187500.02235174447,-187500.02235174447,-187500.02235174447,-187500.02235174447,-187500.02235174447,1730330738.7420027,1730330738.180279,6000
-634.4095628749803,-187500.02235174447,9062.134809748508,-187500.02235174447,-187500.02235174447,-187500.02235174447,-187500.02235174447,-187500.02235174447,1730330738.7459388,1730330738.180279,6000
-569.8577248880536,-187500.02235174447,9065.822847583631,-187500.02235174447,-187500.02235174447,-187500.02235174447,-187500.02235174447,-187500.02235174447,1730330738.7499857,1730330738.180279,6000
-437.49069422372514,-187500.02235174447,8915.283848677142,-187500.02235174447,-187500.02235174447,-187500.02235174447,-187500.02235174447,-187500.02235174447,1730330738.7529457,1730330738.180279,6000
-535.5477971491572,-187500.02235174447,8999.952256673843,-187500.02235174447,-187500.02235174447,-187500.02235174447,-187500.02235174447,-187500.02235174447,1730330738.7570927,1730330738.180279,6000
-657.4095079194914,-187500.02235174447,9113.767339440268,-187500.02235174447,-187500.02235174447,-187500.02235174447,-187500.02235174447,-187500.02235174447,1730330738.760924,1730330738.180279,6000
-529.3563639350372,-187500.02235174447,9054.669327100435,-187500.02235174447,-187500.02235174447,-187500.02235174447,-187500.02235174447,-187500.02235174447,1730330738.7650664,1730330738.180279,6000
-451.527589741658,-187500.02235174447,8957.68510790886,-187500.02235174447,-187500.02235174447,-187500.02235174447,-187500.02235174447,-187500.02235174447,1730330738.7700713,1730330738.180279,6000
-576.0938615910842,-187500.02235174447,9068.817981340646,-187500.02235174447,-187500.02235174447,-187500.02235174447,-187500.02235174447,-187500.02235174447,1730330738.774071,1730330738.180279,6000
-683.225772765371,-187500.02235174447,9241.395800280072,-187500.02235174447,-187500.02235174447,-187500.02235174447,-187500.02235174447,-187500.02235174447,1730330738.7779987,1730330738.180279,6000
-630.8109320176759,-187500.02235174447,9198.368692203603,-187500.02235174447,-187500.02235174447,-187500.02235174447,-187500.02235174447,-187500.02235174447,1730330738.7810493,1730330738.180279,6000
-533.0444017701628,-187500.02235174447,9056.569225379137,-187500.02235174447,-187500.02235174447,-187500.02235174447,-187500.02235174447,-187500.02235174447,1730330738.7850592,1730330738.180279,6000
-544.2873292311823,-187500.02235174447,8978.829858163579,-187500.02235174447,-187500.02235174447,-187500.02235174447,-187500.02235174447,-187500.02235174447,1730330738.7891238,1730330738.180279,6000
-551.8422188570761,-187500.02235174447,8905.493784605716,-187500.02235174447,-187500.02235174447,-187500.02235174447,-187500.02235174447,-187500.02235174447,1730330738.793053,1730330738.180279,6000
-579.4913267482909,-187500.02235174447,9019.241812138776,-187500.02235174447,-187500.02235174447,-187500.02235174447,-187500.02235174447,-187500.02235174447,1730330738.7981827,1730330738.180279,6000
-545.293157731671,-187500.02235174447,9068.862684829555,-187500.02235174447,-187500.02235174447,-187500.02235174447,-187500.02235174447,-187500.02235174447,1730330738.802091,1730330738.180279,6000
-575.5350679797016,-187500.02235174447,9089.98508333982,-187500.02235174447,-187500.02235174447,-187500.02235174447,-187500.02235174447,-187500.02235174447,1730330738.8061132,1730330738.180279,6000
-621.9819929578297,-187500.02235174447,9129.27945009225,-187500.02235174447,-187500.02235174447,-187500.02235174447,-187500.02235174447,-187500.02235174447,1730330738.809131,1730330738.180279,6000
-602.0889403926063,-187500.02235174447,9078.518638434249,-187500.02235174447,-187500.02235174447,-187500.02235174447,-187500.02235174447,-187500.02235174447,1730330738.8130732,1730330738.180279,6000
-564.1356783074949,-187500.02235174447,9065.55462665017,-187500.02235174447,-187500.02235174447,-187500.02235174447,-187500.02235174447,-187500.02235174447,1730330738.8171625,1730330738.180279,6000
-583.4922890057909,-187500.02235174447,9146.870272978578,-187500.02235174447,-187500.02235174447,-187500.02235174447,-187500.02235174447,-187500.02235174447,1730330738.8210337,1730330738.180279,6000
-668.6747871249661,-187500.02235174447,9201.944971316454,-187500.02235174447,-187500.02235174447,-187500.02235174447,-187500.02235174447,-187500.02235174447,1730330738.8250833,1730330738.180279,6000
-704.6834474424658,-187500.02235174447,9196.62525613609,-187500.02235174447,-187500.02235174447,-187500.02235174447,-187500.02235174447,-187500.02235174447,1730330738.830089,1730330738.180279,6000
-516.5264626176909,-187500.02235174447,8982.87552390999,-187500.02235174447,-187500.02235174447,-187500.02235174447,-187500.02235174447,-187500.02235174447,1730330738.834106,1730330738.180279,6000
-503.3389333890597,-187500.02235174447,9053.484684644303,-187500.02235174447,-187500.02235174447,-187500.02235174447,-187500.02235174447,-187500.02235174447,1730330738.8370392,1730330738.180279,6000
-653.8779322955528,-187500.02235174447,9213.05378831074,-187500.02235174447,-187500.02235174447,-187500.02235174447,-187500.02235174447,-187500.02235174447,1730330738.8412373,1730330738.180279,6000
-647.1500572145054,-187500.02235174447,9163.589377831147,-187500.02235174447,-187500.02235174447,-187500.02235174447,-187500.02235174447,-187500.02235174447,1730330738.8453276,1730330738.180279,6000
-507.1163782020066,-187500.02235174447,9045.54981536267,-187500.02235174447,-187500.02235174447,-187500.02235174447,-187500.02235174447,-187500.02235174447,1730330738.849119,1730330738.180279,6000
-498.555660075624,-187500.02235174447,9063.65472837147,-187500.02235174447,-187500.02235174447,-187500.02235174447,-187500.02235174447,-187500.02235174447,1730330738.8532145,1730330738.180279,6000
-572.5622859671457,-187500.02235174447,9077.490458189304,-187500.02235174447,-187500.02235174447,-187500.02235174447,-187500.02235174447,-187500.02235174447,1730330738.858264,1730330738.180279,6000
-603.4076933154695,-187500.02235174447,9086.900542604988,-187500.02235174447,-187500.02235174447,-187500.02235174447,-187500.02235174447,-187500.02235174447,1730330738.8612237,1730330738.180279,6000
-634.1413419415167,-187500.02235174447,9204.805994606731,-187500.02235174447,-187500.02235174447,-187500.02235174447,-187500.02235174447,-187500.02235174447,1730330738.8651652,1730330738.180279,6000
-670.6640923814884,-187500.02235174447,9325.84069083222,-187500.02235174447,-187500.02235174447,-187500.02235174447,-187500.02235174447,-187500.02235174447,1730330738.869244,1730330738.180279,6000
-677.32491222917,-187500.02235174447,9337.128321782153,-187500.02235174447,-187500.02235174447,-187500.02235174447,-187500.02235174447,-187500.02235174447,1730330738.8732488,1730330738.180279,6000
-545.4719716873136,-187500.02235174447,9141.349392098116,-187500.02235174447,-187500.02235174447,-187500.02235174447,-187500.02235174447,-187500.02235174447,1730330738.8772144,1730330738.180279,6000
-436.6413279344235,-187500.02235174447,8927.778473827657,-187500.02235174447,-187500.02235174447,-187500.02235174447,-187500.02235174447,-187500.02235174447,1730330738.881195,1730330738.180279,6000
-455.68501421034506,-187500.02235174447,9058.916158546945,-187500.02235174447,-187500.02235174447,-187500.02235174447,-187500.02235174447,-187500.02235174447,1730330738.8863566,1730330738.180279,6000
-564.649768429967,-187500.02235174447,9195.708834613424,-187500.02235174447,-187500.02235174447,-187500.02235174447,-187500.02235174447,-187500.02235174447,1730330738.889253,1730330738.180279,6000
-713.1771103354824,-187500.02235174447,9273.179980895518,-187500.02235174447,-187500.02235174447,-187500.02235174447,-187500.02235174447,-187500.02235174447,1730330738.8932471,1730330738.180279,6000
-692.322932758681,-187500.02235174447,9317.27997270584,-187500.02235174447,-187500.02235174447,-187500.02235174447,-187500.02235174447,-187500.02235174447,1730330738.897308,1730330738.180279,6000
-507.8539857690318,-187500.02235174447,9170.317252912197,-187500.02235174447,-187500.02235174447,-187500.02235174447,-187500.02235174447,-187500.02235174447,1730330738.901338,1730330738.180279,6000
-425.6666214068677,-187500.02235174447,9055.60810036756,-187500.02235174447,-187500.02235174447,-187500.02235174447,-187500.02235174447,-187500.02235174447,1730330738.9052236,1730330738.180279,6000
-559.5088672052464,-187500.02235174447,9149.99951720232,-187500.02235174447,-187500.02235174447,-187500.02235174447,-187500.02235174447,-187500.02235174447,1730330738.9093218,1730330738.180279,6000
-660.9410835434298,-187500.02235174447,9206.325913229692,-187500.02235174447,-187500.02235174447,-187500.02235174447,-187500.02235174447,-187500.02235174447,1730330738.9143667,1730330738.180279,6000
-569.4330417434028,-187500.02235174447,9257.936091176998,-187500.02235174447,-187500.02235174447,-187500.02235174447,-187500.02235174447,-187500.02235174447,1730330738.9172995,1730330738.180279,6000
-467.6431974939344,-187500.02235174447,9197.139346258564,-187500.02235174447,-187500.02235174447,-187500.02235174447,-187500.02235174447,-187500.02235174447,1730330738.921203,1730330738.180279,6000
-630.74387678431,-187500.02235174447,9218.172337791008,-187500.02235174447,-187500.02235174447,-187500.02235174447,-187500.02235174447,-187500.02235174447,1730330738.92528,1730330738.180279,6000
-647.6194438480668,-187500.02235174447,9247.207253838453,-187500.02235174447,-187500.02235174447,-187500.02235174447,-187500.02235174447,-187500.02235174447,1730330738.9291947,1730330738.180279,6000
-493.3700553619928,-187500.02235174447,9161.443610363438,-187500.02235174447,-187500.02235174447,-187500.02235174447,-187500.02235174447,-187500.02235174447,1730330738.93335,1730330738.180279,6000
-454.99211013223055,-187500.02235174447,9172.395965146536,-187500.02235174447,-187500.02235174447,-187500.02235174447,-187500.02235174447,-187500.02235174447,1730330738.9372485,1730330738.180279,6000
-525.8694918000093,-187500.02235174447,9197.787546847769,-187500.02235174447,-187500.02235174447,-187500.02235174447,-187500.02235174447,-187500.02235174447,1730330738.9422662,1730330738.180279,6000
-583.2687715612378,-187500.02235174447,9212.785567377276,-187500.02235174447,-187500.02235174447,-187500.02235174447,-187500.02235174447,-187500.02235174447,1730330738.9453068,1730330738.180279,6000
-572.0258441002184,-187500.02235174447,9272.375318095126,-187500.02235174447,-187500.02235174447,-187500.02235174447,-187500.02235174447,-187500.02235174447,1730330738.9482677,1730330738.180279,6000
-494.2864768846604,-187500.02235174447,9252.25874808535,-187500.02235174447,-187500.02235174447,-187500.02235174447,-187500.02235174447,-187500.02235174447,1730330738.9532862,1730330738.180279,6000
-509.5303666031798,-187500.02235174447,9211.600924921147,-187500.02235174447,-187500.02235174447,-187500.02235174447,-187500.02235174447,-187500.02235174447,1730330738.9574373,1730330738.180279,6000
-582.4194052719362,-187500.02235174447,9214.01491332232,-187500.02235174447,-187500.02235174447,-187500.02235174447,-187500.02235174447,-187500.02235174447,1730330738.9613853,1730330738.180279,6000
-569.9918353547854,-187500.02235174447,9283.059451944764,-187500.02235174447,-187500.02235174447,-187500.02235174447,-187500.02235174447,-187500.02235174447,1730330738.9655209,1730330738.180279,6000
-522.5390818761686,-187500.02235174447,9270.721289005434,-187500.02235174447,-187500.02235174447,-187500.02235174447,-187500.02235174447,-187500.02235174447,1730330738.9694457,1730330738.180279,6000
-517.0629044846182,-187500.02235174447,9225.123730316607,-187500.02235174447,-187500.02235174447,-187500.02235174447,-187500.02235174447,-187500.02235174447,1730330738.9723957,1730330738.180279,6000
-558.8383148715872,-187500.02235174447,9208.561087675223,-187500.02235174447,-187500.02235174447,-187500.02235174447,-187500.02235174447,-187500.02235174447,1730330738.97648,1730330738.180279,6000
-544.3320327200929,-187500.02235174447,9217.322971501706,-187500.02235174447,-187500.02235174447,-187500.02235174447,-187500.02235174447,-187500.02235174447,1730330738.9813683,1730330738.180279,6000
-513.5983840940457,-187500.02235174447,9253.175169608015,-187500.02235174447,-187500.02235174447,-187500.02235174447,-187500.02235174447,-187500.02235174447,1730330738.9853995,1730330738.180279,6000
-510.31267765911554,-187500.02235174447,9232.946840875966,-187500.02235174447,-187500.02235174447,-187500.02235174447,-187500.02235174447,-187500.02235174447,1730330738.989503,1730330738.180279,6000
-562.6828149179,-187500.02235174447,9242.06635261373,-187500.02235174447,-187500.02235174447,-187500.02235174447,-187500.02235174447,-187500.02235174447,1730330738.9934733,1730330738.180279,6000
-562.4369457288916,-187500.02235174447,9243.92154740352,-187500.02235174447,-187500.02235174447,-187500.02235174447,-187500.02235174447,-187500.02235174447,1730330738.9973588,1730330738.180279,6000
-547.5953874105677,-187500.02235174447,9294.302379405784,-187500.02235174447,-187500.02235174447,-187500.02235174447,-187500.02235174447,-187500.02235174447,1730330739.0004416,1730330738.180279,6000
-499.0250467091855,-187500.02235174447,9272.97881519542,-187500.02235174447,-187500.02235174447,-187500.02235174447,-187500.02235174447,-187500.02235174447,1730330739.004344,1730330738.180279,6000
-527.1658929784171,-187500.02235174447,9204.15779401753,-187500.02235174447,-187500.02235174447,-187500.02235174447,-187500.02235174447,-187500.02235174447,1730330739.0094883,1730330738.180279,6000
-564.0909748185843,-187500.02235174447,9278.633806542612,-187500.02235174447,-187500.02235174447,-187500.02235174447,-187500.02235174447,-187500.02235174447,1730330739.0133896,1730330738.180279,6000
-476.9415231873421,-187500.02235174447,9238.892404901077,-187500.02235174447,-187500.02235174447,-187500.02235174447,-187500.02235174447,-187500.02235174447,1730330739.0173624,1730330738.180279,6000
-480.9871889337527,-187500.02235174447,9256.997317909876,-187500.02235174447,-187500.02235174447,-187500.02235174447,-187500.02235174447,-187500.02235174447,1730330739.021361,1730330738.180279,6000
-565.4097277414475,-187500.02235174447,9259.232492355406,-187500.02235174447,-187500.02235174447,-187500.02235174447,-187500.02235174447,-187500.02235174447,1730330739.0253546,1730330738.180279,6000
-596.903335678975,-187500.02235174447,9259.187788866497,-187500.02235174447,-187500.02235174447,-187500.02235174447,-187500.02235174447,-187500.02235174447,1730330739.0283997,1730330738.180279,6000
-502.8024915221324,-187500.02235174447,9274.856361729666,-187500.02235174447,-187500.02235174447,-187500.02235174447,-187500.02235174447,-187500.02235174447,1730330739.0323868,1730330738.180279,6000
-504.3224101450933,-187500.02235174447,9317.592897128212,-187500.02235174447,-187500.02235174447,-187500.02235174447,-187500.02235174447,-187500.02235174447,1730330739.0364203,1730330738.180279,6000
-640.5115891112791,-187500.02235174447,9321.504452407891,-187500.02235174447,-187500.02235174447,-187500.02235174447,-187500.02235174447,-187500.02235174447,1730330739.0414088,1730330738.180279,6000
-627.5028738382905,-187500.02235174447,9267.793210481788,-187500.02235174447,-187500.02235174447,-187500.02235174447,-187500.02235174447,-187500.02235174447,1730330739.0455632,1730330738.180279,6000
-485.7928139916437,-187500.02235174447,9246.223777082418,-187500.02235174447,-187500.02235174447,-187500.02235174447,-187500.02235174447,-187500.02235174447,1730330739.0495784,1730330738.180279,6000
-482.0600726676074,-187500.02235174447,9264.887483702598,-187500.02235174447,-187500.02235174447,-187500.02235174447,-187500.02235174447,-187500.02235174447,1730330739.0526848,1730330738.180279,6000
-579.2454575592825,-187500.02235174447,9306.104100478186,-187500.02235174447,-187500.02235174447,-187500.02235174447,-187500.02235174447,-187500.02235174447,1730330739.0565114,1730330738.180279,6000
-630.74387678431,-187500.02235174447,9291.530763093324,-187500.02235174447,-187500.02235174447,-187500.02235174447,-187500.02235174447,-187500.02235174447,1730330739.0604446,1730330738.180279,6000
-581.8606116605534,-187500.02235174447,9299.420928886047,-187500.02235174447,-187500.02235174447,-187500.02235174447,-187500.02235174447,-187500.02235174447,1730330739.0645788,1730330738.180279,6000
-406.5335281531249,-187500.02235174447,9215.043093567265,-187500.02235174447,-187500.02235174447,-187500.02235174447,-187500.02235174447,-187500.02235174447,1730330739.0694916,1730330738.180279,6000
-516.459407384325,-187500.02235174447,9230.130521074596,-187500.02235174447,-187500.02235174447,-187500.02235174447,-187500.02235174447,-187500.02235174447,1730330739.0735655,1730330738.180279,6000
-627.3464116271033,-187500.02235174447,9319.828071573744,-187500.02235174447,-187500.02235174447,-187500.02235174447,-187500.02235174447,-187500.02235174447,1730330739.0765388,1730330738.180279,6000
-629.6262895615447,-187500.02235174447,9284.177039167527,-187500.02235174447,-187500.02235174447,-187500.02235174447,-187500.02235174447,-187500.02235174447,1730330739.0804996,1730330738.180279,6000
-462.88227592495394,-187500.02235174447,9219.312276758228,-187500.02235174447,-187500.02235174447,-187500.02235174447,-187500.02235174447,-187500.02235174447,1730330739.0846248,1730330738.180279,6000
-423.8337783615325,-187500.02235174447,9202.414357950016,-187500.02235174447,-187500.02235174447,-187500.02235174447,-187500.02235174447,-187500.02235174447,1730330739.08853,1730330738.180279,6000
-546.4330966988917,-187500.02235174447,9240.59113747968,-187500.02235174447,-187500.02235174447,-187500.02235174447,-187500.02235174447,-187500.02235174447,1730330739.0925603,1730330738.180279,6000
-561.006434083752,-187500.02235174447,9248.526006761314,-187500.02235174447,-187500.02235174447,-187500.02235174447,-187500.02235174447,-187500.02235174447,1730330739.0976691,1730330738.180279,6000
-495.8958024854425,-187500.02235174447,9264.55220753577,-187500.02235174447,-187500.02235174447,-187500.02235174447,-187500.02235174447,-187500.02235174447,1730330739.1014867,1730330738.180279,6000
-486.93275295886434,-187500.02235174447,9274.31991986274,-187500.02235174447,-187500.02235174447,-187500.02235174447,-187500.02235174447,-187500.02235174447,1730330739.1044793,1730330738.180279,6000
-552.8480473575648,-187500.02235174447,9261.534722034305,-187500.02235174447,-187500.02235174447,-187500.02235174447,-187500.02235174447,-187500.02235174447,1730330739.108693,1730330738.180279,6000
-552.9598060798414,-187500.02235174447,9249.218910839429,-187500.02235174447,-187500.02235174447,-187500.02235174447,-187500.02235174447,-187500.02235174447,1730330739.112527,1730330738.180279,6000
-569.455393487858,-187500.02235174447,9323.247888475404,-187500.02235174447,-187500.02235174447,-187500.02235174447,-187500.02235174447,-187500.02235174447,1730330739.1166403,1730330738.180279,6000
-578.3737395255256,-187500.02235174447,9392.694758498044,-187500.02235174447,-187500.02235174447,-187500.02235174447,-187500.02235174447,-187500.02235174447,1730330739.120522,1730330738.180279,6000
-518.2922504296602,-187500.02235174447,9220.340457003173,-187500.02235174447,-187500.02235174447,-187500.02235174447,-187500.02235174447,-187500.02235174447,1730330739.125563,1730330738.180279,6000
-522.1143987315177,-187500.02235174447,9193.25014272334,-187500.02235174447,-187500.02235174447,-187500.02235174447,-187500.02235174447,-187500.02235174447,1730330739.1295404,1730330738.180279,6000
-507.9657444913083,-187500.02235174447,9250.314146317738,-187500.02235174447,-187500.02235174447,-187500.02235174447,-187500.02235174447,-187500.02235174447,1730330739.1325276,1730330738.180279,6000
-555.1055735475509,-187500.02235174447,9327.092388521718,-187500.02235174447,-187500.02235174447,-187500.02235174447,-187500.02235174447,-187500.02235174447,1730330739.1365228,1730330738.180279,6000
-617.1540161554833,-187500.02235174447,9348.281842265347,-187500.02235174447,-187500.02235174447,-187500.02235174447,-187500.02235174447,-187500.02235174447,1730330739.1405876,1730330738.180279,6000
-584.2075448283607,-187500.02235174447,9300.762033553368,-187500.02235174447,-187500.02235174447,-187500.02235174447,-187500.02235174447,-187500.02235174447,1730330739.1447463,1730330738.180279,6000
-467.397328304926,-187500.02235174447,9218.06057906873,-187500.02235174447,-187500.02235174447,-187500.02235174447,-187500.02235174447,-187500.02235174447,1730330739.1486728,1730330738.180279,6000
-468.4255085498701,-187500.02235174447,9261.06533540074,-187500.02235174447,-187500.02235174447,-187500.02235174447,-187500.02235174447,-187500.02235174447,1730330739.1527147,1730330738.180279,6000
-572.1376028224948,-187500.02235174447,9261.78059122331,-187500.02235174447,-187500.02235174447,-187500.02235174447,-187500.02235174447,-187500.02235174447,1730330739.1576245,1730330738.180279,6000
-609.8673474630532,-187500.02235174447,9242.289870058285,-187500.02235174447,-187500.02235174447,-187500.02235174447,-187500.02235174447,-187500.02235174447,1730330739.1607935,1730330738.180279,6000
-538.8335035840873,-187500.02235174447,9234.131483332096,-187500.02235174447,-187500.02235174447,-187500.02235174447,-187500.02235174447,-187500.02235174447,1730330739.1647751,1730330738.180279,6000
-510.4467881258474,-187500.02235174447,9296.202277684484,-187500.02235174447,-187500.02235174447,-187500.02235174447,-187500.02235174447,-187500.02235174447,1730330739.168782,1730330738.180279,6000
-569.5448004656793,-187500.02235174447,9325.147786754109,-187500.02235174447,-187500.02235174447,-187500.02235174447,-187500.02235174447,-187500.02235174447,1730330739.1727977,1730330738.180279,6000
-590.7342542093104,-187500.02235174447,9247.028439882808,-187500.02235174447,-187500.02235174447,-187500.02235174447,-187500.02235174447,-187500.02235174447,1730330739.1767864,1730330738.180279,6000
-532.038573269674,-187500.02235174447,9259.456009799958,-187500.02235174447,-187500.02235174447,-187500.02235174447,-187500.02235174447,-187500.02235174447,1730330739.1809297,1730330738.180279,6000
-460.91532241288695,-187500.02235174447,9239.138274090084,-187500.02235174447,-187500.02235174447,-187500.02235174447,-187500.02235174447,-187500.02235174447,1730330739.1857457,1730330738.180279,6000
-489.9725902047861,-187500.02235174447,9271.525951805825,-187500.02235174447,-187500.02235174447,-187500.02235174447,-187500.02235174447,-187500.02235174447,1730330739.1886492,1730330738.180279,6000
-576.0268063577183,-187500.02235174447,9265.558036036258,-187500.02235174447,-187500.02235174447,-187500.02235174447,-187500.02235174447,-187500.02235174447,1730330739.19281,1730330738.180279,6000
-563.3086637626486,-187500.02235174447,9254.40451555306,-187500.02235174447,-187500.02235174447,-187500.02235174447,-187500.02235174447,-187500.02235174447,1730330739.1967487,1730330738.180279,6000
-516.2358899397719,-187500.02235174447,9277.963254208951,-187500.02235174447,-187500.02235174447,-187500.02235174447,-187500.02235174447,-187500.02235174447,1730330739.200974,1730330738.180279,6000
-519.3651341635149,-187500.02235174447,9299.532687608324,-187500.02235174447,-187500.02235174447,-187500.02235174447,-187500.02235174447,-187500.02235174447,1730330739.2046938,1730330738.180279,6000
-612.6836672644218,-187500.02235174447,9332.233289746438,-187500.02235174447,-187500.02235174447,-187500.02235174447,-187500.02235174447,-187500.02235174447,1730330739.2098775,1730330738.180279,6000
-584.5428209951903,-187500.02235174447,9286.993358968895,-187500.02235174447,-187500.02235174447,-187500.02235174447,-187500.02235174447,-187500.02235174447,1730330739.2127037,1730330738.180279,6000
-484.2058401353169,-187500.02235174447,9259.612472011146,-187500.02235174447,-187500.02235174447,-187500.02235174447,-187500.02235174447,-187500.02235174447,1730330739.2158835,1730330738.180279,6000
-500.47791009878046,-187500.02235174447,9298.348045152194,-187500.02235174447,-187500.02235174447,-187500.02235174447,-187500.02235174447,-187500.02235174447,1730330739.2209709,1730330738.180279,6000
-578.5972569700787,-187500.02235174447,9300.158536453073,-187500.02235174447,-187500.02235174447,-187500.02235174447,-187500.02235174447,-187500.02235174447,1730330739.2249324,1730330738.180279,6000
-633.3366791411256,-187500.02235174447,9290.234361914916,-187500.02235174447,-187500.02235174447,-187500.02235174447,-187500.02235174447,-187500.02235174447,1730330739.2287045,1730330738.180279,6000
-575.5350679797016,-187500.02235174447,9292.201315426984,-187500.02235174447,-187500.02235174447,-187500.02235174447,-187500.02235174447,-187500.02235174447,1730330739.232776,1730330738.180279,6000
-485.0999099135292,-187500.02235174447,9327.695885622012,-187500.02235174447,-187500.02235174447,-187500.02235174447,-187500.02235174447,-187500.02235174447,1730330739.2377524,1730330738.180279,6000
-469.6325027504567,-187500.02235174447,9253.666907986037,-187500.02235174447,-187500.02235174447,-187500.02235174447,-187500.02235174447,-187500.02235174447,1730330739.2409563,1730330738.180279,6000
-565.4320794859028,-187500.02235174447,9281.539533321802,-187500.02235174447,-187500.02235174447,-187500.02235174447,-187500.02235174447,-187500.02235174447,1730330739.2438524,1730330738.180279,6000
-540.264015229227,-187500.02235174447,9309.07688249074,-187500.02235174447,-187500.02235174447,-187500.02235174447,-187500.02235174447,-187500.02235174447,1730330739.2489643,1730330738.180279,6000
-500.9249449878866,-187500.02235174447,9332.9038420801,-187500.02235174447,-187500.02235174447,-187500.02235174447,-187500.02235174447,-187500.02235174447,1730330739.2528508,1730330738.180279,6000
-527.300003445149,-187500.02235174447,9329.193452500516,-187500.02235174447,-187500.02235174447,-187500.02235174447,-187500.02235174447,-187500.02235174447,1730330739.2569313,1730330738.180279,6000
-563.8674573740312,-187500.02235174447,9276.21981814144,-187500.02235174447,-187500.02235174447,-187500.02235174447,-187500.02235174447,-187500.02235174447,1730330739.2609923,1730330738.180279,6000
-542.5662449081236,-187500.02235174447,9302.259600431871,-187500.02235174447,-187500.02235174447,-187500.02235174447,-187500.02235174447,-187500.02235174447,1730330739.2649915,1730330738.180279,6000
-549.0929542890733,-187500.02235174447,9356.775505158366,-187500.02235174447,-187500.02235174447,-187500.02235174447,-187500.02235174447,-187500.02235174447,1730330739.268952,1730330738.180279,6000
-557.8548381155537,-187500.02235174447,9384.849296194232,-187500.02235174447,-187500.02235174447,-187500.02235174447,-187500.02235174447,-187500.02235174447,1730330739.271812,1730330738.180279,6000
-524.0590004991294,-187500.02235174447,9272.420021584036,-187500.02235174447,-187500.02235174447,-187500.02235174447,-187500.02235174447,-187500.02235174447,1730330739.2769568,1730330738.180279,6000
-516.2358899397719,-187500.02235174447,9244.770913692822,-187500.02235174447,-187500.02235174447,-187500.02235174447,-187500.02235174447,-187500.02235174447,1730330739.2809985,1730330738.180279,6000
-473.0523196521187,-187500.02235174447,9263.188751123997,-187500.02235174447,-187500.02235174447,-187500.02235174447,-187500.02235174447,-187500.02235174447,1730330739.2850342,1730330738.180279,6000
-508.0104479802189,-187500.02235174447,9315.93886803852,-187500.02235174447,-187500.02235174447,-187500.02235174447,-187500.02235174447,-187500.02235174447,1730330739.2889547,1730330738.180279,6000
-590.3095710646595,-187500.02235174447,9330.243984489916,-187500.02235174447,-187500.02235174447,-187500.02235174447,-187500.02235174447,-187500.02235174447,1730330739.2929125,1730330738.180279,6000
-577.9490563808747,-187500.02235174447,9311.982609269931,-187500.02235174447,-187500.02235174447,-187500.02235174447,-187500.02235174447,-187500.02235174447,1730330739.297004,1730330738.180279,6000
-481.0765959115739,-187500.02235174447,9298.54921085229,-187500.02235174447,-187500.02235174447,-187500.02235174447,-187500.02235174447,-187500.02235174447,1730330739.2999969,1730330738.180279,6000
-480.13782264445103,-187500.02235174447,9310.641504602612,-187500.02235174447,-187500.02235174447,-187500.02235174447,-187500.02235174447,-187500.02235174447,1730330739.3038433,1730330738.180279,6000
-570.2824080327044,-187500.02235174447,9326.578298399249,-187500.02235174447,-187500.02235174447,-187500.02235174447,-187500.02235174447,-187500.02235174447,1730330739.3089168,1730330738.180279,6000
-590.3542745535701,-187500.02235174447,9304.047739988297,-187500.02235174447,-187500.02235174447,-187500.02235174447,-187500.02235174447,-187500.02235174447,1730330739.3128293,1730330738.180279,6000
-545.8966548319644,-187500.02235174447,9391.353653830723,-187500.02235174447,-187500.02235174447,-187500.02235174447,-187500.02235174447,-187500.02235174447,1730330739.31708,1730330738.180279,6000
-541.3145472186264,-187500.02235174447,9433.710209573534,-187500.02235174447,-187500.02235174447,-187500.02235174447,-187500.02235174447,-187500.02235174447,1730330739.3208823,1730330738.180279,6000
-559.1735910384168,-187500.02235174447,9328.545251911311,-187500.02235174447,-187500.02235174447,-187500.02235174447,-187500.02235174447,-187500.02235174447,1730330739.3250124,1730330738.180279,6000
-549.4729339448136,-187500.02235174447,9268.374355837626,-187500.02235174447,-187500.02235174447,-187500.02235174447,-187500.02235174447,-187500.02235174447,1730330739.328063,1730330738.180279,6000
-502.8695467554983,-187500.02235174447,9275.102230918674,-187500.02235174447,-187500.02235174447,-187500.02235174447,-187500.02235174447,-187500.02235174447,1730330739.3319533,1730330738.180279,6000
-515.9676690063083,-187500.02235174447,9315.670647105057,-187500.02235174447,-187500.02235174447,-187500.02235174447,-187500.02235174447,-187500.02235174447,1730330739.3368895,1730330738.180279,6000
-572.4058237559585,-187500.02235174447,9374.455735022511,-187500.02235174447,-187500.02235174447,-187500.02235174447,-187500.02235174447,-187500.02235174447,1730330739.3408964,1730330738.180279,6000
-588.521431508235,-187500.02235174447,9347.723048653968,-187500.02235174447,-187500.02235174447,-187500.02235174447,-187500.02235174447,-187500.02235174447,1730330739.345164,1730330738.180279,6000
-508.74805554724406,-187500.02235174447,9340.190510772529,-187500.02235174447,-187500.02235174447,-187500.02235174447,-187500.02235174447,-187500.02235174447,1730330739.3481455,1730330738.180279,6000
-455.8861799104429,-187500.02235174447,9351.053458577808,-187500.02235174447,-187500.02235174447,-187500.02235174447,-187500.02235174447,-187500.02235174447,1730330739.3520763,1730330738.180279,6000
-557.7207276488218,-187500.02235174447,9380.37894730317,-187500.02235174447,-187500.02235174447,-187500.02235174447,-187500.02235174447,-187500.02235174447,1730330739.3560953,1730330738.180279,6000
-618.293955122704,-187500.02235174447,9323.94079255352,-187500.02235174447,-187500.02235174447,-187500.02235174447,-187500.02235174447,-187500.02235174447,1730330739.359964,1730330738.180279,6000
-528.4175906679143,-187500.02235174447,9291.97779798243,-187500.02235174447,-187500.02235174447,-187500.02235174447,-187500.02235174447,-187500.02235174447,1730330739.3649807,1730330738.180279,6000
-466.6150172489902,-187500.02235174447,9322.71144660848,-187500.02235174447,-187500.02235174447,-187500.02235174447,-187500.02235174447,-187500.02235174447,1730330739.3691463,1730330738.180279,6000
-506.91521250190885,-187500.02235174447,9340.458731705992,-187500.02235174447,-187500.02235174447,-187500.02235174447,-187500.02235174447,-187500.02235174447,1730330739.3731587,1730330738.180279,6000
-583.6934547058886,-187500.02235174447,9345.84550211972,-187500.02235174447,-187500.02235174447,-187500.02235174447,-187500.02235174447,-187500.02235174447,1730330739.376218,1730330738.180279,6000
-573.746928423277,-187500.02235174447,9336.770693870869,-187500.02235174447,-187500.02235174447,-187500.02235174447,-187500.02235174447,-187500.02235174447,1730330739.3799906,1730330738.180279,6000
-456.3779182884596,-187500.02235174447,9328.567603655769,-187500.02235174447,-187500.02235174447,-187500.02235174447,-187500.02235174447,-187500.02235174447,1730330739.3842516,1730330738.180279,6000
-496.9239827303866,-187500.02235174447,9346.069019564276,-187500.02235174447,-187500.02235174447,-187500.02235174447,-187500.02235174447,-187500.02235174447,1730330739.3879492,1730330738.180279,6000
-613.2424608758046,-187500.02235174447,9416.34290413176,-187500.02235174447,-187500.02235174447,-187500.02235174447,-187500.02235174447,-187500.02235174447,1730330739.3921945,1730330738.180279,6000
-578.9995883702742,-187500.02235174447,9402.551877802834,-187500.02235174447,-187500.02235174447,-187500.02235174447,-187500.02235174447,-187500.02235174447,1730330739.3971765,1730330738.180279,6000
-458.2107613337948,-187500.02235174447,9301.007902742374,-187500.02235174447,-187500.02235174447,-187500.02235174447,-187500.02235174447,-187500.02235174447,1730330739.4011116,1730330738.180279,6000
-493.88414548446485,-187500.02235174447,9324.454882675993,-187500.02235174447,-187500.02235174447,-187500.02235174447,-187500.02235174447,-187500.02235174447,1730330739.4040074,1730330738.180279,6000
-576.4291377579138,-187500.02235174447,9346.694868409022,-187500.02235174447,-187500.02235174447,-187500.02235174447,-187500.02235174447,-187500.02235174447,1730330739.408203,1730330738.180279,6000
-579.6254372150228,-187500.02235174447,9359.547121470823,-187500.02235174447,-187500.02235174447,-187500.02235174447,-187500.02235174447,-187500.02235174447,1730330739.4120767,1730330738.180279,6000
-503.0036572222301,-187500.02235174447,9335.496644436913,-187500.02235174447,-187500.02235174447,-187500.02235174447,-187500.02235174447,-187500.02235174447,1730330739.4162216,1730330738.180279,6000
-474.9298661863645,-187500.02235174447,9342.023353817864,-187500.02235174447,-187500.02235174447,-187500.02235174447,-187500.02235174447,-187500.02235174447,1730330739.4201248,1730330738.180279,6000
-563.0627945736402,-187500.02235174447,9389.498459040937,-187500.02235174447,-187500.02235174447,-187500.02235174447,-187500.02235174447,-187500.02235174447,1730330739.4252036,1730330738.180279,6000
-596.6574664899667,-187500.02235174447,9363.57043547278,-187500.02235174447,-187500.02235174447,-187500.02235174447,-187500.02235174447,-187500.02235174447,1730330739.4290593,1730330738.180279,6000
-556.8043061261542,-187500.02235174447,9362.6093104612,-187500.02235174447,-187500.02235174447,-187500.02235174447,-187500.02235174447,-187500.02235174447,1730330739.4322736,1730330738.180279,6000
-510.31267765911554,-187500.02235174447,9407.648075538646,-187500.02235174447,-187500.02235174447,-187500.02235174447,-187500.02235174447,-187500.02235174447,1730330739.4360375,1730330738.180279,6000
-508.5915933360569,-187500.02235174447,9327.427664688548,-187500.02235174447,-187500.02235174447,-187500.02235174447,-187500.02235174447,-187500.02235174447,1730330739.4402957,1730330738.180279,6000
-558.2571695157492,-187500.02235174447,9302.483117876423,-187500.02235174447,-187500.02235174447,-187500.02235174447,-187500.02235174447,-187500.02235174447,1730330739.444292,1730330738.180279,6000
-530.4963029022579,-187500.02235174447,9337.195377015518,-187500.02235174447,-187500.02235174447,-187500.02235174447,-187500.02235174447,-187500.02235174447,1730330739.448194,1730330738.180279,6000
-531.9268145473975,-187500.02235174447,9422.646096068156,-187500.02235174447,-187500.02235174447,-187500.02235174447,-187500.02235174447,-187500.02235174447,1730330739.4531603,1730330738.180279,6000
-537.4476954278583,-187500.02235174447,9371.013566376396,-187500.02235174447,-187500.02235174447,-187500.02235174447,-187500.02235174447,-187500.02235174447,1730330739.457174,1730330738.180279,6000
-563.9792160963078,-187500.02235174447,9299.018597485852,-187500.02235174447,-187500.02235174447,-187500.02235174447,-187500.02235174447,-187500.02235174447,1730330739.460084,1730330738.180279,6000
-520.0580382416294,-187500.02235174447,9287.149821180084,-187500.02235174447,-187500.02235174447,-187500.02235174447,-187500.02235174447,-187500.02235174447,1730330739.46425,1730330738.180279,6000
-507.9210410023977,-187500.02235174447,9346.85133062021,-187500.02235174447,-187500.02235174447,-187500.02235174447,-187500.02235174447,-187500.02235174447,1730330739.4680903,1730330738.180279,6000
-541.8286373410986,-187500.02235174447,9424.456587369035,-187500.02235174447,-187500.02235174447,-187500.02235174447,-187500.02235174447,-187500.02235174447,1730330739.4721563,1730330738.180279,6000
-554.4350212138917,-187500.02235174447,9336.167196770572,-187500.02235174447,-187500.02235174447,-187500.02235174447,-187500.02235174447,-187500.02235174447,1730330739.4761412,1730330738.180279,6000
-544.8461228425649,-187500.02235174447,9284.847591501188,-187500.02235174447,-187500.02235174447,-187500.02235174447,-187500.02235174447,-187500.02235174447,1730330739.4812255,1730330738.180279,6000
-477.09798539852926,-187500.02235174447,9324.23136523144,-187500.02235174447,-187500.02235174447,-187500.02235174447,-187500.02235174447,-187500.02235174447,1730330739.484099,1730330738.180279,6000
-512.4360933823697,-187500.02235174447,9366.766734929888,-187500.02235174447,-187500.02235174447,-187500.02235174447,-187500.02235174447,-187500.02235174447,1730330739.4871302,1730330738.180279,6000
-619.5456528122012,-187500.02235174447,9411.850203496242,-187500.02235174447,-187500.02235174447,-187500.02235174447,-187500.02235174447,-187500.02235174447,1730330739.4923072,1730330738.180279,6000
-614.8294347321314,-187500.02235174447,9370.164200087094,-187500.02235174447,-187500.02235174447,-187500.02235174447,-187500.02235174447,-187500.02235174447,1730330739.4961116,1730330738.180279,6000
-466.34679631552655,-187500.02235174447,9318.375208184149,-187500.02235174447,-187500.02235174447,-187500.02235174447,-187500.02235174447,-187500.02235174447,1730330739.500337,1730330738.180279,6000
-461.87644742446514,-187500.02235174447,9308.98747551292,-187500.02235174447,-187500.02235174447,-187500.02235174447,-187500.02235174447,-187500.02235174447,1730330739.5041764,1730330738.180279,6000
-560.6041026835564,-187500.02235174447,9341.866891606676,-187500.02235174447,-187500.02235174447,-187500.02235174447,-187500.02235174447,-187500.02235174447,1730330739.508319,1730330738.180279,6000
-587.4261960299249,-187500.02235174447,9338.178853771553,-187500.02235174447,-187500.02235174447,-187500.02235174447,-187500.02235174447,-187500.02235174447,1730330739.5122137,1730330738.180279,6000
-550.6352246564895,-187500.02235174447,9367.683156452556,-187500.02235174447,-187500.02235174447,-187500.02235174447,-187500.02235174447,-187500.02235174447,1730330739.5161629,1730330738.180279,6000
-500.3661513765039,-187500.02235174447,9409.212697650515,-187500.02235174447,-187500.02235174447,-187500.02235174447,-187500.02235174447,-187500.02235174447,1730330739.520172,1730330738.180279,6000
-504.0988927005402,-187500.02235174447,9333.105007780196,-187500.02235174447,-187500.02235174447,-187500.02235174447,-187500.02235174447,-187500.02235174447,1730330739.5242617,1730330738.180279,6000
-567.8684196315312,-187500.02235174447,9306.662894089568,-187500.02235174447,-187500.02235174447,-187500.02235174447,-187500.02235174447,-187500.02235174447,1730330739.52736,1730330738.180279,6000
-542.2980239746599,-187500.02235174447,9354.495627223923,-187500.02235174447,-187500.02235174447,-187500.02235174447,-187500.02235174447,-187500.02235174447,1730330739.5312965,1730330738.180279,6000
-519.9462795193529,-187500.02235174447,9385.653958994622,-187500.02235174447,-187500.02235174447,-187500.02235174447,-187500.02235174447,-187500.02235174447,1730330739.5396729,1730330738.180279,6000
-560.5817509391011,-187500.02235174447,9418.466319855012,-187500.02235174447,-187500.02235174447,-187500.02235174447,-187500.02235174447,-187500.02235174447,1730330739.541754,1730330738.180279,6000
-597.4397775459025,-187500.02235174447,9391.934799186563,-187500.02235174447,-187500.02235174447,-187500.02235174447,-187500.02235174447,-187500.02235174447,1730330739.5441887,1730330738.180279,6000
-517.1970149513501,-187500.02235174447,9293.40830962757,-187500.02235174447,-187500.02235174447,-187500.02235174447,-187500.02235174447,-187500.02235174447,1730330739.5483408,1730330738.180279,6000
-468.7384329722444,-187500.02235174447,9315.111853493674,-187500.02235174447,-187500.02235174447,-187500.02235174447,-187500.02235174447,-187500.02235174447,1730330739.552196,1730330738.180279,6000
-524.1707592214059,-187500.02235174447,9345.912557353087,-187500.02235174447,-187500.02235174447,-187500.02235174447,-187500.02235174447,-187500.02235174447,1730330739.5552,1730330738.180279,6000
-599.4961380357908,-187500.02235174447,9359.033031348352,-187500.02235174447,-187500.02235174447,-187500.02235174447,-187500.02235174447,-187500.02235174447,1730330739.5591776,1730330738.180279,6000
-577.8596494030535,-187500.02235174447,9346.538406197837,-187500.02235174447,-187500.02235174447,-187500.02235174447,-187500.02235174447,-187500.02235174447,1730330739.5642035,1730330738.180279,6000
-485.234020380261,-187500.02235174447,9348.684173665544,-187500.02235174447,-187500.02235174447,-187500.02235174447,-187500.02235174447,-187500.02235174447,1730330739.5683684,1730330738.180279,6000
-497.2145554083056,-187500.02235174447,9367.392583774636,-187500.02235174447,-187500.02235174447,-187500.02235174447,-187500.02235174447,-187500.02235174447,1730330739.5723088,1730330738.180279,6000
-580.3183412931372,-187500.02235174447,9357.84838889222,-187500.02235174447,-187500.02235174447,-187500.02235174447,-187500.02235174447,-187500.02235174447,1730330739.5764377,1730330738.180279,6000
-558.5477421936682,-187500.02235174447,9292.536591593813,-187500.02235174447,-187500.02235174447,-187500.02235174447,-187500.02235174447,-187500.02235174447,1730330739.580418,1730330738.180279,6000
-517.6887533293669,-187500.02235174447,9373.941644900042,-187500.02235174447,-187500.02235174447,-187500.02235174447,-187500.02235174447,-187500.02235174447,1730330739.5833943,1730330738.180279,6000
-530.8092273246322,-187500.02235174447,9449.267023714428,-187500.02235174447,-187500.02235174447,-187500.02235174447,-187500.02235174447,-187500.02235174447,1730330739.5872548,1730330738.180279,6000
-593.617629244045,-187500.02235174447,9366.163237829594,-187500.02235174447,-187500.02235174447,-187500.02235174447,-187500.02235174447,-187500.02235174447,1730330739.5924816,1730330738.180279,6000
-575.7585854242546,-187500.02235174447,9337.46359794898,-187500.02235174447,-187500.02235174447,-187500.02235174447,-187500.02235174447,-187500.02235174447,1730330739.5963154,1730330738.180279,6000
-488.4079680929146,-187500.02235174447,9314.038969759818,-187500.02235174447,-187500.02235174447,-187500.02235174447,-187500.02235174447,-187500.02235174447,1730330739.600309,1730330738.180279,6000
-524.7519045772439,-187500.02235174447,9368.37606053067,-187500.02235174447,-187500.02235174447,-187500.02235174447,-187500.02235174447,-187500.02235174447,1730330739.604326,1730330738.180279,6000
-602.4465683038912,-187500.02235174447,9369.605406475712,-187500.02235174447,-187500.02235174447,-187500.02235174447,-187500.02235174447,-187500.02235174447,1730330739.6084676,1730330738.180279,6000
-569.7459661657771,-187500.02235174447,9332.41210370208,-187500.02235174447,-187500.02235174447,-187500.02235174447,-187500.02235174447,-187500.02235174447,1730330739.6113744,1730330738.180279,6000
-487.6480087814342,-187500.02235174447,9314.84363256021,-187500.02235174447,-187500.02235174447,-187500.02235174447,-187500.02235174447,-187500.02235174447,1730330739.61543,1730330738.180279,6000
-480.0707674110851,-187500.02235174447,9356.507284224905,-187500.02235174447,-187500.02235174447,-187500.02235174447,-187500.02235174447,-187500.02235174447,1730330739.6203628,1730330738.180279,6000
-554.747945636266,-187500.02235174447,9395.95811318852,-187500.02235174447,-187500.02235174447,-187500.02235174447,-187500.02235174447,-187500.02235174447,1730330739.6245503,1730330738.180279,6000
-597.5068327792684,-187500.02235174447,9348.974746343463,-187500.02235174447,-187500.02235174447,-187500.02235174447,-187500.02235174447,-187500.02235174447,1730330739.6284451,1730330738.180279,6000
-548.0647740441292,-187500.02235174447,9341.442208462026,-187500.02235174447,-187500.02235174447,-187500.02235174447,-187500.02235174447,-187500.02235174447,1730330739.6314528,1730330738.180279,6000
-533.491436659269,-187500.02235174447,9412.744273274457,-187500.02235174447,-187500.02235174447,-187500.02235174447,-187500.02235174447,-187500.02235174447,1730330739.635424,1730330738.180279,6000
-560.1794195389056,-187500.02235174447,9418.063988454818,-187500.02235174447,-187500.02235174447,-187500.02235174447,-187500.02235174447,-187500.02235174447,1730330739.6395786,1730330738.180279,6000
-591.941248409897,-187500.02235174447,9324.23136523144,-187500.02235174447,-187500.02235174447,-187500.02235174447,-187500.02235174447,-187500.02235174447,1730330739.6436243,1730330738.180279,6000
-518.9851545077747,-187500.02235174447,9300.359702153171,-187500.02235174447,-187500.02235174447,-187500.02235174447,-187500.02235174447,-187500.02235174447,1730330739.647634,1730330738.180279,6000
-485.0552064246186,-187500.02235174447,9338.961164827486,-187500.02235174447,-187500.02235174447,-187500.02235174447,-187500.02235174447,-187500.02235174447,1730330739.6525495,1730330738.180279,6000
-560.0676608166291,-187500.02235174447,9397.880363211676,-187500.02235174447,-187500.02235174447,-187500.02235174447,-187500.02235174447,-187500.02235174447,1730330739.6565957,1730330738.180279,6000
-583.4699372613355,-187500.02235174447,9360.776467415866,-187500.02235174447,-187500.02235174447,-187500.02235174447,-187500.02235174447,-187500.02235174447,1730330739.6595712,1730330738.180279,6000
-501.6402008104564,-187500.02235174447,9326.757112354888,-187500.02235174447,-187500.02235174447,-187500.02235174447,-187500.02235174447,-187500.02235174447,1730330739.6635687,1730330738.180279,6000
-477.6344272654566,-187500.02235174447,9343.006830573897,-187500.02235174447,-187500.02235174447,-187500.02235174447,-187500.02235174447,-187500.02235174447,1730330739.6676517,1730330738.180279,6000
-521.1756254643948,-187500.02235174447,9384.80459270532,-187500.02235174447,-187500.02235174447,-187500.02235174447,-187500.02235174447,-187500.02235174447,1730330739.671417,1730330738.180279,6000
-588.4096727859584,-187500.02235174447,9400.696683013044,-187500.02235174447,-187500.02235174447,-187500.02235174447,-187500.02235174447,-187500.02235174447,1730330739.6766644,1730330738.180279,6000
-569.0530620876625,-187500.02235174447,9370.275958809372,-187500.02235174447,-187500.02235174447,-187500.02235174447,-187500.02235174447,-187500.02235174447,1730330739.6806862,1730330738.180279,6000
-478.77436623267727,-187500.02235174447,9313.927211037542,-187500.02235174447,-187500.02235174447,-187500.02235174447,-187500.02235174447,-187500.02235174447,1730330739.6845744,1730330738.180279,6000
-523.6566690989339,-187500.02235174447,9375.930950156564,-187500.02235174447,-187500.02235174447,-187500.02235174447,-187500.02235174447,-187500.02235174447,1730330739.6874328,1730330738.180279,6000
-625.2229959038492,-187500.02235174447,9395.712243999513,-187500.02235174447,-187500.02235174447,-187500.02235174447,-187500.02235174447,-187500.02235174447,1730330739.6915193,1730330738.180279,6000
-598.0209229017405,-187500.02235174447,9344.079714307753,-187500.02235174447,-187500.02235174447,-187500.02235174447,-187500.02235174447,-187500.02235174447,1730330739.6955376,1730330738.180279,6000
-491.40310184992575,-187500.02235174447,9322.599687886202,-187500.02235174447,-187500.02235174447,-187500.02235174447,-187500.02235174447,-187500.02235174447,1730330739.6996512,1730330738.180279,6000
-463.59753174752376,-187500.02235174447,9351.746362655922,-187500.02235174447,-187500.02235174447,-187500.02235174447,-187500.02235174447,-187500.02235174447,1730330739.7034657,1730330738.180279,6000
-553.5185996912242,-187500.02235174447,9344.839673619232,-187500.02235174447,-187500.02235174447,-187500.02235174447,-187500.02235174447,-187500.02235174447,1730330739.708541,1730330738.180279,6000
-590.7342542093104,-187500.02235174447,9327.159443755085,-187500.02235174447,-187500.02235174447,-187500.02235174447,-187500.02235174447,-187500.02235174447,1730330739.7125795,1730330738.180279,6000
-536.0618872716293,-187500.02235174447,9338.536481682837,-187500.02235174447,-187500.02235174447,-187500.02235174447,-187500.02235174447,-187500.02235174447,1730330739.7156887,1730330738.180279,6000
-516.3476486620484,-187500.02235174447,9380.602464747722,-187500.02235174447,-187500.02235174447,-187500.02235174447,-187500.02235174447,-187500.02235174447,1730330739.7195,1730330738.180279,6000
-594.4222920444361,-187500.02235174447,9395.19815387704,-187500.02235174447,-187500.02235174447,-187500.02235174447,-187500.02235174447,-187500.02235174447,1730330739.723717,1730330738.180279,6000
-648.1558857149942,-187500.02235174447,9385.318682827794,-187500.02235174447,-187500.02235174447,-187500.02235174447,-187500.02235174447,-187500.02235174447,1730330739.727724,1730330738.180279,6000
-543.169742008417,-187500.02235174447,9350.8075893888,-187500.02235174447,-187500.02235174447,-187500.02235174447,-187500.02235174447,-187500.02235174447,1730330739.7316575,1730330738.180279,6000
-451.21466531928365,-187500.02235174447,9333.395580458116,-187500.02235174447,-187500.02235174447,-187500.02235174447,-187500.02235174447,-187500.02235174447,1730330739.7366996,1730330738.180279,6000
-518.9851545077747,-187500.02235174447,9346.091371308728,-187500.02235174447,-187500.02235174447,-187500.02235174447,-187500.02235174447,-187500.02235174447,1730330739.740748,1730330738.180279,6000
-578.7984226701764,-187500.02235174447,9361.08939183824,-187500.02235174447,-187500.02235174447,-187500.02235174447,-187500.02235174447,-187500.02235174447,1730330739.7437446,1730330738.180279,6000
-529.781047079688,-187500.02235174447,9324.32077220926,-187500.02235174447,-187500.02235174447,-187500.02235174447,-187500.02235174447,-187500.02235174447,1730330739.7477024,1730330738.180279,6000
-483.4235290793811,-187500.02235174447,9305.321789422247,-187500.02235174447,-187500.02235174447,-187500.02235174447,-187500.02235174447,-187500.02235174447,1730330739.751711,1730330738.180279,6000
-539.1240762620064,-187500.02235174447,9360.798819160322,-187500.02235174447,-187500.02235174447,-187500.02235174447,-187500.02235174447,-187500.02235174447,1730330739.7557468,1730330738.180279,6000
-615.6117457880671,-187500.02235174447,9374.120458855685,-187500.02235174447,-187500.02235174447,-187500.02235174447,-187500.02235174447,-187500.02235174447,1730330739.7597148,1730330738.180279,6000
-578.6866639478999,-187500.02235174447,9353.959185356998,-187500.02235174447,-187500.02235174447,-187500.02235174447,-187500.02235174447,-187500.02235174447,1730330739.7648096,1730330738.180279,6000
-513.9560120053306,-187500.02235174447,9349.444132977023,-187500.02235174447,-187500.02235174447,-187500.02235174447,-187500.02235174447,-187500.02235174447,1730330739.7677426,1730330738.180279,6000
-544.2202739978163,-187500.02235174447,9376.266226323394,-187500.02235174447,-187500.02235174447,-187500.02235174447,-187500.02235174447,-187500.02235174447,1730330739.771742,1730330738.180279,6000
-602.9606584263634,-187500.02235174447,9367.75021168592,-187500.02235174447,-187500.02235174447,-187500.02235174447,-187500.02235174447,-187500.02235174447,1730330739.775746,1730330738.180279,6000
-564.7615271522435,-187500.02235174447,9326.757112354888,-187500.02235174447,-187500.02235174447,-187500.02235174447,-187500.02235174447,-187500.02235174447,1730330739.7796128,1730330738.180279,6000
-475.8462877090321,-187500.02235174447,9353.08746732324,-187500.02235174447,-187500.02235174447,-187500.02235174447,-187500.02235174447,-187500.02235174447,1730330739.7837312,1730330738.180279,6000
-493.1241861729844,-187500.02235174447,9361.312909282791,-187500.02235174447,-187500.02235174447,-187500.02235174447,-187500.02235174447,-187500.02235174447,1730330739.7876143,1730330738.180279,6000
-580.7430244377881,-187500.02235174447,9382.23414209296,-187500.02235174447,-187500.02235174447,-187500.02235174447,-187500.02235174447,-187500.02235174447,1730330739.792823,1730330738.180279,6000
-594.2434780887936,-187500.02235174447,9353.936833612544,-187500.02235174447,-187500.02235174447,-187500.02235174447,-187500.02235174447,-187500.02235174447,1730330739.795634,1730330738.180279,6000
-543.2815007306934,-187500.02235174447,9350.98640334444,-187500.02235174447,-187500.02235174447,-187500.02235174447,-187500.02235174447,-187500.02235174447,1730330739.7986865,1730330738.180279,6000
-495.0687879405961,-187500.02235174447,9359.301252281815,-187500.02235174447,-187500.02235174447,-187500.02235174447,-187500.02235174447,-187500.02235174447,1730330739.8036852,1730330738.180279,6000
-566.7508324087659,-187500.02235174447,9354.56268245729,-187500.02235174447,-187500.02235174447,-187500.02235174447,-187500.02235174447,-187500.02235174447,1730330739.8076968,1730330738.180279,6000
-604.8829084495197,-187500.02235174447,9365.738554684944,-187500.02235174447,-187500.02235174447,-187500.02235174447,-187500.02235174447,-187500.02235174447,1730330739.8117,1730330738.180279,6000
-546.3436897210705,-187500.02235174447,9369.024261119874,-187500.02235174447,-187500.02235174447,-187500.02235174447,-187500.02235174447,-187500.02235174447,1730330739.8158772,1730330738.180279,6000
-509.2621456697161,-187500.02235174447,9407.312799371815,-187500.02235174447,-187500.02235174447,-187500.02235174447,-187500.02235174447,-187500.02235174447,1730330739.8208015,1730330738.180279,6000
-516.6829248288781,-187500.02235174447,9352.841598134231,-187500.02235174447,-187500.02235174447,-187500.02235174447,-187500.02235174447,-187500.02235174447,1730330739.8238697,1730330738.180279,6000
-565.7450039082771,-187500.02235174447,9326.8018158438,-187500.02235174447,-187500.02235174447,-187500.02235174447,-187500.02235174447,-187500.02235174447,1730330739.8268735,1730330738.180279,6000
-529.1104947460287,-187500.02235174447,9342.246871262416,-187500.02235174447,-187500.02235174447,-187500.02235174447,-187500.02235174447,-187500.02235174447,1730330739.831018,1730330738.180279,6000
-498.33214263107095,-187500.02235174447,9379.95426415852,-187500.02235174447,-187500.02235174447,-187500.02235174447,-187500.02235174447,-187500.02235174447,1730330739.8358085,1730330738.180279,6000
-586.1297948515171,-187500.02235174447,9460.5323029199,-187500.02235174447,-187500.02235174447,-187500.02235174447,-187500.02235174447,-187500.02235174447,1730330739.8398528,1730330738.180279,6000
-596.3668938120477,-187500.02235174447,9399.780261490378,-187500.02235174447,-187500.02235174447,-187500.02235174447,-187500.02235174447,-187500.02235174447,1730330739.8439176,1730330738.180279,6000
-525.4224569109031,-187500.02235174447,9295.151745695084,-187500.02235174447,-187500.02235174447,-187500.02235174447,-187500.02235174447,-187500.02235174447,1730330739.847898,1730330738.180279,6000
-489.14557565993977,-187500.02235174447,9349.019449832374,-187500.02235174447,-187500.02235174447,-187500.02235174447,-187500.02235174447,-187500.02235174447,1730330739.8518991,1730330738.180279,6000
-533.2455674702605,-187500.02235174447,9386.749194472934,-187500.02235174447,-187500.02235174447,-187500.02235174447,-187500.02235174447,-187500.02235174447,1730330739.854746,1730330738.180279,6000
-613.6447922760001,-187500.02235174447,9418.19809892155,-187500.02235174447,-187500.02235174447,-187500.02235174447,-187500.02235174447,-187500.02235174447,1730330739.8599267,1730330738.180279,6000
-590.711902464855,-187500.02235174447,9378.970787402486,-187500.02235174447,-187500.02235174447,-187500.02235174447,-187500.02235174447,-187500.02235174447,1730330739.8638732,1730330738.180279,6000
-486.105738414018,-187500.02235174447,9349.265319021382,-187500.02235174447,-187500.02235174447,-187500.02235174447,-187500.02235174447,-187500.02235174447,1730330739.8678837,1730330738.180279,6000
-487.200973892328,-187500.02235174447,9377.875551924177,-187500.02235174447,-187500.02235174447,-187500.02235174447,-187500.02235174447,-187500.02235174447,1730330739.8718092,1730330738.180279,6000
-581.4582802603579,-187500.02235174447,9373.248740821928,-187500.02235174447,-187500.02235174447,-187500.02235174447,-187500.02235174447,-187500.02235174447,1730330739.8748896,1730330738.180279,6000
-606.067550905651,-187500.02235174447,9374.388679789148,-187500.02235174447,-187500.02235174447,-187500.02235174447,-187500.02235174447,-187500.02235174447,1730330739.8788588,1730330738.180279,6000
-529.6469366129562,-187500.02235174447,9413.906563986133,-187500.02235174447,-187500.02235174447,-187500.02235174447,-187500.02235174447,-187500.02235174447,1730330739.8828971,1730330738.180279,6000
-494.4429390958475,-187500.02235174447,9392.113613142206,-187500.02235174447,-187500.02235174447,-187500.02235174447,-187500.02235174447,-187500.02235174447,1730330739.886722,1730330738.180279,6000
-602.2006991148829,-187500.02235174447,9451.278680715404,-187500.02235174447,-187500.02235174447,-187500.02235174447,-187500.02235174447,-187500.02235174447,1730330739.891936,1730330738.180279,6000
-604.5476322826901,-187500.02235174447,9406.508136571423,-187500.02235174447,-187500.02235174447,-187500.02235174447,-187500.02235174447,-187500.02235174447,1730330739.8957455,1730330738.180279,6000
-494.3758838624816,-187500.02235174447,9345.599632930713,-187500.02235174447,-187500.02235174447,-187500.02235174447,-187500.02235174447,-187500.02235174447,1730330739.89979,1730330738.180279,6000
-475.0192731641857,-187500.02235174447,9341.33044973975,-187500.02235174447,-187500.02235174447,-187500.02235174447,-187500.02235174447,-187500.02235174447,1730330739.9029531,1730330738.180279,6000
-567.2425707867826,-187500.02235174447,9375.439211778548,-187500.02235174447,-187500.02235174447,-187500.02235174447,-187500.02235174447,-187500.02235174447,1730330739.9070032,1730330738.180279,6000
-601.552498525679,-187500.02235174447,9364.397450017626,-187500.02235174447,-187500.02235174447,-187500.02235174447,-187500.02235174447,-187500.02235174447,1730330739.9108765,1730330738.180279,6000
-543.7955908531655,-187500.02235174447,9388.023243906886,-187500.02235174447,-187500.02235174447,-187500.02235174447,-187500.02235174447,-187500.02235174447,1730330739.9150355,1730330738.180279,6000
-518.2028434518389,-187500.02235174447,9459.63823314169,-187500.02235174447,-187500.02235174447,-187500.02235174447,-187500.02235174447,-187500.02235174447,1730330739.9200714,1730330738.180279,6000
-592.6341524880114,-187500.02235174447,9451.524549904412,-187500.02235174447,-187500.02235174447,-187500.02235174447,-187500.02235174447,-187500.02235174447,1730330739.9239242,1730330738.180279,6000
-588.6331902305114,-187500.02235174447,9341.956298584497,-187500.02235174447,-187500.02235174447,-187500.02235174447,-187500.02235174447,-187500.02235174447,1730330739.9279687,1730330738.180279,6000
-519.6110033525233,-187500.02235174447,9323.091426264218,-187500.02235174447,-187500.02235174447,-187500.02235174447,-187500.02235174447,-187500.02235174447,1730330739.930915,1730330738.180279,6000
-486.64218028094535,-187500.02235174447,9394.013511420908,-187500.02235174447,-187500.02235174447,-187500.02235174447,-187500.02235174447,-187500.02235174447,1730330739.935012,1730330738.180279,6000
-555.9102363479419,-187500.02235174447,9456.01725053993,-187500.02235174447,-187500.02235174447,-187500.02235174447,-187500.02235174447,-187500.02235174447,1730330739.938974,1730330738.180279,6000
-586.487422762802,-187500.02235174447,9420.67914255609,-187500.02235174447,-187500.02235174447,-187500.02235174447,-187500.02235174447,-187500.02235174447,1730330739.942992,1730330738.180279,6000
-542.9015210749533,-187500.02235174447,9376.400336790126,-187500.02235174447,-187500.02235174447,-187500.02235174447,-187500.02235174447,-187500.02235174447,1730330739.9480293,1730330738.180279,6000
-477.3438545875376,-187500.02235174447,9352.215749289484,-187500.02235174447,-187500.02235174447,-187500.02235174447,-187500.02235174447,-187500.02235174447,1730330739.9520557,1730330738.180279,6000
-506.9822677352748,-187500.02235174447,9403.892982470154,-187500.02235174447,-187500.02235174447,-187500.02235174447,-187500.02235174447,-187500.02235174447,1730330739.9560504,1730330738.180279,6000
-594.2881815777042,-187500.02235174447,9437.219433453016,-187500.02235174447,-187500.02235174447,-187500.02235174447,-187500.02235174447,-187500.02235174447,1730330739.9591038,1730330738.180279,6000
-583.9616756393523,-187500.02235174447,9429.48572987148,-187500.02235174447,-187500.02235174447,-187500.02235174447,-187500.02235174447,-187500.02235174447,1730330739.9629495,1730330738.180279,6000
-503.38363687797033,-187500.02235174447,9350.964051599984,-187500.02235174447,-187500.02235174447,-187500.02235174447,-187500.02235174447,-187500.02235174447,1730330739.966976,1730330738.180279,6000
-500.2543926542274,-187500.02235174447,9369.918330898086,-187500.02235174447,-187500.02235174447,-187500.02235174447,-187500.02235174447,-187500.02235174447,1730330739.9708936,1730330738.180279,6000
-597.4844810348131,-187500.02235174447,9396.80747947782,-187500.02235174447,-187500.02235174447,-187500.02235174447,-187500.02235174447,-187500.02235174447,1730330739.9749508,1730330738.180279,6000
-586.8226989296317,-187500.02235174447,9355.501455724414,-187500.02235174447,-187500.02235174447,-187500.02235174447,-187500.02235174447,-187500.02235174447,1730330739.9799564,1730330738.180279,6000
-517.5993463515457,-187500.02235174447,9377.42851703507,-187500.02235174447,-187500.02235174447,-187500.02235174447,-187500.02235174447,-187500.02235174447,1730330739.9840765,1730330738.180279,6000
-563.8004021406654,-187500.02235174447,9476.759669394454,-187500.02235174447,-187500.02235174447,-187500.02235174447,-187500.02235174447,-187500.02235174447,1730330739.9869587,1730330738.180279,6000
-575.0433296016848,-187500.02235174447,9402.86480222521,-187500.02235174447,-187500.02235174447,-187500.02235174447,-187500.02235174447,-187500.02235174447,1730330739.9910717,1730330738.180279,6000
-545.3155094761264,-187500.02235174447,9310.529745880336,-187500.02235174447,-187500.02235174447,-187500.02235174447,-187500.02235174447,-187500.02235174447,1730330739.9949548,1730330738.180279,6000
-519.7004103303445,-187500.02235174447,9385.318682827794,-187500.02235174447,-187500.02235174447,-187500.02235174447,-187500.02235174447,-187500.02235174447,1730330739.9990225,1730330738.180279,6000
-502.10958744401785,-187500.02235174447,9395.57813353278,-187500.02235174447,-187500.02235174447,-187500.02235174447,-187500.02235174447,-187500.02235174447,1730330740.003199,1730330738.180279,6000
-570.9976638552743,-187500.02235174447,9377.964958901995,-187500.02235174447,-187500.02235174447,-187500.02235174447,-187500.02235174447,-187500.02235174447,1730330740.0082638,1730330738.180279,6000
-608.9732776848409,-187500.02235174447,9382.94939791553,-187500.02235174447,-187500.02235174447,-187500.02235174447,-187500.02235174447,-187500.02235174447,1730330740.0109937,1730330738.180279,6000
-537.5818058945902,-187500.02235174447,9332.27799323535,-187500.02235174447,-187500.02235174447,-187500.02235174447,-187500.02235174447,-187500.02235174447,1730330740.015204,1730330738.180279,6000
-490.1961076493392,-187500.02235174447,9370.6112349762,-187500.02235174447,-187500.02235174447,-187500.02235174447,-187500.02235174447,-187500.02235174447,1730330740.0191803,1730330738.180279,6000
-567.3096260201486,-187500.02235174447,9401.881325469176,-187500.02235174447,-187500.02235174447,-187500.02235174447,-187500.02235174447,-187500.02235174447,1730330740.0232384,1730330738.180279,6000
-626.1617691709721,-187500.02235174447,9397.120403900197,-187500.02235174447,-187500.02235174447,-187500.02235174447,-187500.02235174447,-187500.02235174447,1730330740.0271854,1730330738.180279,6000
-541.068678029618,-187500.02235174447,9383.441136293548,-187500.02235174447,-187500.02235174447,-187500.02235174447,-187500.02235174447,-187500.02235174447,1730330740.0310404,1730330738.180279,6000
-504.3894653784592,-187500.02235174447,9404.921162715098,-187500.02235174447,-187500.02235174447,-187500.02235174447,-187500.02235174447,-187500.02235174447,1730330740.0360184,1730330738.180279,6000
-600.4349113029136,-187500.02235174447,9442.33798293328,-187500.02235174447,-187500.02235174447,-187500.02235174447,-187500.02235174447,-187500.02235174447,1730330740.0391831,1730330738.180279,6000
-586.5321262517126,-187500.02235174447,9331.8533100907,-187500.02235174447,-187500.02235174447,-187500.02235174447,-187500.02235174447,-187500.02235174447,1730330740.0432024,1730330738.180279,6000
-524.1931109658613,-187500.02235174447,9276.152762908074,-187500.02235174447,-187500.02235174447,-187500.02235174447,-187500.02235174447,-187500.02235174447,1730330740.0472124,1730330738.180279,6000
-482.21653487879456,-187500.02235174447,9329.08169377824,-187500.02235174447,-187500.02235174447,-187500.02235174447,-187500.02235174447,-187500.02235174447,1730330740.0510917,1730330738.180279,6000
-517.040552740163,-187500.02235174447,9377.048537379327,-187500.02235174447,-187500.02235174447,-187500.02235174447,-187500.02235174447,-187500.02235174447,1730330740.055166,1730330738.180279,6000
-589.7284257088215,-187500.02235174447,9374.85806642271,-187500.02235174447,-187500.02235174447,-187500.02235174447,-187500.02235174447,-187500.02235174447,1730330740.0591867,1730330738.180279,6000
-583.1570128389612,-187500.02235174447,9356.23906329144,-187500.02235174447,-187500.02235174447,-187500.02235174447,-187500.02235174447,-187500.02235174447,1730330740.0642612,1730330738.180279,6000
-548.6459193999672,-187500.02235174447,9411.470223840504,-187500.02235174447,-187500.02235174447,-187500.02235174447,-187500.02235174447,-187500.02235174447,1730330740.067215,1730330738.180279,6000
-531.1668552359171,-187500.02235174447,9436.794750308363,-187500.02235174447,-187500.02235174447,-187500.02235174447,-187500.02235174447,-187500.02235174447,1730330740.0710497,1730330738.180279,6000
-581.1453558379836,-187500.02235174447,9344.012659074386,-187500.02235174447,-187500.02235174447,-187500.02235174447,-187500.02235174447,-187500.02235174447,1730330740.0752735,1730330738.180279,6000
-578.4854982478021,-187500.02235174447,9314.061321504274,-187500.02235174447,-187500.02235174447,-187500.02235174447,-187500.02235174447,-187500.02235174447,1730330740.0790503,1730330738.180279,6000
-519.0522097411406,-187500.02235174447,9344.32558349676,-187500.02235174447,-187500.02235174447,-187500.02235174447,-187500.02235174447,-187500.02235174447,1730330740.0832727,1730330738.180279,6000
-496.4769478412805,-187500.02235174447,9356.12730456916,-187500.02235174447,-187500.02235174447,-187500.02235174447,-187500.02235174447,-187500.02235174447,1730330740.0871065,1730330738.180279,6000
-572.1152510780396,-187500.02235174447,9377.42851703507,-187500.02235174447,-187500.02235174447,-187500.02235174447,-187500.02235174447,-187500.02235174447,1730330740.0923383,1730330738.180279,6000
-581.3018180491708,-187500.02235174447,9365.112705840196,-187500.02235174447,-187500.02235174447,-187500.02235174447,-187500.02235174447,-187500.02235174447,1730330740.0950725,1730330738.180279,6000
-518.716933574311,-187500.02235174447,9365.939720385042,-187500.02235174447,-187500.02235174447,-187500.02235174447,-187500.02235174447,-187500.02235174447,1730330740.0993376,1730330738.180279,6000
-513.3078114161267,-187500.02235174447,9393.38766257616,-187500.02235174447,-187500.02235174447,-187500.02235174447,-187500.02235174447,-187500.02235174447,1730330740.103319,1730330738.180279,6000
-558.2571695157492,-187500.02235174447,9386.033938650364,-187500.02235174447,-187500.02235174447,-187500.02235174447,-187500.02235174447,-187500.02235174447,1730330740.1073186,1730330738.180279,6000
-580.2065825708607,-187500.02235174447,9362.765772672388,-187500.02235174447,-187500.02235174447,-187500.02235174447,-187500.02235174447,-187500.02235174447,1730330740.1112144,1730330738.180279,6000
-550.2775967452046,-187500.02235174447,9340.190510772529,-187500.02235174447,-187500.02235174447,-187500.02235174447,-187500.02235174447,-187500.02235174447,1730330740.1153543,1730330738.180279,6000
-505.4399973678586,-187500.02235174447,9355.926138869065,-187500.02235174447,-187500.02235174447,-187500.02235174447,-187500.02235174447,-187500.02235174447,1730330740.1193223,1730330738.180279,6000
-536.6430326274673,-187500.02235174447,9379.708394969512,-187500.02235174447,-187500.02235174447,-187500.02235174447,-187500.02235174447,-187500.02235174447,1730330740.1222637,1730330738.180279,6000
-588.4767280193244,-187500.02235174447,9351.388734744636,-187500.02235174447,-187500.02235174447,-187500.02235174447,-187500.02235174447,-187500.02235174447,1730330740.1263356,1730330738.180279,6000
-558.3018730046598,-187500.02235174447,9347.030144575852,-187500.02235174447,-187500.02235174447,-187500.02235174447,-187500.02235174447,-187500.02235174447,1730330740.131251,1730330738.180279,6000
-506.1552531904284,-187500.02235174447,9367.95137738602,-187500.02235174447,-187500.02235174447,-187500.02235174447,-187500.02235174447,-187500.02235174447,1730330740.1351624,1730330738.180279,6000
-513.91130851642,-187500.02235174447,9372.600540232725,-187500.02235174447,-187500.02235174447,-187500.02235174447,-187500.02235174447,-187500.02235174447,1730330740.1393704,1730330738.180279,6000
-597.9985711572851,-187500.02235174447,9382.971749659986,-187500.02235174447,-187500.02235174447,-187500.02235174447,-187500.02235174447,-187500.02235174447,1730330740.1432903,1730330738.180279,6000
-552.199846768361,-187500.02235174447,9329.104045522696,-187500.02235174447,-187500.02235174447,-187500.02235174447,-187500.02235174447,-187500.02235174447,1730330740.1462457,1730330738.180279,6000
-510.8938230149535,-187500.02235174447,9347.23131027595,-187500.02235174447,-187500.02235174447,-187500.02235174447,-187500.02235174447,-187500.02235174447,1730330740.150294,1730330738.180279,6000
-570.5282772217128,-187500.02235174447,9419.650962311143,-187500.02235174447,-187500.02235174447,-187500.02235174447,-187500.02235174447,-187500.02235174447,1730330740.154173,1730330738.180279,6000
-605.0617224051622,-187500.02235174447,9402.57422954729,-187500.02235174447,-187500.02235174447,-187500.02235174447,-187500.02235174447,-187500.02235174447,1730330740.159381,1730330738.180279,6000
-578.3960912699808,-187500.02235174447,9328.522900166858,-187500.02235174447,-187500.02235174447,-187500.02235174447,-187500.02235174447,-187500.02235174447,1730330740.163349,1730330738.180279,6000
-515.7217998172998,-187500.02235174447,9316.184737227528,-187500.02235174447,-187500.02235174447,-187500.02235174447,-187500.02235174447,-187500.02235174447,1730330740.1673143,1730330738.180279,6000
-486.1727936473839,-187500.02235174447,9334.22259500296,-187500.02235174447,-187500.02235174447,-187500.02235174447,-187500.02235174447,-187500.02235174447,1730330740.17129,1730330738.180279,6000
-557.5642654376347,-187500.02235174447,9331.47333043496,-187500.02235174447,-187500.02235174447,-187500.02235174447,-187500.02235174447,-187500.02235174447,1730330740.1754196,1730330738.180279,6000
-581.0559488601624,-187500.02235174447,9307.355798167682,-187500.02235174447,-187500.02235174447,-187500.02235174447,-187500.02235174447,-187500.02235174447,1730330740.1782317,1730330738.180279,6000
-526.9647272783193,-187500.02235174447,9337.597708415711,-187500.02235174447,-187500.02235174447,-187500.02235174447,-187500.02235174447,-187500.02235174447,1730330740.1824653,1730330738.180279,6000
-506.6693433129005,-187500.02235174447,9402.216601636006,-187500.02235174447,-187500.02235174447,-187500.02235174447,-187500.02235174447,-187500.02235174447,1730330740.1867604,1730330738.180279,6000
-588.6108384860562,-187500.02235174447,9439.275793942905,-187500.02235174447,-187500.02235174447,-187500.02235174447,-187500.02235174447,-187500.02235174447,1730330740.1912556,1730330738.180279,6000
-623.7254290253436,-187500.02235174447,9349.153560299106,-187500.02235174447,-187500.02235174447,-187500.02235174447,-187500.02235174447,-187500.02235174447,1730330740.195285,1730330738.180279,6000
-519.879224285987,-187500.02235174447,9288.714443291956,-187500.02235174447,-187500.02235174447,-187500.02235174447,-187500.02235174447,-187500.02235174447,1730330740.199236,1730330738.180279,6000
-515.9676690063083,-187500.02235174447,9398.550915545336,-187500.02235174447,-187500.02235174447,-187500.02235174447,-187500.02235174447,-187500.02235174447,1730330740.2024095,1730330738.180279,6000
-584.6098762285562,-187500.02235174447,9434.403113651648,-187500.02235174447,-187500.02235174447,-187500.02235174447,-187500.02235174447,-187500.02235174447,1730330740.2064414,1730330738.180279,6000
-592.6341524880114,-187500.02235174447,9301.253771931384,-187500.02235174447,-187500.02235174447,-187500.02235174447,-187500.02235174447,-187500.02235174447,1730330740.2103796,1730330738.180279,6000
-538.7888000951767,-187500.02235174447,9310.239173202415,-187500.02235174447,-187500.02235174447,-187500.02235174447,-187500.02235174447,-187500.02235174447,1730330740.2144892,1730330738.180279,6000
-473.8346307080544,-187500.02235174447,9338.871757849663,-187500.02235174447,-187500.02235174447,-187500.02235174447,-187500.02235174447,-187500.02235174447,1730330740.219488,1730330738.180279,6000
-533.2455674702605,-187500.02235174447,9349.153560299106,-187500.02235174447,-187500.02235174447,-187500.02235174447,-187500.02235174447,-187500.02235174447,1730330740.2234535,1730330738.180279,6000
-601.1278153810282,-187500.02235174447,9355.70262142451,-187500.02235174447,-187500.02235174447,-187500.02235174447,-187500.02235174447,-187500.02235174447,1730330740.227456,1730330738.180279,6000
-552.8033438686542,-187500.02235174447,9333.46263569148,-187500.02235174447,-187500.02235174447,-187500.02235174447,-187500.02235174447,-187500.02235174447,1730330740.2304173,1730330738.180279,6000
-480.56250578910186,-187500.02235174447,9358.317775525782,-187500.02235174447,-187500.02235174447,-187500.02235174447,-187500.02235174447,-187500.02235174447,1730330740.2345204,1730330738.180279,6000
-543.4826664307913,-187500.02235174447,9387.755022973422,-187500.02235174447,-187500.02235174447,-187500.02235174447,-187500.02235174447,-187500.02235174447,1730330740.2384458,1730330738.180279,6000
-604.0782456491287,-187500.02235174447,9368.130191341665,-187500.02235174447,-187500.02235174447,-187500.02235174447,-187500.02235174447,-187500.02235174447,1730330740.2424517,1730330738.180279,6000
-562.6381114289894,-187500.02235174447,9347.968917842974,-187500.02235174447,-187500.02235174447,-187500.02235174447,-187500.02235174447,-187500.02235174447,1730330740.2474515,1730330738.180279,6000
-511.31850615960434,-187500.02235174447,9392.180668375571,-187500.02235174447,-187500.02235174447,-187500.02235174447,-187500.02235174447,-187500.02235174447,1730330740.2513418,1730330738.180279,6000
-595.003437400274,-187500.02235174447,9484.806297398363,-187500.02235174447,-187500.02235174447,-187500.02235174447,-187500.02235174447,-187500.02235174447,1730330740.255524,1730330738.180279,6000
-585.7721669402322,-187500.02235174447,9371.19238033204,-187500.02235174447,-187500.02235174447,-187500.02235174447,-187500.02235174447,-187500.02235174447,1730330740.2585642,1730330738.180279,6000
-509.7762357921882,-187500.02235174447,9255.745620220378,-187500.02235174447,-187500.02235174447,-187500.02235174447,-187500.02235174447,-187500.02235174447,1730330740.2623615,1730330738.180279,6000
-477.9697034322862,-187500.02235174447,9306.439376645014,-187500.02235174447,-187500.02235174447,-187500.02235174447,-187500.02235174447,-187500.02235174447,1730330740.2665772,1730330738.180279,6000
-491.0454739386408,-187500.02235174447,9367.459639008002,-187500.02235174447,-187500.02235174447,-187500.02235174447,-187500.02235174447,-187500.02235174447,1730330740.2703836,1730330738.180279,6000
-581.97237038283,-187500.02235174447,9376.132115856662,-187500.02235174447,-187500.02235174447,-187500.02235174447,-187500.02235174447,-187500.02235174447,1730330740.2755663,1730330738.180279,6000
-600.3455043250924,-187500.02235174447,9360.016508104383,-187500.02235174447,-187500.02235174447,-187500.02235174447,-187500.02235174447,-187500.02235174447,1730330740.279464,1730330738.180279,6000
-545.7401926207773,-187500.02235174447,9373.204037333016,-187500.02235174447,-187500.02235174447,-187500.02235174447,-187500.02235174447,-187500.02235174447,1730330740.2825637,1730330738.180279,6000
-517.8228637960988,-187500.02235174447,9404.63059003718,-187500.02235174447,-187500.02235174447,-187500.02235174447,-187500.02235174447,-187500.02235174447,1730330740.286481,1730330738.180279,6000
-554.5020764472577,-187500.02235174447,9381.988272903953,-187500.02235174447,-187500.02235174447,-187500.02235174447,-187500.02235174447,-187500.02235174447,1730330740.290584,1730330738.180279,6000
-578.3960912699808,-187500.02235174447,9309.210992957473,-187500.02235174447,-187500.02235174447,-187500.02235174447,-187500.02235174447,-187500.02235174447,1730330740.294698,1730330738.180279,6000
-532.329145947593,-187500.02235174447,9347.052496320308,-187500.02235174447,-187500.02235174447,-187500.02235174447,-187500.02235174447,-187500.02235174447,1730330740.298624,1730330738.180279,6000
-525.3554016775372,-187500.02235174447,9460.375840708712,-187500.02235174447,-187500.02235174447,-187500.02235174447,-187500.02235174447,-187500.02235174447,1730330740.3026433,1730330738.180279,6000
-570.6623876884446,-187500.02235174447,9402.708340014022,-187500.02235174447,-187500.02235174447,-187500.02235174447,-187500.02235174447,-187500.02235174447,1730330740.307595,1730330738.180279,6000
-591.8294896876204,-187500.02235174447,9298.862135274663,-187500.02235174447,-187500.02235174447,-187500.02235174447,-187500.02235174447,-187500.02235174447,1730330740.310581,1730330738.180279,6000
-528.037611012174,-187500.02235174447,9316.944696539009,-187500.02235174447,-187500.02235174447,-187500.02235174447,-187500.02235174447,-187500.02235174447,1730330740.3146243,1730330738.180279,6000
-480.6966162558337,-187500.02235174447,9365.425630262567,-187500.02235174447,-187500.02235174447,-187500.02235174447,-187500.02235174447,-187500.02235174447,1730330740.3186245,1730330738.180279,6000
-535.2348727267829,-187500.02235174447,9389.721976485487,-187500.02235174447,-187500.02235174447,-187500.02235174447,-187500.02235174447,-187500.02235174447,1730330740.3227,1730330738.180279,6000
-619.0539144341844,-187500.02235174447,9379.797801947332,-187500.02235174447,-187500.02235174447,-187500.02235174447,-187500.02235174447,-187500.02235174447,1730330740.3266883,1730330738.180279,6000
-594.3328850666148,-187500.02235174447,9388.157354373618,-187500.02235174447,-187500.02235174447,-187500.02235174447,-187500.02235174447,-187500.02235174447,1730330740.3306203,1730330738.180279,6000
-508.9268695028865,-187500.02235174447,9357.17783655856,-187500.02235174447,-187500.02235174447,-187500.02235174447,-187500.02235174447,-187500.02235174447,1730330740.3355672,1730330738.180279,6000
-499.6061920650235,-187500.02235174447,9335.27312699236,-187500.02235174447,-187500.02235174447,-187500.02235174447,-187500.02235174447,-187500.02235174447,1730330740.3385727,1730330738.180279,6000
-575.8032889131653,-187500.02235174447,9351.500493466914,-187500.02235174447,-187500.02235174447,-187500.02235174447,-187500.02235174447,-187500.02235174447,1730330740.342605,1730330738.180279,6000
-566.7284806643106,-187500.02235174447,9346.158426542095,-187500.02235174447,-187500.02235174447,-187500.02235174447,-187500.02235174447,-187500.02235174447,1730330740.3466673,1730330738.180279,6000
-530.876282557998,-187500.02235174447,9392.180668375571,-187500.02235174447,-187500.02235174447,-187500.02235174447,-187500.02235174447,-187500.02235174447,1730330740.3506851,1730330738.180279,6000
-547.5953874105677,-187500.02235174447,9449.378782436705,-187500.02235174447,-187500.02235174447,-187500.02235174447,-187500.02235174447,-187500.02235174447,1730330740.354652,1730330738.180279,6000
-608.3027253511817,-187500.02235174447,9386.52567702838,-187500.02235174447,-187500.02235174447,-187500.02235174447,-187500.02235174447,-187500.02235174447,1730330740.358502,1730330738.180279,6000
-594.9140304224528,-187500.02235174447,9333.730856624945,-187500.02235174447,-187500.02235174447,-187500.02235174447,-187500.02235174447,-187500.02235174447,1730330740.362537,1730330738.180279,6000
-505.4623491123139,-187500.02235174447,9358.98832785944,-187500.02235174447,-187500.02235174447,-187500.02235174447,-187500.02235174447,-187500.02235174447,1730330740.3657556,1730330738.180279,6000
-527.9035005454422,-187500.02235174447,9385.877476439176,-187500.02235174447,-187500.02235174447,-187500.02235174447,-187500.02235174447,-187500.02235174447,1730330740.3705397,1730330738.180279,6000
-595.4728240338354,-187500.02235174447,9358.764810414888,-187500.02235174447,-187500.02235174447,-187500.02235174447,-187500.02235174447,-187500.02235174447,1730330740.3746157,1730330738.180279,6000
-597.9538676683745,-187500.02235174447,9357.5578162143,-187500.02235174447,-187500.02235174447,-187500.02235174447,-187500.02235174447,-187500.02235174447,1730330740.378543,1730330738.180279,6000
-519.0298579966853,-187500.02235174447,9341.822188117763,-187500.02235174447,-187500.02235174447,-187500.02235174447,-187500.02235174447,-187500.02235174447,1730330740.3827145,1730330738.180279,6000
-458.3895752894372,-187500.02235174447,9308.160460968073,-187500.02235174447,-187500.02235174447,-187500.02235174447,-187500.02235174447,-187500.02235174447,1730330740.3865197,1730330738.180279,6000
-554.3903177249811,-187500.02235174447,9357.66957493658,-187500.02235174447,-187500.02235174447,-187500.02235174447,-187500.02235174447,-187500.02235174447,1730330740.3906336,1730330738.180279,6000
-593.4835187773132,-187500.02235174447,9367.19141807454,-187500.02235174447,-187500.02235174447,-187500.02235174447,-187500.02235174447,-187500.02235174447,1730330740.393605,1730330738.180279,6000
-531.7256488472997,-187500.02235174447,9381.697700226034,-187500.02235174447,-187500.02235174447,-187500.02235174447,-187500.02235174447,-187500.02235174447,1730330740.3977172,1730330738.180279,6000
-495.9628577188085,-187500.02235174447,9387.799726462332,-187500.02235174447,-187500.02235174447,-187500.02235174447,-187500.02235174447,-187500.02235174447,1730330740.4027874,1730330738.180279,6000
-558.4359834713916,-187500.02235174447,9367.973729130475,-187500.02235174447,-187500.02235174447,-187500.02235174447,-187500.02235174447,-187500.02235174447,1730330740.4066267,1730330738.180279,6000
-598.2444403462936,-187500.02235174447,9350.874644622165,-187500.02235174447,-187500.02235174447,-187500.02235174447,-187500.02235174447,-187500.02235174447,1730330740.410732,1730330738.180279,6000
-545.5390269206795,-187500.02235174447,9367.034955863352,-187500.02235174447,-187500.02235174447,-187500.02235174447,-187500.02235174447,-187500.02235174447,1730330740.4147468,1730330738.180279,6000
-504.27770665618266,-187500.02235174447,9381.541238014846,-187500.02235174447,-187500.02235174447,-187500.02235174447,-187500.02235174447,-187500.02235174447,1730330740.4186194,1730330738.180279,6000
-534.6760791154003,-187500.02235174447,9371.95233964352,-187500.02235174447,-187500.02235174447,-187500.02235174447,-187500.02235174447,-187500.02235174447,1730330740.4217825,1730330738.180279,6000
-612.5942602866006,-187500.02235174447,9372.399374532626,-187500.02235174447,-187500.02235174447,-187500.02235174447,-187500.02235174447,-187500.02235174447,1730330740.426736,1730330738.180279,6000
-594.3105333221595,-187500.02235174447,9415.694703542556,-187500.02235174447,-187500.02235174447,-187500.02235174447,-187500.02235174447,-187500.02235174447,1730330740.430711,1730330738.180279,6000
-505.6411630679564,-187500.02235174447,9373.561665244302,-187500.02235174447,-187500.02235174447,-187500.02235174447,-187500.02235174447,-187500.02235174447,1730330740.4347444,1730330738.180279,6000
-504.4565206118251,-187500.02235174447,9360.083563337752,-187500.02235174447,-187500.02235174447,-187500.02235174447,-187500.02235174447,-187500.02235174447,1730330740.43889,1730330738.180279,6000
-611.1413968970057,-187500.02235174447,9405.09997667074,-187500.02235174447,-187500.02235174447,-187500.02235174447,-187500.02235174447,-187500.02235174447,1730330740.442845,1730330738.180279,6000
-579.1113470925507,-187500.02235174447,9348.751228898913,-187500.02235174447,-187500.02235174447,-187500.02235174447,-187500.02235174447,-187500.02235174447,1730330740.4468768,1730330738.180279,6000
-510.6703055704005,-187500.02235174447,9381.72005197049,-187500.02235174447,-187500.02235174447,-187500.02235174447,-187500.02235174447,-187500.02235174447,1730330740.4498725,1730330738.180279,6000
-528.7975703236544,-187500.02235174447,9415.314723886817,-187500.02235174447,-187500.02235174447,-187500.02235174447,-187500.02235174447,-187500.02235174447,1730330740.4536564,1730330738.180279,6000
-575.3115505351485,-187500.02235174447,9389.14083112965,-187500.02235174447,-187500.02235174447,-187500.02235174447,-187500.02235174447,-187500.02235174447,1730330740.4588468,1730330738.180279,6000
-564.2027335408609,-187500.02235174447,9321.593859385714,-187500.02235174447,-187500.02235174447,-187500.02235174447,-187500.02235174447,-187500.02235174447,1730330740.4628303,1730330738.180279,6000
-513.8442532830541,-187500.02235174447,9320.02923727384,-187500.02235174447,-187500.02235174447,-187500.02235174447,-187500.02235174447,-187500.02235174447,1730330740.4667473,1730330738.180279,6000
-509.75388404773287,-187500.02235174447,9375.528618756369,-187500.02235174447,-187500.02235174447,-187500.02235174447,-187500.02235174447,-187500.02235174447,1730330740.4707477,1730330738.180279,6000
-603.8770799490309,-187500.02235174447,9389.833735207763,-187500.02235174447,-187500.02235174447,-187500.02235174447,-187500.02235174447,-187500.02235174447,1730330740.474924,1730330738.180279,6000
-633.1578651854832,-187500.02235174447,9393.00768292042,-187500.02235174447,-187500.02235174447,-187500.02235174447,-187500.02235174447,-187500.02235174447,1730330740.477963,1730330738.180279,6000
-547.975367066308,-187500.02235174447,9368.353708786217,-187500.02235174447,-187500.02235174447,-187500.02235174447,-187500.02235174447,-187500.02235174447,1730330740.4818556,1730330738.180279,6000
-518.3593056630261,-187500.02235174447,9373.561665244302,-187500.02235174447,-187500.02235174447,-187500.02235174447,-187500.02235174447,-187500.02235174447,1730330740.4867456,1730330738.180279,6000
-539.973442551308,-187500.02235174447,9375.975653645475,-187500.02235174447,-187500.02235174447,-187500.02235174447,-187500.02235174447,-187500.02235174447,1730330740.4908335,1730330738.180279,6000
-583.3134750501484,-187500.02235174447,9309.99330401341,-187500.02235174447,-187500.02235174447,-187500.02235174447,-187500.02235174447,-187500.02235174447,1730330740.494865,1730330738.180279,6000
-539.2358349842829,-187500.02235174447,9303.667760332555,-187500.02235174447,-187500.02235174447,-187500.02235174447,-187500.02235174447,-187500.02235174447,1730330740.49894,1730330738.180279,6000
-509.1503869474396,-187500.02235174447,9358.13896157014,-187500.02235174447,-187500.02235174447,-187500.02235174447,-187500.02235174447,-187500.02235174447,1730330740.5019257,1730330738.180279,6000
-548.1541810219504,-187500.02235174447,9379.462525780502,-187500.02235174447,-187500.02235174447,-187500.02235174447,-187500.02235174447,-187500.02235174447,1730330740.505935,1730330738.180279,6000
-606.0228474167404,-187500.02235174447,9351.545196955823,-187500.02235174447,-187500.02235174447,-187500.02235174447,-187500.02235174447,-187500.02235174447,1730330740.509944,1730330738.180279,6000
-555.9102363479419,-187500.02235174447,9339.18468227204,-187500.02235174447,-187500.02235174447,-187500.02235174447,-187500.02235174447,-187500.02235174447,1730330740.5149512,1730330738.180279,6000
-495.94050597435313,-187500.02235174447,9358.653051692612,-187500.02235174447,-187500.02235174447,-187500.02235174447,-187500.02235174447,-187500.02235174447,1730330740.5189376,1730330738.180279,6000
-553.9656345803303,-187500.02235174447,9392.180668375571,-187500.02235174447,-187500.02235174447,-187500.02235174447,-187500.02235174447,-187500.02235174447,1730330740.5229568,1730330738.180279,6000
-620.842053990609,-187500.02235174447,9376.579150745769,-187500.02235174447,-187500.02235174447,-187500.02235174447,-187500.02235174447,-187500.02235174447,1730330740.526016,1730330738.180279,6000
-554.2562072582492,-187500.02235174447,9353.735667912444,-187500.02235174447,-187500.02235174447,-187500.02235174447,-187500.02235174447,-187500.02235174447,1730330740.5299845,1730330738.180279,6000
-503.2718781556938,-187500.02235174447,9389.94549393004,-187500.02235174447,-187500.02235174447,-187500.02235174447,-187500.02235174447,-187500.02235174447,1730330740.533945,1730330738.180279,6000
-551.328128734604,-187500.02235174447,9384.961054916508,-187500.02235174447,-187500.02235174447,-187500.02235174447,-187500.02235174447,-187500.02235174447,1730330740.5379395,1730330738.180279,6000
-618.0927894226062,-187500.02235174447,9374.589845489245,-187500.02235174447,-187500.02235174447,-187500.02235174447,-187500.02235174447,-187500.02235174447,1730330740.5419004,1730330738.180279,6000
-568.1813440539055,-187500.02235174447,9361.894054638631,-187500.02235174447,-187500.02235174447,-187500.02235174447,-187500.02235174447,-187500.02235174447,1730330740.5469897,1730330738.180279,6000
-491.02312219418553,-187500.02235174447,9369.09131635324,-187500.02235174447,-187500.02235174447,-187500.02235174447,-187500.02235174447,-187500.02235174447,1730330740.5509813,1730330738.180279,6000
-489.81612799359897,-187500.02235174447,9370.879455909664,-187500.02235174447,-187500.02235174447,-187500.02235174447,-187500.02235174447,-187500.02235174447,1730330740.5538244,1730330738.180279,6000
-572.003492355763,-187500.02235174447,9354.339165012738,-187500.02235174447,-187500.02235174447,-187500.02235174447,-187500.02235174447,-187500.02235174447,1730330740.557968,1730330738.180279,6000
-585.5039460067685,-187500.02235174447,9344.571452685768,-187500.02235174447,-187500.02235174447,-187500.02235174447,-187500.02235174447,-187500.02235174447,1730330740.561895,1730330738.180279,6000
-546.6789658879002,-187500.02235174447,9364.196284317528,-187500.02235174447,-187500.02235174447,-187500.02235174447,-187500.02235174447,-187500.02235174447,1730330740.5660007,1730330738.180279,6000
-561.811096884143,-187500.02235174447,9448.663526614131,-187500.02235174447,-187500.02235174447,-187500.02235174447,-187500.02235174447,-187500.02235174447,1730330740.569913,1730330738.180279,6000
-573.5904662120898,-187500.02235174447,9383.463488038004,-187500.02235174447,-187500.02235174447,-187500.02235174447,-187500.02235174447,-187500.02235174447,1730330740.575128,1730330738.180279,6000
-555.0161665697296,-187500.02235174447,9286.278103146327,-187500.02235174447,-187500.02235174447,-187500.02235174447,-187500.02235174447,-187500.02235174447,1730330740.5789404,1730330738.180279,6000
-519.588651608068,-187500.02235174447,9307.333446423228,-187500.02235174447,-187500.02235174447,-187500.02235174447,-187500.02235174447,-187500.02235174447,1730330740.582122,1730330738.180279,6000
-513.2407561827607,-187500.02235174447,9392.873572453687,-187500.02235174447,-187500.02235174447,-187500.02235174447,-187500.02235174447,-187500.02235174447,1730330740.585981,1730330738.180279,6000
-561.5205242062241,-187500.02235174447,9376.7132612125,-187500.02235174447,-187500.02235174447,-187500.02235174447,-187500.02235174447,-187500.02235174447,1730330740.5900748,1730330738.180279,6000
