Fp1,Fp2,C3,C4,P7,P8,O1,O2,time_board,time_marker,marker
717.5133487598121,-187500.02235174447,1137.301461374934,-187500.02235174447,-187500.02235174447,-187500.02235174447,-187500.02235174447,-187500.02235174447,1730246165.8896184,1730246165.885326,6000
703.2529357973261,-187500.02235174447,1083.3443502598227,-187500.02235174447,-187500.02235174447,-187500.02235174447,-187500.02235174447,-187500.02235174447,1730246165.8936255,1730246165.885326,6000
717.3568865486249,-187500.02235174447,1104.7126179590962,-187500.02235174447,-187500.02235174447,-187500.02235174447,-187500.02235174447,-187500.02235174447,1730246165.897636,1730246165.885326,6000
746.7494305073536,-187500.02235174447,1147.784429524473,-187500.02235174447,-187500.02235174447,-187500.02235174447,-187500.02235174447,-187500.02235174447,1730246165.9014208,1730246165.885326,6000
734.7241919903985,-187500.02235174447,1141.3471271213446,-187500.02235174447,-187500.02235174447,-187500.02235174447,-187500.02235174447,-187500.02235174447,1730246165.9056215,1730246165.885326,6000
698.1790898059714,-187500.02235174447,1079.3433880023229,-187500.02235174447,-187500.02235174447,-187500.02235174447,-187500.02235174447,-187500.02235174447,1730246165.909564,1730246165.885326,6000
703.1411770750495,-187500.02235174447,1080.572733947365,-187500.02235174447,-187500.02235174447,-187500.02235174447,-187500.02235174447,-187500.02235174447,1730246165.9125135,1730246165.885326,6000
747.352927607647,-187500.02235174447,1138.8884352312607,-187500.02235174447,-187500.02235174447,-187500.02235174447,-187500.02235174447,-187500.02235174447,1730246165.9175184,1730246165.885326,6000
730.0526773992393,-187500.02235174447,1146.398621368244,-187500.02235174447,-187500.02235174447,-187500.02235174447,-187500.02235174447,-187500.02235174447,1730246165.9214947,1730246165.885326,6000
693.2617060258038,-187500.02235174447,1093.8720218982724,-187500.02235174447,-187500.02235174447,-187500.02235174447,-187500.02235174447,-187500.02235174447,1730246165.925903,1730246165.885326,6000
700.4589677404127,-187500.02235174447,1086.2500770390127,-187500.02235174447,-187500.02235174447,-187500.02235174447,-187500.02235174447,-187500.02235174447,1730246165.9296243,1730246165.885326,6000
735.6182617686108,-187500.02235174447,1133.814589239906,-187500.02235174447,-187500.02235174447,-187500.02235174447,-187500.02235174447,-187500.02235174447,1730246165.9337096,1730246165.885326,6000
739.8427414706638,-187500.02235174447,1153.3723656382997,-187500.02235174447,-187500.02235174447,-187500.02235174447,-187500.02235174447,-187500.02235174447,1730246165.9365146,1730246165.885326,6000
701.420092751991,-187500.02235174447,1119.4424175551435,-187500.02235174447,-187500.02235174447,-187500.02235174447,-187500.02235174447,-187500.02235174447,1730246165.9406736,1730246165.885326,6000
688.3443222456362,-187500.02235174447,1092.2850480419456,-187500.02235174447,-187500.02235174447,-187500.02235174447,-187500.02235174447,-187500.02235174447,1730246165.9445453,1730246165.885326,6000
731.1032093886387,-187500.02235174447,1140.1848364096686,-187500.02235174447,-187500.02235174447,-187500.02235174447,-187500.02235174447,-187500.02235174447,1730246165.949821,1730246165.885326,6000
740.513293804323,-187500.02235174447,1174.0253775150034,-187500.02235174447,-187500.02235174447,-187500.02235174447,-187500.02235174447,-187500.02235174447,1730246165.953688,1730246165.885326,6000
702.9847148638625,-187500.02235174447,1136.630909041275,-187500.02235174447,-187500.02235174447,-187500.02235174447,-187500.02235174447,-187500.02235174447,1730246165.9577563,1730246165.885326,6000
705.8904416430523,-187500.02235174447,1105.427873781666,-187500.02235174447,-187500.02235174447,-187500.02235174447,-187500.02235174447,-187500.02235174447,1730246165.9608145,1730246165.885326,6000
751.0856689316832,-187500.02235174447,1141.3694788658,-187500.02235174447,-187500.02235174447,-187500.02235174447,-187500.02235174447,-187500.02235174447,1730246165.9647307,1730246165.885326,6000
757.5676748237223,-187500.02235174447,1182.6307991302967,-187500.02235174447,-187500.02235174447,-187500.02235174447,-187500.02235174447,-187500.02235174447,1730246165.9687264,1730246165.885326,6000
721.0672761282059,-187500.02235174447,1153.8864557607717,-187500.02235174447,-187500.02235174447,-187500.02235174447,-187500.02235174447,-187500.02235174447,1730246165.972745,1730246165.885326,6000
701.643610196544,-187500.02235174447,1105.427873781666,-187500.02235174447,-187500.02235174447,-187500.02235174447,-187500.02235174447,-187500.02235174447,1730246165.9776418,1730246165.885326,6000
742.3461368496581,-187500.02235174447,1131.8699874722945,-187500.02235174447,-187500.02235174447,-187500.02235174447,-187500.02235174447,-187500.02235174447,1730246165.981753,1730246165.885326,6000
787.317846693736,-187500.02235174447,1180.462679918132,-187500.02235174447,-187500.02235174447,-187500.02235174447,-187500.02235174447,-187500.02235174447,1730246165.9857292,1730246165.885326,6000
720.352020305636,-187500.02235174447,1147.069173701903,-187500.02235174447,-187500.02235174447,-187500.02235174447,-187500.02235174447,-187500.02235174447,1730246165.9887564,1730246165.885326,6000
684.4774704548681,-187500.02235174447,1085.4230624941663,-187500.02235174447,-187500.02235174447,-187500.02235174447,-187500.02235174447,-187500.02235174447,1730246165.992756,1730246165.885326,6000
719.18972959396,-187500.02235174447,1092.1285858307583,-187500.02235174447,-187500.02235174447,-187500.02235174447,-187500.02235174447,-187500.02235174447,1730246165.9967864,1730246165.885326,6000
751.1750759095045,-187500.02235174447,1149.0808307028808,-187500.02235174447,-187500.02235174447,-187500.02235174447,-187500.02235174447,-187500.02235174447,1730246166.0008106,1730246165.885326,6000
731.0585058997281,-187500.02235174447,1137.4802753305764,-187500.02235174447,-187500.02235174447,-187500.02235174447,-187500.02235174447,-187500.02235174447,1730246166.0058467,1730246165.885326,6000
687.0702728116838,-187500.02235174447,1076.236495523035,-187500.02235174447,-187500.02235174447,-187500.02235174447,-187500.02235174447,-187500.02235174447,1730246166.009899,1730246165.885326,6000
707.1644910770049,-187500.02235174447,1075.1859635336357,-187500.02235174447,-187500.02235174447,-187500.02235174447,-187500.02235174447,-187500.02235174447,1730246166.013899,1730246165.885326,6000
751.2644828873257,-187500.02235174447,1134.5969002958418,-187500.02235174447,-187500.02235174447,-187500.02235174447,-187500.02235174447,-187500.02235174447,1730246166.016942,1730246165.885326,6000
738.7922094812643,-187500.02235174447,1142.5988248108415,-187500.02235174447,-187500.02235174447,-187500.02235174447,-187500.02235174447,-187500.02235174447,1730246166.0208156,1730246165.885326,6000
702.515328230301,-187500.02235174447,1089.7145974295852,-187500.02235174447,-187500.02235174447,-187500.02235174447,-187500.02235174447,-187500.02235174447,1730246166.0247996,1730246165.885326,6000
721.6484214840439,-187500.02235174447,1071.6096844207866,-187500.02235174447,-187500.02235174447,-187500.02235174447,-187500.02235174447,-187500.02235174447,1730246166.0287044,1730246165.885326,6000
767.7377185508869,-187500.02235174447,1114.1003506303252,-187500.02235174447,-187500.02235174447,-187500.02235174447,-187500.02235174447,-187500.02235174447,1730246166.0328462,1730246165.885326,6000
767.0895179616831,-187500.02235174447,1136.2732811299898,-187500.02235174447,-187500.02235174447,-187500.02235174447,-187500.02235174447,-187500.02235174447,1730246166.0378475,1730246165.885326,6000
726.319936075203,-187500.02235174447,1100.845766168328,-187500.02235174447,-187500.02235174447,-187500.02235174447,-187500.02235174447,-187500.02235174447,1730246166.041866,1730246165.885326,6000
715.3899330365579,-187500.02235174447,1072.2131815210798,-187500.02235174447,-187500.02235174447,-187500.02235174447,-187500.02235174447,-187500.02235174447,1730246166.044696,1730246165.885326,6000
762.9320934929959,-187500.02235174447,1121.2529088560234,-187500.02235174447,-187500.02235174447,-187500.02235174447,-187500.02235174447,-187500.02235174447,1730246166.0488508,1730246165.885326,6000
772.6551023310545,-187500.02235174447,1171.812554813928,-187500.02235174447,-187500.02235174447,-187500.02235174447,-187500.02235174447,-187500.02235174447,1730246166.0526876,1730246165.885326,6000
733.9865844233733,-187500.02235174447,1136.4520950856322,-187500.02235174447,-187500.02235174447,-187500.02235174447,-187500.02235174447,-187500.02235174447,1730246166.0569158,1730246165.885326,6000
719.4355987829684,-187500.02235174447,1094.5872777208422,-187500.02235174447,-187500.02235174447,-187500.02235174447,-187500.02235174447,-187500.02235174447,1730246166.0607586,1730246165.885326,6000
755.1760381670044,-187500.02235174447,1123.5551385349202,-187500.02235174447,-187500.02235174447,-187500.02235174447,-187500.02235174447,-187500.02235174447,1730246166.065961,1730246165.885326,6000
767.7600702953423,-187500.02235174447,1164.3694239103108,-187500.02235174447,-187500.02235174447,-187500.02235174447,-187500.02235174447,-187500.02235174447,1730246166.0689402,1730246165.885326,6000
735.7300204908872,-187500.02235174447,1135.55802530742,-187500.02235174447,-187500.02235174447,-187500.02235174447,-187500.02235174447,-187500.02235174447,1730246166.0729544,1730246165.885326,6000
713.6688487134992,-187500.02235174447,1089.1781555626578,-187500.02235174447,-187500.02235174447,-187500.02235174447,-187500.02235174447,-187500.02235174447,1730246166.0767517,1730246165.885326,6000
749.0740119307056,-187500.02235174447,1111.6416587402414,-187500.02235174447,-187500.02235174447,-187500.02235174447,-187500.02235174447,-187500.02235174447,1730246166.08087,1730246165.885326,6000
768.5870848401887,-187500.02235174447,1153.8864557607717,-187500.02235174447,-187500.02235174447,-187500.02235174447,-187500.02235174447,-187500.02235174447,1730246166.084942,1730246165.885326,6000
760.607512069644,-187500.02235174447,1132.5405398059536,-187500.02235174447,-187500.02235174447,-187500.02235174447,-187500.02235174447,-187500.02235174447,1730246166.0889418,1730246165.885326,6000
717.4239417819908,-187500.02235174447,1062.691338383119,-187500.02235174447,-187500.02235174447,-187500.02235174447,-187500.02235174447,-187500.02235174447,1730246166.0939806,1730246165.885326,6000
736.3335175911806,-187500.02235174447,1084.886620627239,-187500.02235174447,-187500.02235174447,-187500.02235174447,-187500.02235174447,-187500.02235174447,1730246166.097046,1730246165.885326,6000
775.2255529434149,-187500.02235174447,1150.5783975813863,-187500.02235174447,-187500.02235174447,-187500.02235174447,-187500.02235174447,-187500.02235174447,1730246166.1000462,1730246165.885326,6000
776.477250632912,-187500.02235174447,1142.2411968995568,-187500.02235174447,-187500.02235174447,-187500.02235174447,-187500.02235174447,-187500.02235174447,1730246166.1050298,1730246165.885326,6000
752.8291049991972,-187500.02235174447,1089.8710596407725,-187500.02235174447,-187500.02235174447,-187500.02235174447,-187500.02235174447,-187500.02235174447,1730246166.1089742,1730246165.885326,6000
726.5658052642113,-187500.02235174447,1083.1878880486356,-187500.02235174447,-187500.02235174447,-187500.02235174447,-187500.02235174447,-187500.02235174447,1730246166.1130185,1730246165.885326,6000
790.5141461508449,-187500.02235174447,1137.234406141568,-187500.02235174447,-187500.02235174447,-187500.02235174447,-187500.02235174447,-187500.02235174447,1730246166.1170046,1730246165.885326,6000
775.2255529434149,-187500.02235174447,1156.456906373132,-187500.02235174447,-187500.02235174447,-187500.02235174447,-187500.02235174447,-187500.02235174447,1730246166.1221056,1730246165.885326,6000
735.8417792131638,-187500.02235174447,1112.4463215406324,-187500.02235174447,-187500.02235174447,-187500.02235174447,-187500.02235174447,-187500.02235174447,1730246166.1248572,1730246165.885326,6000
747.2411688853704,-187500.02235174447,1090.8768881412611,-187500.02235174447,-187500.02235174447,-187500.02235174447,-187500.02235174447,-187500.02235174447,1730246166.1289687,1730246165.885326,6000
784.7920995702863,-187500.02235174447,1142.330603877378,-187500.02235174447,-187500.02235174447,-187500.02235174447,-187500.02235174447,-187500.02235174447,1730246166.1330338,1730246165.885326,6000
796.7949863427862,-187500.02235174447,1162.5812843538863,-187500.02235174447,-187500.02235174447,-187500.02235174447,-187500.02235174447,-187500.02235174447,1730246166.1368878,1730246165.885326,6000
756.1148114341273,-187500.02235174447,1112.3122110739007,-187500.02235174447,-187500.02235174447,-187500.02235174447,-187500.02235174447,-187500.02235174447,1730246166.1415348,1730246165.885326,6000
731.3937820665577,-187500.02235174447,1076.638826923231,-187500.02235174447,-187500.02235174447,-187500.02235174447,-187500.02235174447,-187500.02235174447,1730246166.1449552,1730246165.885326,6000
772.4762883754121,-187500.02235174447,1115.2626413420012,-187500.02235174447,-187500.02235174447,-187500.02235174447,-187500.02235174447,-187500.02235174447,1730246166.149292,1730246165.885326,6000
788.8601170611522,-187500.02235174447,1156.233388928579,-187500.02235174447,-187500.02235174447,-187500.02235174447,-187500.02235174447,-187500.02235174447,1730246166.1528895,1730246165.885326,6000
759.3334626356915,-187500.02235174447,1120.336487333356,-187500.02235174447,-187500.02235174447,-187500.02235174447,-187500.02235174447,-187500.02235174447,1730246166.1560545,1730246165.885326,6000
748.5822735526889,-187500.02235174447,1072.012015820982,-187500.02235174447,-187500.02235174447,-187500.02235174447,-187500.02235174447,-187500.02235174447,1730246166.1608803,1730246165.885326,6000
769.1682301960267,-187500.02235174447,1098.588239978342,-187500.02235174447,-187500.02235174447,-187500.02235174447,-187500.02235174447,-187500.02235174447,1730246166.1651216,1730246165.885326,6000
823.2147482889591,-187500.02235174447,1149.3490516363445,-187500.02235174447,-187500.02235174447,-187500.02235174447,-187500.02235174447,-187500.02235174447,1730246166.1689773,1730246165.885326,6000
796.1467857535823,-187500.02235174447,1141.011850954515,-187500.02235174447,-187500.02235174447,-187500.02235174447,-187500.02235174447,-187500.02235174447,1730246166.173128,1730246165.885326,6000
711.9254126459853,-187500.02235174447,1097.2918387999343,-187500.02235174447,-187500.02235174447,-187500.02235174447,-187500.02235174447,-187500.02235174447,1730246166.1771417,1730246165.885326,6000
728.3092413317253,-187500.02235174447,1099.7952341789287,-187500.02235174447,-187500.02235174447,-187500.02235174447,-187500.02235174447,-187500.02235174447,1730246166.1811533,1730246165.885326,6000
789.3742071836242,-187500.02235174447,1162.6036360983417,-187500.02235174447,-187500.02235174447,-187500.02235174447,-187500.02235174447,-187500.02235174447,1730246166.1839757,1730246165.885326,6000
751.0186136983173,-187500.02235174447,1144.7445922785512,-187500.02235174447,-187500.02235174447,-187500.02235174447,-187500.02235174447,-187500.02235174447,1730246166.1881473,1730246165.885326,6000
724.934127918974,-187500.02235174447,1069.1286407862474,-187500.02235174447,-187500.02235174447,-187500.02235174447,-187500.02235174447,-187500.02235174447,1730246166.193151,1730246165.885326,6000
746.8164857407196,-187500.02235174447,1109.272373827979,-187500.02235174447,-187500.02235174447,-187500.02235174447,-187500.02235174447,-187500.02235174447,1730246166.197091,1730246165.885326,6000
772.3645296531356,-187500.02235174447,1156.8368860288724,-187500.02235174447,-187500.02235174447,-187500.02235174447,-187500.02235174447,-187500.02235174447,1730246166.201136,1730246165.885326,6000
752.963215465929,-187500.02235174447,1158.13328720728,-187500.02235174447,-187500.02235174447,-187500.02235174447,-187500.02235174447,-187500.02235174447,1730246166.2040796,1730246165.885326,6000
717.6027557376333,-187500.02235174447,1103.1703475916802,-187500.02235174447,-187500.02235174447,-187500.02235174447,-187500.02235174447,-187500.02235174447,1730246166.2081516,1730246165.885326,6000
738.6357472700772,-187500.02235174447,1088.820527651373,-187500.02235174447,-187500.02235174447,-187500.02235174447,-187500.02235174447,-187500.02235174447,1730246166.2120905,1730246165.885326,6000
780.2546954458589,-187500.02235174447,1134.8651212293055,-187500.02235174447,-187500.02235174447,-187500.02235174447,-187500.02235174447,-187500.02235174447,1730246166.2171457,1730246165.885326,6000
785.1273757371159,-187500.02235174447,1152.7018133046406,-187500.02235174447,-187500.02235174447,-187500.02235174447,-187500.02235174447,-187500.02235174447,1730246166.2211156,1730246165.885326,6000
742.5249508053006,-187500.02235174447,1101.2257458240683,-187500.02235174447,-187500.02235174447,-187500.02235174447,-187500.02235174447,-187500.02235174447,1730246166.225223,1730246165.885326,6000
734.8806542015856,-187500.02235174447,1073.5319344439429,-187500.02235174447,-187500.02235174447,-187500.02235174447,-187500.02235174447,-187500.02235174447,1730246166.2291212,1730246165.885326,6000
774.4432418874791,-187500.02235174447,1123.3092693459118,-187500.02235174447,-187500.02235174447,-187500.02235174447,-187500.02235174447,-187500.02235174447,1730246166.2322376,1730246165.885326,6000
778.4218524005238,-187500.02235174447,1156.233388928579,-187500.02235174447,-187500.02235174447,-187500.02235174447,-187500.02235174447,-187500.02235174447,1730246166.2360048,1730246165.885326,6000
738.4569333144348,-187500.02235174447,1109.0488563834258,-187500.02235174447,-187500.02235174447,-187500.02235174447,-187500.02235174447,-187500.02235174447,1730246166.2400937,1730246165.885326,6000
722.0507528842394,-187500.02235174447,1065.6417686512195,-187500.02235174447,-187500.02235174447,-187500.02235174447,-187500.02235174447,-187500.02235174447,1730246166.2440224,1730246165.885326,6000
771.9398465084847,-187500.02235174447,1112.6474872407302,-187500.02235174447,-187500.02235174447,-187500.02235174447,-187500.02235174447,-187500.02235174447,1730246166.2492404,1730246165.885326,6000
790.9388292954957,-187500.02235174447,1164.2129616991238,-187500.02235174447,-187500.02235174447,-187500.02235174447,-187500.02235174447,-187500.02235174447,1730246166.2530732,1730246165.885326,6000
757.2994538902586,-187500.02235174447,1126.1479408917355,-187500.02235174447,-187500.02235174447,-187500.02235174447,-187500.02235174447,-187500.02235174447,1730246166.2571049,1730246165.885326,6000
728.4433517984572,-187500.02235174447,1078.918704857672,-187500.02235174447,-187500.02235174447,-187500.02235174447,-187500.02235174447,-187500.02235174447,1730246166.2601323,1730246165.885326,6000
761.4121748700351,-187500.02235174447,1103.5056237585095,-187500.02235174447,-187500.02235174447,-187500.02235174447,-187500.02235174447,-187500.02235174447,1730246166.2645843,1730246165.885326,6000
787.7425298383868,-187500.02235174447,1152.590054582364,-187500.02235174447,-187500.02235174447,-187500.02235174447,-187500.02235174447,-187500.02235174447,1730246166.2685113,1730246165.885326,6000
769.6152650851328,-187500.02235174447,1135.1556939072243,-187500.02235174447,-187500.02235174447,-187500.02235174447,-187500.02235174447,-187500.02235174447,1730246166.2721963,1730246165.885326,6000
745.6318432845883,-187500.02235174447,1086.9206293726718,-187500.02235174447,-187500.02235174447,-187500.02235174447,-187500.02235174447,-187500.02235174447,1730246166.2773075,1730246165.885326,6000
750.929206720496,-187500.02235174447,1106.5454610044314,-187500.02235174447,-187500.02235174447,-187500.02235174447,-187500.02235174447,-187500.02235174447,1730246166.2813816,1730246165.885326,6000
794.9397915529956,-187500.02235174447,1166.3140256779225,-187500.02235174447,-187500.02235174447,-187500.02235174447,-187500.02235174447,-187500.02235174447,1730246166.2852385,1730246165.885326,6000
779.8747157901187,-187500.02235174447,1161.910732020227,-187500.02235174447,-187500.02235174447,-187500.02235174447,-187500.02235174447,-187500.02235174447,1730246166.288211,1730246165.885326,6000
753.9466922219625,-187500.02235174447,1106.4784057710656,-187500.02235174447,-187500.02235174447,-187500.02235174447,-187500.02235174447,-187500.02235174447,1730246166.2923007,1730246165.885326,6000
764.1390876935825,-187500.02235174447,1095.1237195877695,-187500.02235174447,-187500.02235174447,-187500.02235174447,-187500.02235174447,-187500.02235174447,1730246166.2962809,1730246165.885326,6000
784.702692592465,-187500.02235174447,1136.206225896624,-187500.02235174447,-187500.02235174447,-187500.02235174447,-187500.02235174447,-187500.02235174447,1730246166.300295,1730246165.885326,6000
766.6201313281216,-187500.02235174447,1154.2217319276017,-187500.02235174447,-187500.02235174447,-187500.02235174447,-187500.02235174447,-187500.02235174447,1730246166.3052423,1730246165.885326,6000
792.8834310631074,-187500.02235174447,1117.430760554166,-187500.02235174447,-187500.02235174447,-187500.02235174447,-187500.02235174447,-187500.02235174447,1730246166.3092196,1730246165.885326,6000
756.4724393454122,-187500.02235174447,1090.6086672077977,-187500.02235174447,-187500.02235174447,-187500.02235174447,-187500.02235174447,-187500.02235174447,1730246166.3121934,1730246165.885326,6000
778.3100936782472,-187500.02235174447,1139.9836707095708,-187500.02235174447,-187500.02235174447,-187500.02235174447,-187500.02235174447,-187500.02235174447,1730246166.3163357,1730246165.885326,6000
800.7065416224649,-187500.02235174447,1172.0807757473915,-187500.02235174447,-187500.02235174447,-187500.02235174447,-187500.02235174447,-187500.02235174447,1730246166.3201768,1730246165.885326,6000
736.512331546823,-187500.02235174447,1112.2228040960797,-187500.02235174447,-187500.02235174447,-187500.02235174447,-187500.02235174447,-187500.02235174447,1730246166.3243313,1730246165.885326,6000
724.3976860520465,-187500.02235174447,1086.5853532058422,-187500.02235174447,-187500.02235174447,-187500.02235174447,-187500.02235174447,-187500.02235174447,1730246166.3281991,1730246165.885326,6000
808.9766870709285,-187500.02235174447,1125.9914786805489,-187500.02235174447,-187500.02235174447,-187500.02235174447,-187500.02235174447,-187500.02235174447,1730246166.3333492,1730246165.885326,6000
764.7202330494206,-187500.02235174447,1164.8388105438723,-187500.02235174447,-187500.02235174447,-187500.02235174447,-187500.02235174447,-187500.02235174447,1730246166.337372,1730246165.885326,6000
730.9914506663622,-187500.02235174447,1130.8865107162608,-187500.02235174447,-187500.02235174447,-187500.02235174447,-187500.02235174447,-187500.02235174447,1730246166.3403866,1730246165.885326,6000
736.3558693356358,-187500.02235174447,1088.0605683398926,-187500.02235174447,-187500.02235174447,-187500.02235174447,-187500.02235174447,-187500.02235174447,1730246166.3442185,1730246165.885326,6000
769.481154618401,-187500.02235174447,1115.3744000642778,-187500.02235174447,-187500.02235174447,-187500.02235174447,-187500.02235174447,-187500.02235174447,1730246166.3484097,1730246165.885326,6000
754.416078855524,-187500.02235174447,1160.6143308418193,-187500.02235174447,-187500.02235174447,-187500.02235174447,-187500.02235174447,-187500.02235174447,1730246166.3522043,1730246165.885326,6000
734.2324536123817,-187500.02235174447,1147.5162085910092,-187500.02235174447,-187500.02235174447,-187500.02235174447,-187500.02235174447,-187500.02235174447,1730246166.3564095,1730246165.885326,6000
713.870014413597,-187500.02235174447,1100.7340074460517,-187500.02235174447,-187500.02235174447,-187500.02235174447,-187500.02235174447,-187500.02235174447,1730246166.360458,1730246165.885326,6000
747.9340729634849,-187500.02235174447,1120.1129698888028,-187500.02235174447,-187500.02235174447,-187500.02235174447,-187500.02235174447,-187500.02235174447,1730246166.3654337,1730246165.885326,6000
778.9359425229958,-187500.02235174447,1177.199325227657,-187500.02235174447,-187500.02235174447,-187500.02235174447,-187500.02235174447,-187500.02235174447,1730246166.3684385,1730246165.885326,6000
750.8845032315854,-187500.02235174447,1159.4520401301434,-187500.02235174447,-187500.02235174447,-187500.02235174447,-187500.02235174447,-187500.02235174447,1730246166.372368,1730246165.885326,6000
715.8593196701192,-187500.02235174447,1091.078053841359,-187500.02235174447,-187500.02235174447,-187500.02235174447,-187500.02235174447,-187500.02235174447,1730246166.3764591,1730246165.885326,6000
754.4607823444346,-187500.02235174447,1096.3754172772667,-187500.02235174447,-187500.02235174447,-187500.02235174447,-187500.02235174447,-187500.02235174447,1730246166.380411,1730246165.885326,6000
802.1817567565151,-187500.02235174447,1150.198417925646,-187500.02235174447,-187500.02235174447,-187500.02235174447,-187500.02235174447,-187500.02235174447,1730246166.384434,1730246165.885326,6000
747.0847066741833,-187500.02235174447,1125.3432780913447,-187500.02235174447,-187500.02235174447,-187500.02235174447,-187500.02235174447,-187500.02235174447,1730246166.3883283,1730246165.885326,6000
747.0176514408173,-187500.02235174447,1072.459050710088,-187500.02235174447,-187500.02235174447,-187500.02235174447,-187500.02235174447,-187500.02235174447,1730246166.393476,1730246165.885326,6000
757.187695167982,-187500.02235174447,1092.2179928085795,-187500.02235174447,-187500.02235174447,-187500.02235174447,-187500.02235174447,-187500.02235174447,1730246166.3964255,1730246165.885326,6000
741.2732531158034,-187500.02235174447,1134.753362507029,-187500.02235174447,-187500.02235174447,-187500.02235174447,-187500.02235174447,-187500.02235174447,1730246166.400633,1730246165.885326,6000
742.8825787165855,-187500.02235174447,1133.591071795353,-187500.02235174447,-187500.02235174447,-187500.02235174447,-187500.02235174447,-187500.02235174447,1730246166.404494,1730246165.885326,6000
711.2101568234154,-187500.02235174447,1073.107251299292,-187500.02235174447,-187500.02235174447,-187500.02235174447,-187500.02235174447,-187500.02235174447,1730246166.408715,1730246165.885326,6000
673.2792464827594,-187500.02235174447,1069.1286407862474,-187500.02235174447,-187500.02235174447,-187500.02235174447,-187500.02235174447,-187500.02235174447,1730246166.4124165,1730246165.885326,6000
746.123581662605,-187500.02235174447,1120.6717635001855,-187500.02235174447,-187500.02235174447,-187500.02235174447,-187500.02235174447,-187500.02235174447,1730246166.4164865,1730246165.885326,6000
771.6269220861104,-187500.02235174447,1140.587167809864,-187500.02235174447,-187500.02235174447,-187500.02235174447,-187500.02235174447,-187500.02235174447,1730246166.4203763,1730246165.885326,6000
667.7807173467538,-187500.02235174447,1104.6008592368198,-187500.02235174447,-187500.02235174447,-187500.02235174447,-187500.02235174447,-187500.02235174447,1730246166.423679,1730246165.885326,6000
670.41822319248,-187500.02235174447,1049.3249951988453,-187500.02235174447,-187500.02235174447,-187500.02235174447,-187500.02235174447,-187500.02235174447,1730246166.4273927,1730246165.885326,6000
737.965194936418,-187500.02235174447,1077.242324023524,-187500.02235174447,-187500.02235174447,-187500.02235174447,-187500.02235174447,-187500.02235174447,1730246166.4325771,1730246165.885326,6000
725.7834942082757,-187500.02235174447,1117.6766297431743,-187500.02235174447,-187500.02235174447,-187500.02235174447,-187500.02235174447,-187500.02235174447,1730246166.436437,1730246165.885326,6000
678.3083889852035,-187500.02235174447,1105.9643156485934,-187500.02235174447,-187500.02235174447,-187500.02235174447,-187500.02235174447,-187500.02235174447,1730246166.4406047,1730246165.885326,6000
687.6514181675218,-187500.02235174447,1078.494021713021,-187500.02235174447,-187500.02235174447,-187500.02235174447,-187500.02235174447,-187500.02235174447,1730246166.44439,1730246165.885326,6000
718.3627150491137,-187500.02235174447,1108.467711027588,-187500.02235174447,-187500.02235174447,-187500.02235174447,-187500.02235174447,-187500.02235174447,1730246166.4485483,1730246165.885326,6000
756.8524190011525,-187500.02235174447,1154.6017115833415,-187500.02235174447,-187500.02235174447,-187500.02235174447,-187500.02235174447,-187500.02235174447,1730246166.4515624,1730246165.885326,6000
741.2956048602588,-187500.02235174447,1127.8913769592498,-187500.02235174447,-187500.02235174447,-187500.02235174447,-187500.02235174447,-187500.02235174447,1730246166.4554763,1730246165.885326,6000
670.5970371481225,-187500.02235174447,1051.4037074331889,-187500.02235174447,-187500.02235174447,-187500.02235174447,-187500.02235174447,-187500.02235174447,1730246166.4605968,1730246165.885326,6000
666.7972405907203,-187500.02235174447,1053.9965097900044,-187500.02235174447,-187500.02235174447,-187500.02235174447,-187500.02235174447,-187500.02235174447,1730246166.4644935,1730246165.885326,6000
721.4696075284014,-187500.02235174447,1110.3899610507442,-187500.02235174447,-187500.02235174447,-187500.02235174447,-187500.02235174447,-187500.02235174447,1730246166.4685705,1730246165.885326,6000
702.9400113749518,-187500.02235174447,1100.331676045856,-187500.02235174447,-187500.02235174447,-187500.02235174447,-187500.02235174447,-187500.02235174447,1730246166.47258,1730246165.885326,6000
636.8682547650641,-187500.02235174447,996.7536922399632,-187500.02235174447,-187500.02235174447,-187500.02235174447,-187500.02235174447,-187500.02235174447,1730246166.476565,1730246165.885326,6000
700.5930782071446,-187500.02235174447,1021.9888117300048,-187500.02235174447,-187500.02235174447,-187500.02235174447,-187500.02235174447,-187500.02235174447,1730246166.4795768,1730246165.885326,6000
743.1955031389598,-187500.02235174447,1074.8730391112613,-187500.02235174447,-187500.02235174447,-187500.02235174447,-187500.02235174447,-187500.02235174447,1730246166.4834812,1730246165.885326,6000
623.9712982143519,-187500.02235174447,1187.0787962769027,-187500.02235174447,-187500.02235174447,-187500.02235174447,-187500.02235174447,-187500.02235174447,1730246166.4886146,1730246165.885326,6000
606.8722137060421,-187500.02235174447,1132.182911894669,-187500.02235174447,-187500.02235174447,-187500.02235174447,-187500.02235174447,-187500.02235174447,1730246166.4925976,1730246165.885326,6000
648.4017549040026,-187500.02235174447,1004.8450237327844,-187500.02235174447,-187500.02235174447,-187500.02235174447,-187500.02235174447,-187500.02235174447,1730246166.4966123,1730246165.885326,6000
740.6474042710548,-187500.02235174447,1042.9323962846277,-187500.02235174447,-187500.02235174447,-187500.02235174447,-187500.02235174447,-187500.02235174447,1730246166.5006125,1730246165.885326,6000
772.6774540755099,-187500.02235174447,1111.9545831626158,-187500.02235174447,-187500.02235174447,-187500.02235174447,-187500.02235174447,-187500.02235174447,1730246166.5035655,1730246165.885326,6000
853.344899814713,-187500.02235174447,986.0695583903264,-187500.02235174447,-187500.02235174447,-187500.02235174447,-187500.02235174447,-187500.02235174447,1730246166.5076349,1730246165.885326,6000
695.3180665156921,-187500.02235174447,1022.01116347446,-187500.02235174447,-187500.02235174447,-187500.02235174447,-187500.02235174447,-187500.02235174447,1730246166.5114784,1730246165.885326,6000
650.2793014382484,-187500.02235174447,1096.0177893659818,-187500.02235174447,-187500.02235174447,-187500.02235174447,-187500.02235174447,-187500.02235174447,1730246166.5156329,1730246165.885326,6000
680.3647494750917,-187500.02235174447,1138.106124175325,-187500.02235174447,-187500.02235174447,-187500.02235174447,-187500.02235174447,-187500.02235174447,1730246166.5206673,1730246165.885326,6000
658.6612056089886,-187500.02235174447,1070.290931497923,-187500.02235174447,-187500.02235174447,-187500.02235174447,-187500.02235174447,-187500.02235174447,1730246166.5246675,1730246165.885326,6000
657.0965834971171,-187500.02235174447,1026.1015327097814,-187500.02235174447,-187500.02235174447,-187500.02235174447,-187500.02235174447,-187500.02235174447,1730246166.5285692,1730246165.885326,6000
713.5347382467673,-187500.02235174447,1039.0431927494042,-187500.02235174447,-187500.02235174447,-187500.02235174447,-187500.02235174447,-187500.02235174447,1730246166.5316546,1730246165.885326,6000
722.4754360288902,-187500.02235174447,1082.7632049039848,-187500.02235174447,-187500.02235174447,-187500.02235174447,-187500.02235174447,-187500.02235174447,1730246166.535506,1730246165.885326,6000
674.4638889388906,-187500.02235174447,1080.2821612694456,-187500.02235174447,-187500.02235174447,-187500.02235174447,-187500.02235174447,-187500.02235174447,1730246166.5397117,1730246165.885326,6000
689.3054472572145,-187500.02235174447,1025.118055953748,-187500.02235174447,-187500.02235174447,-187500.02235174447,-187500.02235174447,-187500.02235174447,1730246166.543686,1730246165.885326,6000
750.2586543868368,-187500.02235174447,1028.4261141331333,-187500.02235174447,-187500.02235174447,-187500.02235174447,-187500.02235174447,-187500.02235174447,1730246166.5477393,1730246165.885326,6000
707.1868428214601,-187500.02235174447,1080.9974170920154,-187500.02235174447,-187500.02235174447,-187500.02235174447,-187500.02235174447,-187500.02235174447,1730246166.5525455,1730246165.885326,6000
699.2966770287368,-187500.02235174447,1050.040251021415,-187500.02235174447,-187500.02235174447,-187500.02235174447,-187500.02235174447,-187500.02235174447,1730246166.555656,1730246165.885326,6000
671.1111272705946,-187500.02235174447,950.4855812174776,-187500.02235174447,-187500.02235174447,-187500.02235174447,-187500.02235174447,-187500.02235174447,1730246166.5595703,1730246165.885326,6000
642.903225767997,-187500.02235174447,1051.1354864997252,-187500.02235174447,-187500.02235174447,-187500.02235174447,-187500.02235174447,-187500.02235174447,1730246166.563788,1730246165.885326,6000
728.1080756316276,-187500.02235174447,1152.0983162043472,-187500.02235174447,-187500.02235174447,-187500.02235174447,-187500.02235174447,-187500.02235174447,1730246166.567766,1730246165.885326,6000
702.9847148638625,-187500.02235174447,1121.0293914114704,-187500.02235174447,-187500.02235174447,-187500.02235174447,-187500.02235174447,-187500.02235174447,1730246166.5717688,1730246165.885326,6000
668.8536010806085,-187500.02235174447,1047.268634708957,-187500.02235174447,-187500.02235174447,-187500.02235174447,-187500.02235174447,-187500.02235174447,1730246166.5768323,1730246165.885326,6000
695.4968804713345,-187500.02235174447,1049.436753921122,-187500.02235174447,-187500.02235174447,-187500.02235174447,-187500.02235174447,-187500.02235174447,1730246166.580783,1730246165.885326,6000
695.9215636159854,-187500.02235174447,1104.8914319147386,-187500.02235174447,-187500.02235174447,-187500.02235174447,-187500.02235174447,-187500.02235174447,1730246166.5837803,1730246165.885326,6000
691.965304847396,-187500.02235174447,1007.2366603895022,-187500.02235174447,-187500.02235174447,-187500.02235174447,-187500.02235174447,-187500.02235174447,1730246166.587787,1730246165.885326,6000
638.2987664102038,-187500.02235174447,980.1910495985808,-187500.02235174447,-187500.02235174447,-187500.02235174447,-187500.02235174447,-187500.02235174447,1730246166.5918095,1730246165.885326,6000
664.7855835897427,-187500.02235174447,1066.6699488961635,-187500.02235174447,-187500.02235174447,-187500.02235174447,-187500.02235174447,-187500.02235174447,1730246166.5957437,1730246165.885326,6000
715.8816714145746,-187500.02235174447,1156.5016098620426,-187500.02235174447,-187500.02235174447,-187500.02235174447,-187500.02235174447,-187500.02235174447,1730246166.5998268,1730246165.885326,6000
749.1634189085269,-187500.02235174447,1141.1012579323362,-187500.02235174447,-187500.02235174447,-187500.02235174447,-187500.02235174447,-187500.02235174447,1730246166.604859,1730246165.885326,6000
704.7057991869211,-187500.02235174447,1079.656312424697,-187500.02235174447,-187500.02235174447,-187500.02235174447,-187500.02235174447,-187500.02235174447,1730246166.6088755,1730246165.885326,6000
655.9789962743516,-187500.02235174447,1061.3502337158006,-187500.02235174447,-187500.02235174447,-187500.02235174447,-187500.02235174447,-187500.02235174447,1730246166.6116717,1730246165.885326,6000
703.1411770750495,-187500.02235174447,1095.079016098859,-187500.02235174447,-187500.02235174447,-187500.02235174447,-187500.02235174447,-187500.02235174447,1730246166.6158476,1730246165.885326,6000
687.2043832784157,-187500.02235174447,1122.0352199119593,-187500.02235174447,-187500.02235174447,-187500.02235174447,-187500.02235174447,-187500.02235174447,1730246166.6196663,1730246165.885326,6000
633.5154930967681,-187500.02235174447,1063.7418703725184,-187500.02235174447,-187500.02235174447,-187500.02235174447,-187500.02235174447,-187500.02235174447,1730246166.6237755,1730246165.885326,6000
639.8410367776199,-187500.02235174447,1039.0431927494042,-187500.02235174447,-187500.02235174447,-187500.02235174447,-187500.02235174447,-187500.02235174447,1730246166.6276708,1730246165.885326,6000
698.6037729506222,-187500.02235174447,1078.0022833350042,-187500.02235174447,-187500.02235174447,-187500.02235174447,-187500.02235174447,-187500.02235174447,1730246166.63173,1730246165.885326,6000
713.870014413597,-187500.02235174447,1093.8273184093616,-187500.02235174447,-187500.02235174447,-187500.02235174447,-187500.02235174447,-187500.02235174447,1730246166.6368003,1730246165.885326,6000
644.5796066021451,-187500.02235174447,1065.015919806471,-187500.02235174447,-187500.02235174447,-187500.02235174447,-187500.02235174447,-187500.02235174447,1730246166.6397774,1730246165.885326,6000
651.709813083388,-187500.02235174447,1033.4105531466666,-187500.02235174447,-187500.02235174447,-187500.02235174447,-187500.02235174447,-187500.02235174447,1730246166.6439197,1730246165.885326,6000
654.7720020737651,-187500.02235174447,1043.5582451293762,-187500.02235174447,-187500.02235174447,-187500.02235174447,-187500.02235174447,-187500.02235174447,1730246166.647853,1730246165.885326,6000
684.5445256882341,-187500.02235174447,1085.8924491277278,-187500.02235174447,-187500.02235174447,-187500.02235174447,-187500.02235174447,-187500.02235174447,1730246166.651822,1730246165.885326,6000
692.9934850923402,-187500.02235174447,1086.8759258837613,-187500.02235174447,-187500.02235174447,-187500.02235174447,-187500.02235174447,-187500.02235174447,1730246166.6558805,1730246165.885326,6000
654.6378916070332,-187500.02235174447,1002.7439597539856,-187500.02235174447,-187500.02235174447,-187500.02235174447,-187500.02235174447,-187500.02235174447,1730246166.6608047,1730246165.885326,6000
707.4103602660132,-187500.02235174447,977.1735640971142,-187500.02235174447,-187500.02235174447,-187500.02235174447,-187500.02235174447,-187500.02235174447,1730246166.6648338,1730246165.885326,6000
727.3034128312365,-187500.02235174447,1023.888710008706,-187500.02235174447,-187500.02235174447,-187500.02235174447,-187500.02235174447,-187500.02235174447,1730246166.6679769,1730246165.885326,6000
673.9721505608738,-187500.02235174447,1052.655405122686,-187500.02235174447,-187500.02235174447,-187500.02235174447,-187500.02235174447,-187500.02235174447,1730246166.6720283,1730246165.885326,6000
513.9783637497859,-187500.02235174447,1133.0993334173363,-187500.02235174447,-187500.02235174447,-187500.02235174447,-187500.02235174447,-187500.02235174447,1730246166.6758652,1730246165.885326,6000
598.5573647686679,-187500.02235174447,1085.3113037718897,-187500.02235174447,-187500.02235174447,-187500.02235174447,-187500.02235174447,-187500.02235174447,1730246166.6801383,1730246165.885326,6000
650.1675427159719,-187500.02235174447,1139.4695805870988,-187500.02235174447,-187500.02235174447,-187500.02235174447,-187500.02235174447,-187500.02235174447,1730246166.684019,1730246165.885326,6000
660.516400398779,-187500.02235174447,1139.1343044202692,-187500.02235174447,-187500.02235174447,-187500.02235174447,-187500.02235174447,-187500.02235174447,1730246166.6884885,1730246165.885326,6000
638.8128565326758,-187500.02235174447,1072.7496233880072,-187500.02235174447,-187500.02235174447,-187500.02235174447,-187500.02235174447,-187500.02235174447,1730246166.6920533,1730246165.885326,6000
653.6544148509997,-187500.02235174447,1072.3472919878116,-187500.02235174447,-187500.02235174447,-187500.02235174447,-187500.02235174447,-187500.02235174447,1730246166.6949346,1730246165.885326,6000
690.355979246614,-187500.02235174447,1125.5444437914423,-187500.02235174447,-187500.02235174447,-187500.02235174447,-187500.02235174447,-187500.02235174447,1730246166.700063,1730246165.885326,6000
690.0430548242397,-187500.02235174447,1128.8748537152833,-187500.02235174447,-187500.02235174447,-187500.02235174447,-187500.02235174447,-187500.02235174447,1730246166.7039912,1730246165.885326,6000
642.903225767997,-187500.02235174447,1072.1908297766245,-187500.02235174447,-187500.02235174447,-187500.02235174447,-187500.02235174447,-187500.02235174447,1730246166.707922,1730246165.885326,6000
634.9907082308183,-187500.02235174447,1048.7662015874628,-187500.02235174447,-187500.02235174447,-187500.02235174447,-187500.02235174447,-187500.02235174447,1730246166.7119064,1730246165.885326,6000
672.8098598491979,-187500.02235174447,1107.2607168270013,-187500.02235174447,-187500.02235174447,-187500.02235174447,-187500.02235174447,-187500.02235174447,1730246166.7159812,1730246165.885326,6000
684.5445256882341,-187500.02235174447,1118.6601064992078,-187500.02235174447,-187500.02235174447,-187500.02235174447,-187500.02235174447,-187500.02235174447,1730246166.719987,1730246165.885326,6000
666.1490400015164,-187500.02235174447,1064.7924023619178,-187500.02235174447,-187500.02235174447,-187500.02235174447,-187500.02235174447,-187500.02235174447,1730246166.7231183,1730246165.885326,6000
670.7311476148543,-187500.02235174447,1042.0383265064152,-187500.02235174447,-187500.02235174447,-187500.02235174447,-187500.02235174447,-187500.02235174447,1730246166.7278488,1730246165.885326,6000
669.6582638809996,-187500.02235174447,1081.2432862810238,-187500.02235174447,-187500.02235174447,-187500.02235174447,-187500.02235174447,-187500.02235174447,1730246166.7320352,1730246165.885326,6000
699.6319531955663,-187500.02235174447,1130.9535659496269,-187500.02235174447,-187500.02235174447,-187500.02235174447,-187500.02235174447,-187500.02235174447,1730246166.735883,1730246165.885326,6000
698.3355520171585,-187500.02235174447,1083.4114054931886,-187500.02235174447,-187500.02235174447,-187500.02235174447,-187500.02235174447,-187500.02235174447,1730246166.7401156,1730246165.885326,6000
637.9187867544636,-187500.02235174447,1058.109230769781,-187500.02235174447,-187500.02235174447,-187500.02235174447,-187500.02235174447,-187500.02235174447,1730246166.7438908,1730246165.885326,6000
643.484371123835,-187500.02235174447,1074.560114688887,-187500.02235174447,-187500.02235174447,-187500.02235174447,-187500.02235174447,-187500.02235174447,1730246166.748238,1730246165.885326,6000
643.9314060129411,-187500.02235174447,1131.0653246719032,-187500.02235174447,-187500.02235174447,-187500.02235174447,-187500.02235174447,-187500.02235174447,1730246166.7513776,1730246165.885326,6000
636.2200541758602,-187500.02235174447,1124.2480426130346,-187500.02235174447,-187500.02235174447,-187500.02235174447,-187500.02235174447,-187500.02235174447,1730246166.7550044,1730246165.885326,6000
632.9566994853855,-187500.02235174447,1064.010091305982,-187500.02235174447,-187500.02235174447,-187500.02235174447,-187500.02235174447,-187500.02235174447,1730246166.7601583,1730246165.885326,6000
650.5251706272568,-187500.02235174447,1090.0051701075042,-187500.02235174447,-187500.02235174447,-187500.02235174447,-187500.02235174447,-187500.02235174447,1730246166.764115,1730246165.885326,6000
665.4561359234019,-187500.02235174447,1140.4530573431323,-187500.02235174447,-187500.02235174447,-187500.02235174447,-187500.02235174447,-187500.02235174447,1730246166.7680385,1730246165.885326,6000
683.1587175320051,-187500.02235174447,1136.005060196526,-187500.02235174447,-187500.02235174447,-187500.02235174447,-187500.02235174447,-187500.02235174447,1730246166.7710412,1730246165.885326,6000
702.8953078860412,-187500.02235174447,1061.0149575489709,-187500.02235174447,-187500.02235174447,-187500.02235174447,-187500.02235174447,-187500.02235174447,1730246166.7750473,1730246165.885326,6000
633.940176241419,-187500.02235174447,1069.0615855528815,-187500.02235174447,-187500.02235174447,-187500.02235174447,-187500.02235174447,-187500.02235174447,1730246166.7791,1730246165.885326,6000
642.8361705346312,-187500.02235174447,1132.8981677172385,-187500.02235174447,-187500.02235174447,-187500.02235174447,-187500.02235174447,-187500.02235174447,1730246166.7832124,1730246165.885326,6000
699.7213601733876,-187500.02235174447,1128.5172258039984,-187500.02235174447,-187500.02235174447,-187500.02235174447,-187500.02235174447,-187500.02235174447,1730246166.7881792,1730246165.885326,6000
646.5018566253015,-187500.02235174447,1100.845766168328,-187500.02235174447,-187500.02235174447,-187500.02235174447,-187500.02235174447,-187500.02235174447,1730246166.7921956,1730246165.885326,6000
635.3483361421032,-187500.02235174447,1084.6407514382306,-187500.02235174447,-187500.02235174447,-187500.02235174447,-187500.02235174447,-187500.02235174447,1730246166.7961435,1730246165.885326,6000
648.8487897931087,-187500.02235174447,1137.9943654530484,-187500.02235174447,-187500.02235174447,-187500.02235174447,-187500.02235174447,-187500.02235174447,1730246166.7992043,1730246165.885326,6000
668.4065661915024,-187500.02235174447,1154.713470305618,-187500.02235174447,-187500.02235174447,-187500.02235174447,-187500.02235174447,-187500.02235174447,1730246166.8029664,1730246165.885326,6000
641.4727141228574,-187500.02235174447,1100.465786512588,-187500.02235174447,-187500.02235174447,-187500.02235174447,-187500.02235174447,-187500.02235174447,1730246166.8073564,1730246165.885326,6000
653.386193917536,-187500.02235174447,1070.559152431387,-187500.02235174447,-187500.02235174447,-187500.02235174447,-187500.02235174447,-187500.02235174447,1730246166.8110352,1730246165.885326,6000
689.3277990016699,-187500.02235174447,1095.9954376215264,-187500.02235174447,-187500.02235174447,-187500.02235174447,-187500.02235174447,-187500.02235174447,1730246166.8162742,1730246165.885326,6000
667.2219237353711,-187500.02235174447,1151.0924877038583,-187500.02235174447,-187500.02235174447,-187500.02235174447,-187500.02235174447,-187500.02235174447,1730246166.8200212,1730246165.885326,6000
628.6204610610558,-187500.02235174447,1098.9235161451718,-187500.02235174447,-187500.02235174447,-187500.02235174447,-187500.02235174447,-187500.02235174447,1730246166.8242106,1730246165.885326,6000
640.5786443446451,-187500.02235174447,1075.7447571450184,-187500.02235174447,-187500.02235174447,-187500.02235174447,-187500.02235174447,-187500.02235174447,1730246166.8271987,1730246165.885326,6000
680.7000256419213,-187500.02235174447,1086.0265595944595,-187500.02235174447,-187500.02235174447,-187500.02235174447,-187500.02235174447,-187500.02235174447,1730246166.83127,1730246165.885326,6000
708.6620579555105,-187500.02235174447,1080.7515479030071,-187500.02235174447,-187500.02235174447,-187500.02235174447,-187500.02235174447,-187500.02235174447,1730246166.8352516,1730246165.885326,6000
684.7680431327872,-187500.02235174447,1058.533913914432,-187500.02235174447,-187500.02235174447,-187500.02235174447,-187500.02235174447,-187500.02235174447,1730246166.8415363,1730246165.885326,6000
654.1014497401059,-187500.02235174447,1053.2589022229795,-187500.02235174447,-187500.02235174447,-187500.02235174447,-187500.02235174447,-187500.02235174447,1730246166.8451138,1730246165.885326,6000
623.1889871584162,-187500.02235174447,1084.2607717824903,-187500.02235174447,-187500.02235174447,-187500.02235174447,-187500.02235174447,-187500.02235174447,1730246166.848415,1730246165.885326,6000
640.9586240003854,-187500.02235174447,1101.650428968719,-187500.02235174447,-187500.02235174447,-187500.02235174447,-187500.02235174447,-187500.02235174447,1730246166.8522568,1730246165.885326,6000
685.3044849997145,-187500.02235174447,1098.3423707893337,-187500.02235174447,-187500.02235174447,-187500.02235174447,-187500.02235174447,-187500.02235174447,1730246166.8553033,1730246165.885326,6000
741.6308810270883,-187500.02235174447,1101.8068911799064,-187500.02235174447,-187500.02235174447,-187500.02235174447,-187500.02235174447,-187500.02235174447,1730246166.859501,1730246165.885326,6000
621.1102749240727,-187500.02235174447,1046.5757306308426,-187500.02235174447,-187500.02235174447,-187500.02235174447,-187500.02235174447,-187500.02235174447,1730246166.863856,1730246165.885326,6000
600.0102281582627,-187500.02235174447,1132.3840775947665,-187500.02235174447,-187500.02235174447,-187500.02235174447,-187500.02235174447,-187500.02235174447,1730246166.867344,1730246165.885326,6000
571.2658847887379,-187500.02235174447,1125.8126647249062,-187500.02235174447,-187500.02235174447,-187500.02235174447,-187500.02235174447,-187500.02235174447,1730246166.8712766,1730246165.885326,6000
614.8517864765867,-187500.02235174447,1082.1820595481468,-187500.02235174447,-187500.02235174447,-187500.02235174447,-187500.02235174447,-187500.02235174447,1730246166.876504,1730246165.885326,6000
656.6048451191002,-187500.02235174447,1070.7379663870297,-187500.02235174447,-187500.02235174447,-187500.02235174447,-187500.02235174447,-187500.02235174447,1730246166.879141,1730246165.885326,6000
744.0672211727168,-187500.02235174447,1101.1139871017915,-187500.02235174447,-187500.02235174447,-187500.02235174447,-187500.02235174447,-187500.02235174447,1730246166.8833504,1730246165.885326,6000
736.579386780189,-187500.02235174447,1165.844639044361,-187500.02235174447,-187500.02235174447,-187500.02235174447,-187500.02235174447,-187500.02235174447,1730246166.887393,1730246165.885326,6000
662.3045399552036,-187500.02235174447,1081.69032117013,-187500.02235174447,-187500.02235174447,-187500.02235174447,-187500.02235174447,-187500.02235174447,1730246166.8915763,1730246165.885326,6000
671.222885992871,-187500.02235174447,1022.8381780193064,-187500.02235174447,-187500.02235174447,-187500.02235174447,-187500.02235174447,-187500.02235174447,1730246166.8952165,1730246165.885326,6000
645.8760077805529,-187500.02235174447,1106.0537226264146,-187500.02235174447,-187500.02235174447,-187500.02235174447,-187500.02235174447,-187500.02235174447,1730246166.8994117,1730246165.885326,6000
588.6108384860562,-187500.02235174447,1037.366811915256,-187500.02235174447,-187500.02235174447,-187500.02235174447,-187500.02235174447,-187500.02235174447,1730246166.9032636,1730246165.885326,6000
580.3406930375926,-187500.02235174447,978.6487792311644,-187500.02235174447,-187500.02235174447,-187500.02235174447,-187500.02235174447,-187500.02235174447,1730246166.9073827,1730246165.885326,6000
484.8987442134314,-187500.02235174447,878.2223913934698,-187500.02235174447,-187500.02235174447,-187500.02235174447,-187500.02235174447,-187500.02235174447,1730246166.9112663,1730246165.885326,6000
653.0062142617959,-187500.02235174447,1082.919667115172,-187500.02235174447,-187500.02235174447,-187500.02235174447,-187500.02235174447,-187500.02235174447,1730246166.915388,1730246165.885326,6000
795.6103438866548,-187500.02235174447,1163.8329820433837,-187500.02235174447,-187500.02235174447,-187500.02235174447,-187500.02235174447,-187500.02235174447,1730246166.9192967,1730246165.885326,6000
573.746928423277,-187500.02235174447,1029.5884048448092,-187500.02235174447,-187500.02235174447,-187500.02235174447,-187500.02235174447,-187500.02235174447,1730246166.923754,1730246165.885326,6000
626.9440802269078,-187500.02235174447,1035.131637469725,-187500.02235174447,-187500.02235174447,-187500.02235174447,-187500.02235174447,-187500.02235174447,1730246166.9272468,1730246165.885326,6000
655.5990166186115,-187500.02235174447,1034.9081200251724,-187500.02235174447,-187500.02235174447,-187500.02235174447,-187500.02235174447,-187500.02235174447,1730246166.932387,1730246165.885326,6000
574.037501101196,-187500.02235174447,1161.7095663201292,-187500.02235174447,-187500.02235174447,-187500.02235174447,-187500.02235174447,-187500.02235174447,1730246166.9353385,1730246165.885326,6000
631.5038360957905,-187500.02235174447,1103.9973621365264,-187500.02235174447,-187500.02235174447,-187500.02235174447,-187500.02235174447,-187500.02235174447,1730246166.9384272,1730246165.885326,6000
652.2462549503153,-187500.02235174447,1001.7828347424072,-187500.02235174447,-187500.02235174447,-187500.02235174447,-187500.02235174447,-187500.02235174447,1730246166.943651,1730246165.885326,6000
609.8002922296873,-187500.02235174447,1041.5465881283983,-187500.02235174447,-187500.02235174447,-187500.02235174447,-187500.02235174447,-187500.02235174447,1730246166.9477916,1730246165.885326,6000
592.5223937657349,-187500.02235174447,1145.951586479138,-187500.02235174447,-187500.02235174447,-187500.02235174447,-187500.02235174447,-187500.02235174447,1730246166.9516149,1730246165.885326,6000
690.2218687798821,-187500.02235174447,1090.6310189522528,-187500.02235174447,-187500.02235174447,-187500.02235174447,-187500.02235174447,-187500.02235174447,1730246166.9554212,1730246165.885326,6000
697.0615025832061,-187500.02235174447,1045.4134399191666,-187500.02235174447,-187500.02235174447,-187500.02235174447,-187500.02235174447,-187500.02235174447,1730246166.95986,1730246165.885326,6000
554.166800280428,-187500.02235174447,1041.5018846394878,-187500.02235174447,-187500.02235174447,-187500.02235174447,-187500.02235174447,-187500.02235174447,1730246166.96384,1730246165.885326,6000
612.0131149307626,-187500.02235174447,1092.5085654864986,-187500.02235174447,-187500.02235174447,-187500.02235174447,-187500.02235174447,-187500.02235174447,1730246166.967633,1730246165.885326,6000
640.6904030669216,-187500.02235174447,1107.2830685714566,-187500.02235174447,-187500.02235174447,-187500.02235174447,-187500.02235174447,-187500.02235174447,1730246166.9715452,1730246165.885326,6000
642.903225767997,-187500.02235174447,1033.2540909354796,-187500.02235174447,-187500.02235174447,-187500.02235174447,-187500.02235174447,-187500.02235174447,1730246166.9754856,1730246165.885326,6000
647.3512229146031,-187500.02235174447,1042.373602673245,-187500.02235174447,-187500.02235174447,-187500.02235174447,-187500.02235174447,-187500.02235174447,1730246166.979503,1730246165.885326,6000
610.6720102634442,-187500.02235174447,1129.500702560032,-187500.02235174447,-187500.02235174447,-187500.02235174447,-187500.02235174447,-187500.02235174447,1730246166.9837737,1730246165.885326,6000
654.2579119512931,-187500.02235174447,1119.7776937219733,-187500.02235174447,-187500.02235174447,-187500.02235174447,-187500.02235174447,-187500.02235174447,1730246166.9890144,1730246165.885326,6000
647.5076851257903,-187500.02235174447,1061.3502337158006,-187500.02235174447,-187500.02235174447,-187500.02235174447,-187500.02235174447,-187500.02235174447,1730246166.991802,1730246165.885326,6000
620.6408882905112,-187500.02235174447,1004.7556167549632,-187500.02235174447,-187500.02235174447,-187500.02235174447,-187500.02235174447,-187500.02235174447,1730246166.9943097,1730246165.885326,6000
632.5543680851898,-187500.02235174447,1052.6777568671414,-187500.02235174447,-187500.02235174447,-187500.02235174447,-187500.02235174447,-187500.02235174447,1730246166.9999368,1730246165.885326,6000
614.6953242653996,-187500.02235174447,1041.434829406122,-187500.02235174447,-187500.02235174447,-187500.02235174447,-187500.02235174447,-187500.02235174447,1730246167.0033572,1730246165.885326,6000
638.7681530437652,-187500.02235174447,1155.5404848504645,-187500.02235174447,-187500.02235174447,-187500.02235174447,-187500.02235174447,-187500.02235174447,1730246167.0076308,1730246165.885326,6000
654.9284642849523,-187500.02235174447,1181.3567496963442,-187500.02235174447,-187500.02235174447,-187500.02235174447,-187500.02235174447,-187500.02235174447,1730246167.0114298,1730246165.885326,6000
642.165618200972,-187500.02235174447,1168.8174210569168,-187500.02235174447,-187500.02235174447,-187500.02235174447,-187500.02235174447,-187500.02235174447,1730246167.014528,1730246165.885326,6000
655.5319613852455,-187500.02235174447,1181.7590810965396,-187500.02235174447,-187500.02235174447,-187500.02235174447,-187500.02235174447,-187500.02235174447,1730246167.0186057,1730246165.885326,6000
620.4397225904135,-187500.02235174447,1125.0303536689703,-187500.02235174447,-187500.02235174447,-187500.02235174447,-187500.02235174447,-187500.02235174447,1730246167.022878,1730246165.885326,6000
609.2862021072152,-187500.02235174447,1052.8789225672392,-187500.02235174447,-187500.02235174447,-187500.02235174447,-187500.02235174447,-187500.02235174447,1730246167.027421,1730246165.885326,6000
627.6593360494776,-187500.02235174447,1147.6279673132858,-187500.02235174447,-187500.02235174447,-187500.02235174447,-187500.02235174447,-187500.02235174447,1730246167.031694,1730246165.885326,6000
591.3153995651484,-187500.02235174447,1186.0506160319587,-187500.02235174447,-187500.02235174447,-187500.02235174447,-187500.02235174447,-187500.02235174447,1730246167.035396,1730246165.885326,6000
592.9694286548411,-187500.02235174447,1121.945812934138,-187500.02235174447,-187500.02235174447,-187500.02235174447,-187500.02235174447,-187500.02235174447,1730246167.0399132,1730246165.885326,6000
599.2055653578717,-187500.02235174447,1144.5434265784534,-187500.02235174447,-187500.02235174447,-187500.02235174447,-187500.02235174447,-187500.02235174447,1730246167.0427845,1730246165.885326,6000
612.6836672644218,-187500.02235174447,1114.525033774976,-187500.02235174447,-187500.02235174447,-187500.02235174447,-187500.02235174447,-187500.02235174447,1730246167.0467093,1730246165.885326,6000
635.3036326531926,-187500.02235174447,1125.075057157881,-187500.02235174447,-187500.02235174447,-187500.02235174447,-187500.02235174447,-187500.02235174447,1730246167.0510097,1730246165.885326,6000
607.0957311505952,-187500.02235174447,1182.0943572633694,-187500.02235174447,-187500.02235174447,-187500.02235174447,-187500.02235174447,-187500.02235174447,1730246167.0555687,1730246165.885326,6000
578.5972569700787,-187500.02235174447,1137.2120543971128,-187500.02235174447,-187500.02235174447,-187500.02235174447,-187500.02235174447,-187500.02235174447,1730246167.0598512,1730246165.885326,6000
642.4561908788909,-187500.02235174447,1130.171254893691,-187500.02235174447,-187500.02235174447,-187500.02235174447,-187500.02235174447,-187500.02235174447,1730246167.06361,1730246165.885326,6000
694.289886270748,-187500.02235174447,1193.1137672798357,-187500.02235174447,-187500.02235174447,-187500.02235174447,-187500.02235174447,-187500.02235174447,1730246167.06762,1730246165.885326,6000
649.4969903823127,-187500.02235174447,1186.2741334765117,-187500.02235174447,-187500.02235174447,-187500.02235174447,-187500.02235174447,-187500.02235174447,1730246167.0705063,1730246165.885326,6000
612.035466675218,-187500.02235174447,1186.005912543048,-187500.02235174447,-187500.02235174447,-187500.02235174447,-187500.02235174447,-187500.02235174447,1730246167.0747268,1730246165.885326,6000
548.712974633333,-187500.02235174447,1142.911749233216,-187500.02235174447,-187500.02235174447,-187500.02235174447,-187500.02235174447,-187500.02235174447,1730246167.078442,1730246165.885326,6000
614.0471236761956,-187500.02235174447,1225.3449827843883,-187500.02235174447,-187500.02235174447,-187500.02235174447,-187500.02235174447,-187500.02235174447,1730246167.0826716,1730246165.885326,6000
674.0615575386951,-187500.02235174447,1196.4441772036764,-187500.02235174447,-187500.02235174447,-187500.02235174447,-187500.02235174447,-187500.02235174447,1730246167.0876627,1730246165.885326,6000
685.0362640662509,-187500.02235174447,1139.6930980316515,-187500.02235174447,-187500.02235174447,-187500.02235174447,-187500.02235174447,-187500.02235174447,1730246167.0915864,1730246165.885326,6000
526.9870790227747,-187500.02235174447,1132.8981677172385,-187500.02235174447,-187500.02235174447,-187500.02235174447,-187500.02235174447,-187500.02235174447,1730246167.0957174,1730246165.885326,6000
607.1404346395058,-187500.02235174447,1158.1556389517357,-187500.02235174447,-187500.02235174447,-187500.02235174447,-187500.02235174447,-187500.02235174447,1730246167.098663,1730246165.885326,6000
648.3346996706366,-187500.02235174447,1215.331401268411,-187500.02235174447,-187500.02235174447,-187500.02235174447,-187500.02235174447,-187500.02235174447,1730246167.102532,1730246165.885326,6000
621.0879231796174,-187500.02235174447,1200.4674912056316,-187500.02235174447,-187500.02235174447,-187500.02235174447,-187500.02235174447,-187500.02235174447,1730246167.10658,1730246165.885326,6000
596.3445420675924,-187500.02235174447,1110.3676093062888,-187500.02235174447,-187500.02235174447,-187500.02235174447,-187500.02235174447,-187500.02235174447,1730246167.110475,1730246165.885326,6000
605.0170189162516,-187500.02235174447,1056.1199255132587,-187500.02235174447,-187500.02235174447,-187500.02235174447,-187500.02235174447,-187500.02235174447,1730246167.1156588,1730246165.885326,6000
648.93819677093,-187500.02235174447,1250.267177852056,-187500.02235174447,-187500.02235174447,-187500.02235174447,-187500.02235174447,-187500.02235174447,1730246167.1195464,1730246165.885326,6000
640.5786443446451,-187500.02235174447,1239.0466021354916,-187500.02235174447,-187500.02235174447,-187500.02235174447,-187500.02235174447,-187500.02235174447,1730246167.1227157,1730246165.885326,6000
627.0111354602737,-187500.02235174447,1165.6658250887183,-187500.02235174447,-187500.02235174447,-187500.02235174447,-187500.02235174447,-187500.02235174447,1730246167.12669,1730246165.885326,6000
635.7730192867541,-187500.02235174447,1161.7095663201292,-187500.02235174447,-187500.02235174447,-187500.02235174447,-187500.02235174447,-187500.02235174447,1730246167.1306944,1730246165.885326,6000
654.548484629212,-187500.02235174447,1226.7531426850728,-187500.02235174447,-187500.02235174447,-187500.02235174447,-187500.02235174447,-187500.02235174447,1730246167.1346953,1730246165.885326,6000
567.264922531238,-187500.02235174447,1159.1838191966797,-187500.02235174447,-187500.02235174447,-187500.02235174447,-187500.02235174447,-187500.02235174447,1730246167.1386983,1730246165.885326,6000
587.0462163741847,-187500.02235174447,1114.949716919627,-187500.02235174447,-187500.02235174447,-187500.02235174447,-187500.02235174447,-187500.02235174447,1730246167.1438076,1730246165.885326,6000
660.4046416765025,-187500.02235174447,1143.8058190114284,-187500.02235174447,-187500.02235174447,-187500.02235174447,-187500.02235174447,-187500.02235174447,1730246167.1477263,1730246165.885326,6000
632.3755541295474,-187500.02235174447,1240.4100585472654,-187500.02235174447,-187500.02235174447,-187500.02235174447,-187500.02235174447,-187500.02235174447,1730246167.150745,1730246165.885326,6000
613.3542195980812,-187500.02235174447,1221.2769652935226,-187500.02235174447,-187500.02235174447,-187500.02235174447,-187500.02235174447,-187500.02235174447,1730246167.1547956,1730246165.885326,6000
578.9325331369082,-187500.02235174447,1107.2830685714566,-187500.02235174447,-187500.02235174447,-187500.02235174447,-187500.02235174447,-187500.02235174447,1730246167.1587908,1730246165.885326,6000
553.6303584135006,-187500.02235174447,1111.7981209514287,-187500.02235174447,-187500.02235174447,-187500.02235174447,-187500.02235174447,-187500.02235174447,1730246167.1627123,1730246165.885326,6000
642.679708323444,-187500.02235174447,1277.357492131888,-187500.02235174447,-187500.02235174447,-187500.02235174447,-187500.02235174447,-187500.02235174447,1730246167.166748,1730246165.885326,6000
627.5028738382905,-187500.02235174447,1263.9464454587037,-187500.02235174447,-187500.02235174447,-187500.02235174447,-187500.02235174447,-187500.02235174447,1730246167.1707387,1730246165.885326,6000
565.7450039082771,-187500.02235174447,1102.946830147127,-187500.02235174447,-187500.02235174447,-187500.02235174447,-187500.02235174447,-187500.02235174447,1730246167.175711,1730246165.885326,6000
603.8770799490309,-187500.02235174447,1130.46182757161,-187500.02235174447,-187500.02235174447,-187500.02235174447,-187500.02235174447,-187500.02235174447,1730246167.17863,1730246165.885326,6000
622.6078418025783,-187500.02235174447,1281.716082300673,-187500.02235174447,-187500.02235174447,-187500.02235174447,-187500.02235174447,-187500.02235174447,1730246167.1830125,1730246165.885326,6000
620.6632400349665,-187500.02235174447,1227.0884188519024,-187500.02235174447,-187500.02235174447,-187500.02235174447,-187500.02235174447,-187500.02235174447,1730246167.186663,1730246165.885326,6000
626.3852866155252,-187500.02235174447,1185.2906567204782,-187500.02235174447,-187500.02235174447,-187500.02235174447,-187500.02235174447,-187500.02235174447,1730246167.1910875,1730246165.885326,6000
635.7953710312094,-187500.02235174447,1172.7960315699615,-187500.02235174447,-187500.02235174447,-187500.02235174447,-187500.02235174447,-187500.02235174447,1730246167.194714,1730246165.885326,6000
648.6923275819215,-187500.02235174447,1188.1740317552128,-187500.02235174447,-187500.02235174447,-187500.02235174447,-187500.02235174447,-187500.02235174447,1730246167.1991208,1730246165.885326,6000
658.840019564631,-187500.02235174447,1204.3119912519446,-187500.02235174447,-187500.02235174447,-187500.02235174447,-187500.02235174447,-187500.02235174447,1730246167.2038872,1730246165.885326,6000
537.7382681057774,-187500.02235174447,1217.9689071141372,-187500.02235174447,-187500.02235174447,-187500.02235174447,-187500.02235174447,-187500.02235174447,1730246167.2071793,1730246165.885326,6000
526.5623958781238,-187500.02235174447,1201.42861621721,-187500.02235174447,-187500.02235174447,-187500.02235174447,-187500.02235174447,-187500.02235174447,1730246167.2116916,1730246165.885326,6000
607.0063241727739,-187500.02235174447,1200.243973761079,-187500.02235174447,-187500.02235174447,-187500.02235174447,-187500.02235174447,-187500.02235174447,1730246167.2148037,1730246165.885326,6000
663.3997754335136,-187500.02235174447,1232.7881136880058,-187500.02235174447,-187500.02235174447,-187500.02235174447,-187500.02235174447,-187500.02235174447,1730246167.218809,1730246165.885326,6000
596.7021699788774,-187500.02235174447,1215.107883823858,-187500.02235174447,-187500.02235174447,-187500.02235174447,-187500.02235174447,-187500.02235174447,1730246167.2229507,1730246165.885326,6000
567.8237161426206,-187500.02235174447,1134.7757142514845,-187500.02235174447,-187500.02235174447,-187500.02235174447,-187500.02235174447,-187500.02235174447,1730246167.2270105,1730246165.885326,6000
610.2696788632487,-187500.02235174447,1208.201194787168,-187500.02235174447,-187500.02235174447,-187500.02235174447,-187500.02235174447,-187500.02235174447,1730246167.232064,1730246165.885326,6000
639.0587257216843,-187500.02235174447,1256.8832942108268,-187500.02235174447,-187500.02235174447,-187500.02235174447,-187500.02235174447,-187500.02235174447,1730246167.234988,1730246165.885326,6000
672.9663220603851,-187500.02235174447,1251.6082825193744,-187500.02235174447,-187500.02235174447,-187500.02235174447,-187500.02235174447,-187500.02235174447,1730246167.2379208,1730246165.885326,6000
629.7604000282765,-187500.02235174447,1226.1272938403242,-187500.02235174447,-187500.02235174447,-187500.02235174447,-187500.02235174447,-187500.02235174447,1730246167.2430947,1730246165.885326,6000
610.3367340966147,-187500.02235174447,1243.494599282098,-187500.02235174447,-187500.02235174447,-187500.02235174447,-187500.02235174447,-187500.02235174447,1730246167.2471106,1730246165.885326,6000
600.7925392141985,-187500.02235174447,1270.8978379843045,-187500.02235174447,-187500.02235174447,-187500.02235174447,-187500.02235174447,-187500.02235174447,1730246167.2528653,1730246165.885326,6000
614.1812341429275,-187500.02235174447,1281.291399156022,-187500.02235174447,-187500.02235174447,-187500.02235174447,-187500.02235174447,-187500.02235174447,1730246167.256009,1730246165.885326,6000
596.9480391678857,-187500.02235174447,1229.4353520197096,-187500.02235174447,-187500.02235174447,-187500.02235174447,-187500.02235174447,-187500.02235174447,1730246167.259252,1730246165.885326,6000
622.8537109915866,-187500.02235174447,1189.8504125893608,-187500.02235174447,-187500.02235174447,-187500.02235174447,-187500.02235174447,-187500.02235174447,1730246167.2618108,1730246165.885326,6000
633.2025686743938,-187500.02235174447,1214.4149797457433,-187500.02235174447,-187500.02235174447,-187500.02235174447,-187500.02235174447,-187500.02235174447,1730246167.267109,1730246165.885326,6000
626.5864523156229,-187500.02235174447,1268.0591664384804,-187500.02235174447,-187500.02235174447,-187500.02235174447,-187500.02235174447,-187500.02235174447,1730246167.2708476,1730246165.885326,6000
552.1774950239056,-187500.02235174447,1233.3469072993885,-187500.02235174447,-187500.02235174447,-187500.02235174447,-187500.02235174447,-187500.02235174447,1730246167.2759883,1730246165.885326,6000
553.4515444578582,-187500.02235174447,1212.872709378327,-187500.02235174447,-187500.02235174447,-187500.02235174447,-187500.02235174447,-187500.02235174447,1730246167.2800727,1730246165.885326,6000
624.1501121699944,-187500.02235174447,1240.454762036176,-187500.02235174447,-187500.02235174447,-187500.02235174447,-187500.02235174447,-187500.02235174447,1730246167.283374,1730246165.885326,6000
654.6378916070332,-187500.02235174447,1218.4829972366092,-187500.02235174447,-187500.02235174447,-187500.02235174447,-187500.02235174447,-187500.02235174447,1730246167.2858236,1730246165.885326,6000
602.4689200483466,-187500.02235174447,1239.4489335356873,-187500.02235174447,-187500.02235174447,-187500.02235174447,-187500.02235174447,-187500.02235174447,1730246167.2901096,1730246165.885326,6000
556.6925474038777,-187500.02235174447,1202.6579621622518,-187500.02235174447,-187500.02235174447,-187500.02235174447,-187500.02235174447,-187500.02235174447,1730246167.2937963,1730246165.885326,6000
637.1811791874385,-187500.02235174447,1228.965965386148,-187500.02235174447,-187500.02235174447,-187500.02235174447,-187500.02235174447,-187500.02235174447,1730246167.29911,1730246165.885326,6000
622.3396208691146,-187500.02235174447,1286.298189914011,-187500.02235174447,-187500.02235174447,-187500.02235174447,-187500.02235174447,-187500.02235174447,1730246167.30299,1730246165.885326,6000
533.8490645705539,-187500.02235174447,1210.235203532601,-187500.02235174447,-187500.02235174447,-187500.02235174447,-187500.02235174447,-187500.02235174447,1730246167.3071072,1730246165.885326,6000
555.552608436657,-187500.02235174447,1216.3595815133551,-187500.02235174447,-187500.02235174447,-187500.02235174447,-187500.02235174447,-187500.02235174447,1730246167.3109272,1730246165.885326,6000
594.8693269335422,-187500.02235174447,1264.1923146477122,-187500.02235174447,-187500.02235174447,-187500.02235174447,-187500.02235174447,-187500.02235174447,1730246167.3150473,1730246165.885326,6000
625.8264930041424,-187500.02235174447,1279.2797421550445,-187500.02235174447,-187500.02235174447,-187500.02235174447,-187500.02235174447,-187500.02235174447,1730246167.318179,1730246165.885326,6000
604.8158532161538,-187500.02235174447,1265.8686954818602,-187500.02235174447,-187500.02235174447,-187500.02235174447,-187500.02235174447,-187500.02235174447,1730246167.3226335,1730246165.885326,6000
601.0384084032069,-187500.02235174447,1178.5851333838862,-187500.02235174447,-187500.02235174447,-187500.02235174447,-187500.02235174447,-187500.02235174447,1730246167.327172,1730246165.885326,6000
657.7447840863209,-187500.02235174447,1185.648284631763,-187500.02235174447,-187500.02235174447,-187500.02235174447,-187500.02235174447,-187500.02235174447,1730246167.33109,1730246165.885326,6000
654.839057307131,-187500.02235174447,1290.522669616064,-187500.02235174447,-187500.02235174447,-187500.02235174447,-187500.02235174447,-187500.02235174447,1730246167.335044,1730246165.885326,6000
597.551536268179,-187500.02235174447,1263.2758931250446,-187500.02235174447,-187500.02235174447,-187500.02235174447,-187500.02235174447,-187500.02235174447,1730246167.339481,1730246165.885326,6000
585.3698355400367,-187500.02235174447,1223.4003810167767,-187500.02235174447,-187500.02235174447,-187500.02235174447,-187500.02235174447,-187500.02235174447,1730246167.3420954,1730246165.885326,6000
626.228824404338,-187500.02235174447,1239.359526557866,-187500.02235174447,-187500.02235174447,-187500.02235174447,-187500.02235174447,-187500.02235174447,1730246167.3460245,1730246165.885326,6000
646.2112839473825,-187500.02235174447,1273.065957196469,-187500.02235174447,-187500.02235174447,-187500.02235174447,-187500.02235174447,-187500.02235174447,1730246167.3504248,1730246165.885326,6000
647.5970921036115,-187500.02235174447,1276.8210502649606,-187500.02235174447,-187500.02235174447,-187500.02235174447,-187500.02235174447,-187500.02235174447,1730246167.355055,1730246165.885326,6000
587.0462163741847,-187500.02235174447,1223.0874565944025,-187500.02235174447,-187500.02235174447,-187500.02235174447,-187500.02235174447,-187500.02235174447,1730246167.3594675,1730246165.885326,6000
577.5914284695898,-187500.02235174447,1183.2789997195007,-187500.02235174447,-187500.02235174447,-187500.02235174447,-187500.02235174447,-187500.02235174447,1730246167.3635263,1730246165.885326,6000
652.4250689059578,-187500.02235174447,1295.909440029793,-187500.02235174447,-187500.02235174447,-187500.02235174447,-187500.02235174447,-187500.02235174447,1730246167.366501,1730246165.885326,6000
610.9402311969079,-187500.02235174447,1307.0629605129911,-187500.02235174447,-187500.02235174447,-187500.02235174447,-187500.02235174447,-187500.02235174447,1730246167.3699515,1730246165.885326,6000
594.3999402999807,-187500.02235174447,1244.299262082489,-187500.02235174447,-187500.02235174447,-187500.02235174447,-187500.02235174447,-187500.02235174447,1730246167.374138,1730246165.885326,6000
602.9606584263634,-187500.02235174447,1240.8347416919162,-187500.02235174447,-187500.02235174447,-187500.02235174447,-187500.02235174447,-187500.02235174447,1730246167.3780026,1730246165.885326,6000
655.5543131297009,-187500.02235174447,1242.8911021818046,-187500.02235174447,-187500.02235174447,-187500.02235174447,-187500.02235174447,-187500.02235174447,1730246167.3825247,1730246165.885326,6000
663.9585690448963,-187500.02235174447,1285.0688439689688,-187500.02235174447,-187500.02235174447,-187500.02235174447,-187500.02235174447,-187500.02235174447,1730246167.3871791,1730246165.885326,6000
609.26385036276,-187500.02235174447,1261.9794919466367,-187500.02235174447,-187500.02235174447,-187500.02235174447,-187500.02235174447,-187500.02235174447,1730246167.3913355,1730246165.885326,6000
649.8993217825082,-187500.02235174447,1245.0592213939692,-187500.02235174447,-187500.02235174447,-187500.02235174447,-187500.02235174447,-187500.02235174447,1730246167.39394,1730246165.885326,6000
647.4406298924243,-187500.02235174447,1283.9512567462036,-187500.02235174447,-187500.02235174447,-187500.02235174447,-187500.02235174447,-187500.02235174447,1730246167.3983798,1730246165.885326,6000
667.7136621133878,-187500.02235174447,1320.3846002083542,-187500.02235174447,-187500.02235174447,-187500.02235174447,-187500.02235174447,-187500.02235174447,1730246167.402115,1730246165.885326,6000
673.9721505608738,-187500.02235174447,1278.2739136545556,-187500.02235174447,-187500.02235174447,-187500.02235174447,-187500.02235174447,-187500.02235174447,1730246167.4063754,1730246165.885326,6000
596.8586321900644,-187500.02235174447,1261.6218640353518,-187500.02235174447,-187500.02235174447,-187500.02235174447,-187500.02235174447,-187500.02235174447,1730246167.411008,1730246165.885326,6000
651.0839642386394,-187500.02235174447,1285.6723410692623,-187500.02235174447,-187500.02235174447,-187500.02235174447,-187500.02235174447,-187500.02235174447,1730246167.4151344,1730246165.885326,6000
675.7602901172984,-187500.02235174447,1307.375884935365,-187500.02235174447,-187500.02235174447,-187500.02235174447,-187500.02235174447,-187500.02235174447,1730246167.41898,1730246165.885326,6000
613.197757386894,-187500.02235174447,1290.522669616064,-187500.02235174447,-187500.02235174447,-187500.02235174447,-187500.02235174447,-187500.02235174447,1730246167.42238,1730246165.885326,6000
567.1531638089614,-187500.02235174447,1234.0621631219583,-187500.02235174447,-187500.02235174447,-187500.02235174447,-187500.02235174447,-187500.02235174447,1730246167.4264753,1730246165.885326,6000
611.0743416636398,-187500.02235174447,1284.353588146399,-187500.02235174447,-187500.02235174447,-187500.02235174447,-187500.02235174447,-187500.02235174447,1730246167.4306333,1730246165.885326,6000
676.6543598955107,-187500.02235174447,1308.3593616913988,-187500.02235174447,-187500.02235174447,-187500.02235174447,-187500.02235174447,-187500.02235174447,1730246167.4341197,1730246165.885326,6000
676.5426011732342,-187500.02235174447,1295.6859225852395,-187500.02235174447,-187500.02235174447,-187500.02235174447,-187500.02235174447,-187500.02235174447,1730246167.438324,1730246165.885326,6000
651.8439235501198,-187500.02235174447,1248.926073184737,-187500.02235174447,-187500.02235174447,-187500.02235174447,-187500.02235174447,-187500.02235174447,1730246167.4434605,1730246165.885326,6000
627.3687633715587,-187500.02235174447,1266.6957100267066,-187500.02235174447,-187500.02235174447,-187500.02235174447,-187500.02235174447,-187500.02235174447,1730246167.4473257,1730246165.885326,6000
653.1403247285277,-187500.02235174447,1305.2971727010215,-187500.02235174447,-187500.02235174447,-187500.02235174447,-187500.02235174447,-187500.02235174447,1730246167.4504788,1730246165.885326,6000
637.5611588431786,-187500.02235174447,1254.871637209849,-187500.02235174447,-187500.02235174447,-187500.02235174447,-187500.02235174447,-187500.02235174447,1730246167.454153,1730246165.885326,6000
595.2046031003717,-187500.02235174447,1245.6850702387178,-187500.02235174447,-187500.02235174447,-187500.02235174447,-187500.02235174447,-187500.02235174447,1730246167.4586332,1730246165.885326,6000
642.0762112231507,-187500.02235174447,1274.8317450084382,-187500.02235174447,-187500.02235174447,-187500.02235174447,-187500.02235174447,-187500.02235174447,1730246167.4622257,1730246165.885326,6000
756.9865294678843,-187500.02235174447,1336.880187616371,-187500.02235174447,-187500.02235174447,-187500.02235174447,-187500.02235174447,-187500.02235174447,1730246167.4664676,1730246165.885326,6000
652.4027171615026,-187500.02235174447,1335.7849521380606,-187500.02235174447,-187500.02235174447,-187500.02235174447,-187500.02235174447,-187500.02235174447,1730246167.4713612,1730246165.885326,6000
608.6603532624666,-187500.02235174447,1279.6597218107847,-187500.02235174447,-187500.02235174447,-187500.02235174447,-187500.02235174447,-187500.02235174447,1730246167.4741812,1730246165.885326,6000
617.7798650002319,-187500.02235174447,1279.1456316883125,-187500.02235174447,-187500.02235174447,-187500.02235174447,-187500.02235174447,-187500.02235174447,1730246167.47811,1730246165.885326,6000
625.133588926028,-187500.02235174447,1312.2709169710777,-187500.02235174447,-187500.02235174447,-187500.02235174447,-187500.02235174447,-187500.02235174447,1730246167.4824069,1730246165.885326,6000
646.9935950033182,-187500.02235174447,1329.5264636905747,-187500.02235174447,-187500.02235174447,-187500.02235174447,-187500.02235174447,-187500.02235174447,1730246167.4861703,1730246165.885326,6000
625.8935482375084,-187500.02235174447,1276.0163874645696,-187500.02235174447,-187500.02235174447,-187500.02235174447,-187500.02235174447,-187500.02235174447,1730246167.4905057,1730246165.885326,6000
650.5028188828014,-187500.02235174447,1224.0485816059806,-187500.02235174447,-187500.02235174447,-187500.02235174447,-187500.02235174447,-187500.02235174447,1730246167.4941213,1730246165.885326,6000
644.4901996243239,-187500.02235174447,1237.906663168271,-187500.02235174447,-187500.02235174447,-187500.02235174447,-187500.02235174447,-187500.02235174447,1730246167.4995985,1730246165.885326,6000
623.8595394920754,-187500.02235174447,1254.9386924432151,-187500.02235174447,-187500.02235174447,-187500.02235174447,-187500.02235174447,-187500.02235174447,1730246167.5021298,1730246165.885326,6000
631.6826500514329,-187500.02235174447,1261.063070423969,-187500.02235174447,-187500.02235174447,-187500.02235174447,-187500.02235174447,-187500.02235174447,1730246167.5053246,1730246165.885326,6000
670.194705747927,-187500.02235174447,1258.3585093448771,-187500.02235174447,-187500.02235174447,-187500.02235174447,-187500.02235174447,-187500.02235174447,1730246167.510311,1730246165.885326,6000
644.4454961354132,-187500.02235174447,1208.4023604872657,-187500.02235174447,-187500.02235174447,-187500.02235174447,-187500.02235174447,-187500.02235174447,1730246167.5142615,1730246165.885326,6000
620.3503156125922,-187500.02235174447,1314.6402018833403,-187500.02235174447,-187500.02235174447,-187500.02235174447,-187500.02235174447,-187500.02235174447,1730246167.5184631,1730246165.885326,6000
599.6973037358885,-187500.02235174447,1311.7344751041503,-187500.02235174447,-187500.02235174447,-187500.02235174447,-187500.02235174447,-187500.02235174447,1730246167.5226088,1730246165.885326,6000
610.001457929785,-187500.02235174447,1239.2477678355897,-187500.02235174447,-187500.02235174447,-187500.02235174447,-187500.02235174447,-187500.02235174447,1730246167.52714,1730246165.885326,6000
629.9615657283742,-187500.02235174447,1229.2565380640672,-187500.02235174447,-187500.02235174447,-187500.02235174447,-187500.02235174447,-187500.02235174447,1730246167.5307095,1730246165.885326,6000
675.872048839575,-187500.02235174447,1255.9445209437038,-187500.02235174447,-187500.02235174447,-187500.02235174447,-187500.02235174447,-187500.02235174447,1730246167.5343187,1730246165.885326,6000
664.1373830005388,-187500.02235174447,1283.3030561569997,-187500.02235174447,-187500.02235174447,-187500.02235174447,-187500.02235174447,-187500.02235174447,1730246167.5388424,1730246165.885326,6000
602.8041962151761,-187500.02235174447,1245.1933318607012,-187500.02235174447,-187500.02235174447,-187500.02235174447,-187500.02235174447,-187500.02235174447,1730246167.5427923,1730246165.885326,6000
616.8634434775643,-187500.02235174447,1229.8376834199053,-187500.02235174447,-187500.02235174447,-187500.02235174447,-187500.02235174447,-187500.02235174447,1730246167.5464416,1730246165.885326,6000
669.5018016698125,-187500.02235174447,1249.2837010960222,-187500.02235174447,-187500.02235174447,-187500.02235174447,-187500.02235174447,-187500.02235174447,1730246167.5507398,1730246165.885326,6000
655.2190369628712,-187500.02235174447,1271.5907420624187,-187500.02235174447,-187500.02235174447,-187500.02235174447,-187500.02235174447,-187500.02235174447,1730246167.554287,1730246165.885326,6000
635.4600948643798,-187500.02235174447,1234.620956733341,-187500.02235174447,-187500.02235174447,-187500.02235174447,-187500.02235174447,-187500.02235174447,1730246167.5587888,1730246165.885326,6000
623.5913185586118,-187500.02235174447,1249.9989569185925,-187500.02235174447,-187500.02235174447,-187500.02235174447,-187500.02235174447,-187500.02235174447,1730246167.56125,1730246165.885326,6000
645.3172141691703,-187500.02235174447,1276.0163874645696,-187500.02235174447,-187500.02235174447,-187500.02235174447,-187500.02235174447,-187500.02235174447,1730246167.5665543,1730246165.885326,6000
680.677673897466,-187500.02235174447,1270.070823439458,-187500.02235174447,-187500.02235174447,-187500.02235174447,-187500.02235174447,-187500.02235174447,1730246167.5704172,1730246165.885326,6000
641.4056588894915,-187500.02235174447,1231.871692165338,-187500.02235174447,-187500.02235174447,-187500.02235174447,-187500.02235174447,-187500.02235174447,1730246167.5742865,1730246165.885326,6000
624.4630365923687,-187500.02235174447,1209.2517267765677,-187500.02235174447,-187500.02235174447,-187500.02235174447,-187500.02235174447,-187500.02235174447,1730246167.5782793,1730246165.885326,6000
658.0577085086952,-187500.02235174447,1219.689991437196,-187500.02235174447,-187500.02235174447,-187500.02235174447,-187500.02235174447,-187500.02235174447,1730246167.5825655,1730246165.885326,6000
651.9109787834858,-187500.02235174447,1268.8861809833263,-187500.02235174447,-187500.02235174447,-187500.02235174447,-187500.02235174447,-187500.02235174447,1730246167.5862732,1730246165.885326,6000
626.0500104486955,-187500.02235174447,1257.3526808443885,-187500.02235174447,-187500.02235174447,-187500.02235174447,-187500.02235174447,-187500.02235174447,1730246167.5894496,1730246165.885326,6000
622.809007502676,-187500.02235174447,1187.8611073328386,-187500.02235174447,-187500.02235174447,-187500.02235174447,-187500.02235174447,-187500.02235174447,1730246167.5934384,1730246165.885326,6000
620.4620743348687,-187500.02235174447,1250.423640063243,-187500.02235174447,-187500.02235174447,-187500.02235174447,-187500.02235174447,-187500.02235174447,1730246167.5986738,1730246165.885326,6000
642.8138187901758,-187500.02235174447,1291.7520155611055,-187500.02235174447,-187500.02235174447,-187500.02235174447,-187500.02235174447,-187500.02235174447,1730246167.6022506,1730246165.885326,6000
627.3017081381927,-187500.02235174447,1243.941634171204,-187500.02235174447,-187500.02235174447,-187500.02235174447,-187500.02235174447,-187500.02235174447,1730246167.606366,1730246165.885326,6000
677.4813744403571,-187500.02235174447,1230.1506078422794,-187500.02235174447,-187500.02235174447,-187500.02235174447,-187500.02235174447,-187500.02235174447,1730246167.6094544,1730246165.885326,6000
682.868144854086,-187500.02235174447,1242.5334742705195,-187500.02235174447,-187500.02235174447,-187500.02235174447,-187500.02235174447,-187500.02235174447,1730246167.6137877,1730246165.885326,6000
636.7564960427876,-187500.02235174447,1290.0979864714132,-187500.02235174447,-187500.02235174447,-187500.02235174447,-187500.02235174447,-187500.02235174447,1730246167.617636,1730246165.885326,6000
630.0956761951061,-187500.02235174447,1269.199105405701,-187500.02235174447,-187500.02235174447,-187500.02235174447,-187500.02235174447,-187500.02235174447,1730246167.622318,1730246165.885326,6000
621.1773301574386,-187500.02235174447,1190.6997788786623,-187500.02235174447,-187500.02235174447,-187500.02235174447,-187500.02235174447,-187500.02235174447,1730246167.626845,1730246165.885326,6000
651.2180747053712,-187500.02235174447,1236.587910245408,-187500.02235174447,-187500.02235174447,-187500.02235174447,-187500.02235174447,-187500.02235174447,1730246167.6305895,1730246165.885326,6000
662.4162986774801,-187500.02235174447,1286.0299689805472,-187500.02235174447,-187500.02235174447,-187500.02235174447,-187500.02235174447,-187500.02235174447,1730246167.6343875,1730246165.885326,6000
669.4123946919913,-187500.02235174447,1290.4332626382427,-187500.02235174447,-187500.02235174447,-187500.02235174447,-187500.02235174447,-187500.02235174447,1730246167.637376,1730246165.885326,6000
631.4591326068798,-187500.02235174447,1210.235203532601,-187500.02235174447,-187500.02235174447,-187500.02235174447,-187500.02235174447,-187500.02235174447,1730246167.6415775,1730246165.885326,6000
630.6991732953994,-187500.02235174447,1211.5316047110086,-187500.02235174447,-187500.02235174447,-187500.02235174447,-187500.02235174447,-187500.02235174447,1730246167.6453393,1730246165.885326,6000
681.1470605310275,-187500.02235174447,1251.317709841455,-187500.02235174447,-187500.02235174447,-187500.02235174447,-187500.02235174447,-187500.02235174447,1730246167.6498277,1730246165.885326,6000
646.3006909252038,-187500.02235174447,1230.9776223871258,-187500.02235174447,-187500.02235174447,-187500.02235174447,-187500.02235174447,-187500.02235174447,1730246167.6546764,1730246165.885326,6000
650.0110805047847,-187500.02235174447,1157.2615691735232,-187500.02235174447,-187500.02235174447,-187500.02235174447,-187500.02235174447,-187500.02235174447,1730246167.6584408,1730246165.885326,6000
668.2724557247706,-187500.02235174447,1219.5335292260086,-187500.02235174447,-187500.02235174447,-187500.02235174447,-187500.02235174447,-187500.02235174447,1730246167.6624577,1730246165.885326,6000
686.3773687335693,-187500.02235174447,1282.744262545617,-187500.02235174447,-187500.02235174447,-187500.02235174447,-187500.02235174447,-187500.02235174447,1730246167.665364,1730246165.885326,6000
600.0325799027181,-187500.02235174447,1301.296210443522,-187500.02235174447,-187500.02235174447,-187500.02235174447,-187500.02235174447,-187500.02235174447,1730246167.6693375,1730246165.885326,6000
620.4620743348687,-187500.02235174447,1250.3342330854218,-187500.02235174447,-187500.02235174447,-187500.02235174447,-187500.02235174447,-187500.02235174447,1730246167.6737008,1730246165.885326,6000
621.3784958575363,-187500.02235174447,1222.1710350717349,-187500.02235174447,-187500.02235174447,-187500.02235174447,-187500.02235174447,-187500.02235174447,1730246167.677392,1730246165.885326,6000
665.3667289455807,-187500.02235174447,1261.063070423969,-187500.02235174447,-187500.02235174447,-187500.02235174447,-187500.02235174447,-187500.02235174447,1730246167.6828551,1730246165.885326,6000
676.6543598955107,-187500.02235174447,1272.0377769515248,-187500.02235174447,-187500.02235174447,-187500.02235174447,-187500.02235174447,-187500.02235174447,1730246167.6863644,1730246165.885326,6000
636.6670890649664,-187500.02235174447,1235.0903433669023,-187500.02235174447,-187500.02235174447,-187500.02235174447,-187500.02235174447,-187500.02235174447,1730246167.690815,1730246165.885326,6000
624.418333103458,-187500.02235174447,1210.7716453995283,-187500.02235174447,-187500.02235174447,-187500.02235174447,-187500.02235174447,-187500.02235174447,1730246167.693596,1730246165.885326,6000
661.7457463438209,-187500.02235174447,1217.7677414140394,-187500.02235174447,-187500.02235174447,-187500.02235174447,-187500.02235174447,-187500.02235174447,1730246167.697814,1730246165.885326,6000
706.5386422322563,-187500.02235174447,1276.038739209025,-187500.02235174447,-187500.02235174447,-187500.02235174447,-187500.02235174447,-187500.02235174447,1730246167.701419,1730246165.885326,6000
692.8146711366977,-187500.02235174447,1251.228302863634,-187500.02235174447,-187500.02235174447,-187500.02235174447,-187500.02235174447,-187500.02235174447,1730246167.705514,1730246165.885326,6000
622.7419522693101,-187500.02235174447,1230.396477031288,-187500.02235174447,-187500.02235174447,-187500.02235174447,-187500.02235174447,-187500.02235174447,1730246167.7104812,1730246165.885326,6000
692.8370228811531,-187500.02235174447,1239.0466021354916,-187500.02235174447,-187500.02235174447,-187500.02235174447,-187500.02235174447,-187500.02235174447,1730246167.7148118,1730246165.885326,6000
712.7524271908317,-187500.02235174447,1308.806396580505,-187500.02235174447,-187500.02235174447,-187500.02235174447,-187500.02235174447,-187500.02235174447,1730246167.7175183,1730246165.885326,6000
710.5172527453009,-187500.02235174447,1284.9570852466925,-187500.02235174447,-187500.02235174447,-187500.02235174447,-187500.02235174447,-187500.02235174447,1730246167.721628,1730246165.885326,6000
653.2073799618936,-187500.02235174447,1248.2331691066229,-187500.02235174447,-187500.02235174447,-187500.02235174447,-187500.02235174447,-187500.02235174447,1730246167.7254832,1730246165.885326,6000
617.3775336000364,-187500.02235174447,1248.926073184737,-187500.02235174447,-187500.02235174447,-187500.02235174447,-187500.02235174447,-187500.02235174447,1730246167.7297,1730246165.885326,6000
661.969263788374,-187500.02235174447,1284.2194776796673,-187500.02235174447,-187500.02235174447,-187500.02235174447,-187500.02235174447,-187500.02235174447,1730246167.7334344,1730246165.885326,6000
643.7525920572987,-187500.02235174447,1299.3739604203654,-187500.02235174447,-187500.02235174447,-187500.02235174447,-187500.02235174447,-187500.02235174447,1730246167.7375314,1730246165.885326,6000
624.9771267148408,-187500.02235174447,1219.5782327149193,-187500.02235174447,-187500.02235174447,-187500.02235174447,-187500.02235174447,-187500.02235174447,1730246167.7430153,1730246165.885326,6000
637.2258826763491,-187500.02235174447,1229.4353520197096,-187500.02235174447,-187500.02235174447,-187500.02235174447,-187500.02235174447,-187500.02235174447,1730246167.745489,1730246165.885326,6000
669.5912086476337,-187500.02235174447,1283.4148148792765,-187500.02235174447,-187500.02235174447,-187500.02235174447,-187500.02235174447,-187500.02235174447,1730246167.7495377,1730246165.885326,6000
659.4435166649242,-187500.02235174447,1281.0455299670136,-187500.02235174447,-187500.02235174447,-187500.02235174447,-187500.02235174447,-187500.02235174447,1730246167.7534888,1730246165.885326,6000
665.4784876678572,-187500.02235174447,1211.4645494776428,-187500.02235174447,-187500.02235174447,-187500.02235174447,-187500.02235174447,-187500.02235174447,1730246167.7576747,1730246165.885326,6000
646.2112839473825,-187500.02235174447,1198.679351649207,-187500.02235174447,-187500.02235174447,-187500.02235174447,-187500.02235174447,-187500.02235174447,1730246167.7615776,1730246165.885326,6000
663.2880167112371,-187500.02235174447,1269.847305994905,-187500.02235174447,-187500.02235174447,-187500.02235174447,-187500.02235174447,-187500.02235174447,1730246167.7656004,1730246165.885326,6000
660.1140689985834,-187500.02235174447,1282.5430968455194,-187500.02235174447,-187500.02235174447,-187500.02235174447,-187500.02235174447,-187500.02235174447,1730246167.770723,1730246165.885326,6000
635.1918739309161,-187500.02235174447,1249.842494707405,-187500.02235174447,-187500.02235174447,-187500.02235174447,-187500.02235174447,-187500.02235174447,1730246167.7739067,1730246165.885326,6000
585.8615739180534,-187500.02235174447,1210.1905000436902,-187500.02235174447,-187500.02235174447,-187500.02235174447,-187500.02235174447,-187500.02235174447,1730246167.777544,1730246165.885326,6000
616.7069812663772,-187500.02235174447,1268.4391460942204,-187500.02235174447,-187500.02235174447,-187500.02235174447,-187500.02235174447,-187500.02235174447,1730246167.7818978,1730246165.885326,6000
639.2375396773267,-187500.02235174447,1319.937565319248,-187500.02235174447,-187500.02235174447,-187500.02235174447,-187500.02235174447,-187500.02235174447,1730246167.785519,1730246165.885326,6000
605.6652195054555,-187500.02235174447,1278.3186171434663,-187500.02235174447,-187500.02235174447,-187500.02235174447,-187500.02235174447,-187500.02235174447,1730246167.7898169,1730246165.885326,6000
588.7673006972433,-187500.02235174447,1214.9514216126706,-187500.02235174447,-187500.02235174447,-187500.02235174447,-187500.02235174447,-187500.02235174447,1730246167.7935643,1730246165.885326,6000
654.7720020737651,-187500.02235174447,1228.295413052489,-187500.02235174447,-187500.02235174447,-187500.02235174447,-187500.02235174447,-187500.02235174447,1730246167.7992742,1730246165.885326,6000
695.5192322157899,-187500.02235174447,1309.2087279807006,-187500.02235174447,-187500.02235174447,-187500.02235174447,-187500.02235174447,-187500.02235174447,1730246167.8018527,1730246165.885326,6000
631.7497052847988,-187500.02235174447,1311.846233826427,-187500.02235174447,-187500.02235174447,-187500.02235174447,-187500.02235174447,-187500.02235174447,1730246167.8056264,1730246165.885326,6000
622.4290278469358,-187500.02235174447,1244.6345382493184,-187500.02235174447,-187500.02235174447,-187500.02235174447,-187500.02235174447,-187500.02235174447,1730246167.8100293,1730246165.885326,6000
646.2559874362931,-187500.02235174447,1277.379843876343,-187500.02235174447,-187500.02235174447,-187500.02235174447,-187500.02235174447,-187500.02235174447,1730246167.813984,1730246165.885326,6000
683.9186768434855,-187500.02235174447,1293.5401551175305,-187500.02235174447,-187500.02235174447,-187500.02235174447,-187500.02235174447,-187500.02235174447,1730246167.8177755,1730246165.885326,6000
628.1510744274943,-187500.02235174447,1260.8842564683266,-187500.02235174447,-187500.02235174447,-187500.02235174447,-187500.02235174447,-187500.02235174447,1730246167.822217,1730246165.885326,6000
634.9236529974525,-187500.02235174447,1265.4663640816646,-187500.02235174447,-187500.02235174447,-187500.02235174447,-187500.02235174447,-187500.02235174447,1730246167.8256843,1730246165.885326,6000
646.8818362810417,-187500.02235174447,1273.6247508078518,-187500.02235174447,-187500.02235174447,-187500.02235174447,-187500.02235174447,-187500.02235174447,1730246167.8286753,1730246165.885326,6000
679.3589209746028,-187500.02235174447,1308.06878901348,-187500.02235174447,-187500.02235174447,-187500.02235174447,-187500.02235174447,-187500.02235174447,1730246167.8338225,1730246165.885326,6000
634.9460047419077,-187500.02235174447,1285.3147131579774,-187500.02235174447,-187500.02235174447,-187500.02235174447,-187500.02235174447,-187500.02235174447,1730246167.837842,1730246165.885326,6000
611.6778387639331,-187500.02235174447,1225.792017673495,-187500.02235174447,-187500.02235174447,-187500.02235174447,-187500.02235174447,-187500.02235174447,1730246167.8420317,1730246165.885326,6000
626.1170656820615,-187500.02235174447,1229.5918142308967,-187500.02235174447,-187500.02235174447,-187500.02235174447,-187500.02235174447,-187500.02235174447,1730246167.8457713,1730246165.885326,6000
667.579551646656,-187500.02235174447,1316.1377687618458,-187500.02235174447,-187500.02235174447,-187500.02235174447,-187500.02235174447,-187500.02235174447,1730246167.849949,1730246165.885326,6000
690.8030141357201,-187500.02235174447,1309.678114614262,-187500.02235174447,-187500.02235174447,-187500.02235174447,-187500.02235174447,-187500.02235174447,1730246167.8537345,1730246165.885326,6000
696.5697642051892,-187500.02235174447,1236.453799778676,-187500.02235174447,-187500.02235174447,-187500.02235174447,-187500.02235174447,-187500.02235174447,1730246167.857154,1730246165.885326,6000
636.063591964673,-187500.02235174447,1212.3362675113997,-187500.02235174447,-187500.02235174447,-187500.02235174447,-187500.02235174447,-187500.02235174447,1730246167.8607314,1730246165.885326,6000
643.7525920572987,-187500.02235174447,1256.5033145550865,-187500.02235174447,-187500.02235174447,-187500.02235174447,-187500.02235174447,-187500.02235174447,1730246167.86577,1730246165.885326,6000
634.4319146194357,-187500.02235174447,1277.066919453969,-187500.02235174447,-187500.02235174447,-187500.02235174447,-187500.02235174447,-187500.02235174447,1730246167.869778,1730246165.885326,6000
647.6194438480668,-187500.02235174447,1238.4654567796538,-187500.02235174447,-187500.02235174447,-187500.02235174447,-187500.02235174447,-187500.02235174447,1730246167.8737931,1730246165.885326,6000
623.5019115807905,-187500.02235174447,1217.298354780478,-187500.02235174447,-187500.02235174447,-187500.02235174447,-187500.02235174447,-187500.02235174447,1730246167.877673,1730246165.885326,6000
621.8031790021872,-187500.02235174447,1210.3246105104222,-187500.02235174447,-187500.02235174447,-187500.02235174447,-187500.02235174447,-187500.02235174447,1730246167.8819308,1730246165.885326,6000
694.9157351154965,-187500.02235174447,1299.4410156537317,-187500.02235174447,-187500.02235174447,-187500.02235174447,-187500.02235174447,-187500.02235174447,1730246167.8850756,1730246165.885326,6000
655.934292785441,-187500.02235174447,1267.0756896824469,-187500.02235174447,-187500.02235174447,-187500.02235174447,-187500.02235174447,-187500.02235174447,1730246167.8891926,1730246165.885326,6000
609.8449957185979,-187500.02235174447,1221.8581106493605,-187500.02235174447,-187500.02235174447,-187500.02235174447,-187500.02235174447,-187500.02235174447,1730246167.8938088,1730246165.885326,6000
634.2531006637932,-187500.02235174447,1234.5986049888857,-187500.02235174447,-187500.02235174447,-187500.02235174447,-187500.02235174447,-187500.02235174447,1730246167.8979442,1730246165.885326,6000
667.8477725801197,-187500.02235174447,1284.197125935212,-187500.02235174447,-187500.02235174447,-187500.02235174447,-187500.02235174447,-187500.02235174447,1730246167.902016,1730246165.885326,6000
667.9148278134857,-187500.02235174447,1288.6674748262733,-187500.02235174447,-187500.02235174447,-187500.02235174447,-187500.02235174447,-187500.02235174447,1730246167.9059072,1730246165.885326,6000
647.5076851257903,-187500.02235174447,1215.130235568313,-187500.02235174447,-187500.02235174447,-187500.02235174447,-187500.02235174447,-187500.02235174447,1730246167.9101405,1730246165.885326,6000
664.9420458009298,-187500.02235174447,1215.2866977795004,-187500.02235174447,-187500.02235174447,-187500.02235174447,-187500.02235174447,-187500.02235174447,1730246167.912985,1730246165.885326,6000
700.548374718234,-187500.02235174447,1241.326480069933,-187500.02235174447,-187500.02235174447,-187500.02235174447,-187500.02235174447,-187500.02235174447,1730246167.9174569,1730246165.885326,6000
637.0917722096173,-187500.02235174447,1260.1242971568463,-187500.02235174447,-187500.02235174447,-187500.02235174447,-187500.02235174447,-187500.02235174447,1730246167.922474,1730246165.885326,6000
599.518489780246,-187500.02235174447,1225.1885205732012,-187500.02235174447,-187500.02235174447,-187500.02235174447,-187500.02235174447,-187500.02235174447,1730246167.9260144,1730246165.885326,6000
611.2978591081928,-187500.02235174447,1202.814424373439,-187500.02235174447,-187500.02235174447,-187500.02235174447,-187500.02235174447,-187500.02235174447,1730246167.9304905,1730246165.885326,6000
634.096638452606,-187500.02235174447,1228.4071717747656,-187500.02235174447,-187500.02235174447,-187500.02235174447,-187500.02235174447,-187500.02235174447,1730246167.93307,1730246165.885326,6000
674.3297784721588,-187500.02235174447,1280.5090881000865,-187500.02235174447,-187500.02235174447,-187500.02235174447,-187500.02235174447,-187500.02235174447,1730246167.9368129,1730246165.885326,6000
633.0908099521173,-187500.02235174447,1235.9173579117487,-187500.02235174447,-187500.02235174447,-187500.02235174447,-187500.02235174447,-187500.02235174447,1730246167.940858,1730246165.885326,6000
633.873121008053,-187500.02235174447,1210.7045901661625,-187500.02235174447,-187500.02235174447,-187500.02235174447,-187500.02235174447,-187500.02235174447,1730246167.9448152,1730246165.885326,6000
649.0723072376618,-187500.02235174447,1249.8201429629496,-187500.02235174447,-187500.02235174447,-187500.02235174447,-187500.02235174447,-187500.02235174447,1730246167.9500852,1730246165.885326,6000
652.7379933283321,-187500.02235174447,1304.7607308340944,-187500.02235174447,-187500.02235174447,-187500.02235174447,-187500.02235174447,-187500.02235174447,1730246167.9529772,1730246165.885326,6000
637.2035309318937,-187500.02235174447,1227.2448810630897,-187500.02235174447,-187500.02235174447,-187500.02235174447,-187500.02235174447,-187500.02235174447,1730246167.9570775,1730246165.885326,6000
695.7651014047982,-187500.02235174447,1164.3694239103108,-187500.02235174447,-187500.02235174447,-187500.02235174447,-187500.02235174447,-187500.02235174447,1730246167.9608436,1730246165.885326,6000
626.9887837158184,-187500.02235174447,1248.7472592290949,-187500.02235174447,-187500.02235174447,-187500.02235174447,-187500.02235174447,-187500.02235174447,1730246167.9659822,1730246165.885326,6000
593.6623327329556,-187500.02235174447,1293.0707684839688,-187500.02235174447,-187500.02235174447,-187500.02235174447,-187500.02235174447,-187500.02235174447,1730246167.969909,1730246165.885326,6000
611.7895974862096,-187500.02235174447,1260.1466489013017,-187500.02235174447,-187500.02235174447,-187500.02235174447,-187500.02235174447,-187500.02235174447,1730246167.9758816,1730246165.885326,6000
602.8265479596315,-187500.02235174447,1187.0117410435369,-187500.02235174447,-187500.02235174447,-187500.02235174447,-187500.02235174447,-187500.02235174447,1730246167.978976,1730246165.885326,6000
652.6262346060556,-187500.02235174447,1247.9202446842487,-187500.02235174447,-187500.02235174447,-187500.02235174447,-187500.02235174447,-187500.02235174447,1730246167.982068,1730246165.885326,6000
668.5183249137789,-187500.02235174447,1271.1884106622233,-187500.02235174447,-187500.02235174447,-187500.02235174447,-187500.02235174447,-187500.02235174447,1730246167.9851663,1730246165.885326,6000
612.3260393531369,-187500.02235174447,1217.9689071141372,-187500.02235174447,-187500.02235174447,-187500.02235174447,-187500.02235174447,-187500.02235174447,1730246167.9891713,1730246165.885326,6000
614.002420187285,-187500.02235174447,1177.9145810502268,-187500.02235174447,-187500.02235174447,-187500.02235174447,-187500.02235174447,-187500.02235174447,1730246167.9939158,1730246165.885326,6000
673.7039296274102,-187500.02235174447,1221.7240001826287,-187500.02235174447,-187500.02235174447,-187500.02235174447,-187500.02235174447,-187500.02235174447,1730246167.9981751,1730246165.885326,6000
669.613560392089,-187500.02235174447,1292.0202364945694,-187500.02235174447,-187500.02235174447,-187500.02235174447,-187500.02235174447,-187500.02235174447,1730246168.0012686,1730246165.885326,6000
642.7020600678993,-187500.02235174447,1227.647212463285,-187500.02235174447,-187500.02235174447,-187500.02235174447,-187500.02235174447,-187500.02235174447,1730246168.0050602,1730246165.885326,6000
627.5028738382905,-187500.02235174447,1169.622083857308,-187500.02235174447,-187500.02235174447,-187500.02235174447,-187500.02235174447,-187500.02235174447,1730246168.009443,1730246165.885326,6000
663.6903481114326,-187500.02235174447,1248.0543551509804,-187500.02235174447,-187500.02235174447,-187500.02235174447,-187500.02235174447,-187500.02235174447,1730246168.0136156,1730246165.885326,6000
663.8915138115303,-187500.02235174447,1283.4595183681868,-187500.02235174447,-187500.02235174447,-187500.02235174447,-187500.02235174447,-187500.02235174447,1730246168.0170553,1730246165.885326,6000
667.6689586244772,-187500.02235174447,1249.3731080738437,-187500.02235174447,-187500.02235174447,-187500.02235174447,-187500.02235174447,-187500.02235174447,1730246168.0222516,1730246165.885326,6000
669.4347464364465,-187500.02235174447,1206.7036279086624,-187500.02235174447,-187500.02235174447,-187500.02235174447,-187500.02235174447,-187500.02235174447,1730246168.0259929,1730246165.885326,6000
595.294010078193,-187500.02235174447,1190.1633370117352,-187500.02235174447,-187500.02235174447,-187500.02235174447,-187500.02235174447,-187500.02235174447,1730246168.029079,1730246165.885326,6000
659.7787928317539,-187500.02235174447,1252.8599802088715,-187500.02235174447,-187500.02235174447,-187500.02235174447,-187500.02235174447,-187500.02235174447,1730246168.0331526,1730246165.885326,6000
634.2978041527039,-187500.02235174447,1284.6888643132288,-187500.02235174447,-187500.02235174447,-187500.02235174447,-187500.02235174447,-187500.02235174447,1730246168.037094,1730246165.885326,6000
595.9869141563075,-187500.02235174447,1214.7279041681177,-187500.02235174447,-187500.02235174447,-187500.02235174447,-187500.02235174447,-187500.02235174447,1730246168.0411649,1730246165.885326,6000
602.7371409818103,-187500.02235174447,1177.3781391832997,-187500.02235174447,-187500.02235174447,-187500.02235174447,-187500.02235174447,-187500.02235174447,1730246168.0449183,1730246165.885326,6000
678.2189820073822,-187500.02235174447,1204.0884738073914,-187500.02235174447,-187500.02235174447,-187500.02235174447,-187500.02235174447,-187500.02235174447,1730246168.0494497,1730246165.885326,6000
688.5678396901893,-187500.02235174447,1259.9454832012038,-187500.02235174447,-187500.02235174447,-187500.02235174447,-187500.02235174447,-187500.02235174447,1730246168.0540743,1730246165.885326,6000
617.6904580224107,-187500.02235174447,1234.8891776668047,-187500.02235174447,-187500.02235174447,-187500.02235174447,-187500.02235174447,-187500.02235174447,1730246168.0574837,1730246165.885326,6000
607.7886352287096,-187500.02235174447,1181.490860163076,-187500.02235174447,-187500.02235174447,-187500.02235174447,-187500.02235174447,-187500.02235174447,1730246168.060935,1730246165.885326,6000
688.9925228348402,-187500.02235174447,1201.8309476174054,-187500.02235174447,-187500.02235174447,-187500.02235174447,-187500.02235174447,-187500.02235174447,1730246168.0651555,1730246165.885326,6000
666.484316168346,-187500.02235174447,1288.5110126150862,-187500.02235174447,-187500.02235174447,-187500.02235174447,-187500.02235174447,-187500.02235174447,1730246168.0690055,1730246165.885326,6000
607.9227456954414,-187500.02235174447,1230.754104942573,-187500.02235174447,-187500.02235174447,-187500.02235174447,-187500.02235174447,-187500.02235174447,1730246168.0733368,1730246165.885326,6000
583.6711029614333,-187500.02235174447,1156.9486447511488,-187500.02235174447,-187500.02235174447,-187500.02235174447,-187500.02235174447,-187500.02235174447,1730246168.0769908,1730246165.885326,6000
602.8265479596315,-187500.02235174447,1222.9980496165813,-187500.02235174447,-187500.02235174447,-187500.02235174447,-187500.02235174447,-187500.02235174447,1730246168.0827177,1730246165.885326,6000
652.872103795064,-187500.02235174447,1264.2370181366227,-187500.02235174447,-187500.02235174447,-187500.02235174447,-187500.02235174447,-187500.02235174447,1730246168.085152,1730246165.885326,6000
639.9080920109859,-187500.02235174447,1224.9202996397376,-187500.02235174447,-187500.02235174447,-187500.02235174447,-187500.02235174447,-187500.02235174447,1730246168.0892243,1730246165.885326,6000
628.7545715277877,-187500.02235174447,1174.3830054262885,-187500.02235174447,-187500.02235174447,-187500.02235174447,-187500.02235174447,-187500.02235174447,1730246168.0933428,1730246165.885326,6000
659.5999788761114,-187500.02235174447,1202.9261830957155,-187500.02235174447,-187500.02235174447,-187500.02235174447,-187500.02235174447,-187500.02235174447,1730246168.097366,1730246165.885326,6000
681.9740750758738,-187500.02235174447,1251.7200412416507,-187500.02235174447,-187500.02235174447,-187500.02235174447,-187500.02235174447,-187500.02235174447,1730246168.101344,1730246165.885326,6000
657.8341910641421,-187500.02235174447,1225.233224062112,-187500.02235174447,-187500.02235174447,-187500.02235174447,-187500.02235174447,-187500.02235174447,1730246168.1051984,1730246165.885326,6000
634.5213215972569,-187500.02235174447,1195.5724591699195,-187500.02235174447,-187500.02235174447,-187500.02235174447,-187500.02235174447,-187500.02235174447,1730246168.111184,1730246165.885326,6000
624.9994784592961,-187500.02235174447,1186.7211683656178,-187500.02235174447,-187500.02235174447,-187500.02235174447,-187500.02235174447,-187500.02235174447,1730246168.114296,1730246165.885326,6000
643.1267432125501,-187500.02235174447,1282.1854689342344,-187500.02235174447,-187500.02235174447,-187500.02235174447,-187500.02235174447,-187500.02235174447,1730246168.1182528,1730246165.885326,6000
608.4368358179136,-187500.02235174447,1254.737526743117,-187500.02235174447,-187500.02235174447,-187500.02235174447,-187500.02235174447,-187500.02235174447,1730246168.1212103,1730246165.885326,6000
613.8459579760979,-187500.02235174447,1219.9805641151147,-187500.02235174447,-187500.02235174447,-187500.02235174447,-187500.02235174447,-187500.02235174447,1730246168.1252728,1730246165.885326,6000
647.5300368702456,-187500.02235174447,1222.774532172028,-187500.02235174447,-187500.02235174447,-187500.02235174447,-187500.02235174447,-187500.02235174447,1730246168.1292045,1730246165.885326,6000
642.6350048345333,-187500.02235174447,1252.1670761307569,-187500.02235174447,-187500.02235174447,-187500.02235174447,-187500.02235174447,-187500.02235174447,1730246168.1332912,1730246165.885326,6000
617.2657748777599,-187500.02235174447,1268.707367027684,-187500.02235174447,-187500.02235174447,-187500.02235174447,-187500.02235174447,-187500.02235174447,1730246168.1361127,1730246165.885326,6000
610.5378997967124,-187500.02235174447,1265.5334193150306,-187500.02235174447,-187500.02235174447,-187500.02235174447,-187500.02235174447,-187500.02235174447,1730246168.140224,1730246165.885326,6000
615.7682079992543,-187500.02235174447,1232.4975410100867,-187500.02235174447,-187500.02235174447,-187500.02235174447,-187500.02235174447,-187500.02235174447,1730246168.1451263,1730246165.885326,6000
660.5611038876896,-187500.02235174447,1245.1486283717904,-187500.02235174447,-187500.02235174447,-187500.02235174447,-187500.02235174447,-187500.02235174447,1730246168.1491785,1730246165.885326,6000
688.9478193459296,-187500.02235174447,1300.44684415422,-187500.02235174447,-187500.02235174447,-187500.02235174447,-187500.02235174447,-187500.02235174447,1730246168.1530538,1730246165.885326,6000
641.1821414449385,-187500.02235174447,1289.360378904388,-187500.02235174447,-187500.02235174447,-187500.02235174447,-187500.02235174447,-187500.02235174447,1730246168.15724,1730246165.885326,6000
603.9217834379415,-187500.02235174447,1239.4712852801426,-187500.02235174447,-187500.02235174447,-187500.02235174447,-187500.02235174447,-187500.02235174447,1730246168.1611445,1730246165.885326,6000
625.7594377707766,-187500.02235174447,1262.4712303246536,-187500.02235174447,-187500.02235174447,-187500.02235174447,-187500.02235174447,-187500.02235174447,1730246168.1653187,1730246165.885326,6000
666.0372812792399,-187500.02235174447,1295.417701651776,-187500.02235174447,-187500.02235174447,-187500.02235174447,-187500.02235174447,-187500.02235174447,1730246168.1682827,1730246165.885326,6000
611.968411441852,-187500.02235174447,1240.745334714095,-187500.02235174447,-187500.02235174447,-187500.02235174447,-187500.02235174447,-187500.02235174447,1730246168.172263,1730246165.885326,6000
585.6380564735003,-187500.02235174447,1202.1215202953244,-187500.02235174447,-187500.02235174447,-187500.02235174447,-187500.02235174447,-187500.02235174447,1730246168.1770928,1730246165.885326,6000
617.7798650002319,-187500.02235174447,1244.455724293676,-187500.02235174447,-187500.02235174447,-187500.02235174447,-187500.02235174447,-187500.02235174447,1730246168.1812465,1730246165.885326,6000
678.4201477074799,-187500.02235174447,1285.5382306025303,-187500.02235174447,-187500.02235174447,-187500.02235174447,-187500.02235174447,-187500.02235174447,1730246168.1850913,1730246165.885326,6000
670.1276505145611,-187500.02235174447,1264.125259414346,-187500.02235174447,-187500.02235174447,-187500.02235174447,-187500.02235174447,-187500.02235174447,1730246168.1892772,1730246165.885326,6000
601.9995334147851,-187500.02235174447,1214.5714419569306,-187500.02235174447,-187500.02235174447,-187500.02235174447,-187500.02235174447,-187500.02235174447,1730246168.1932895,1730246165.885326,6000
596.746873467788,-187500.02235174447,1193.002008557559,-187500.02235174447,-187500.02235174447,-187500.02235174447,-187500.02235174447,-187500.02235174447,1730246168.1962712,1730246165.885326,6000
645.4513246359021,-187500.02235174447,1279.1456316883125,-187500.02235174447,-187500.02235174447,-187500.02235174447,-187500.02235174447,-187500.02235174447,1730246168.2004492,1730246165.885326,6000
653.3414904286254,-187500.02235174447,1285.4264718802538,-187500.02235174447,-187500.02235174447,-187500.02235174447,-187500.02235174447,-187500.02235174447,1730246168.205273,1730246165.885326,6000
575.2444953017825,-187500.02235174447,1204.2449360185783,-187500.02235174447,-187500.02235174447,-187500.02235174447,-187500.02235174447,-187500.02235174447,1730246168.2101543,1730246165.885326,6000
615.8576149770755,-187500.02235174447,1198.7017033936625,-187500.02235174447,-187500.02235174447,-187500.02235174447,-187500.02235174447,-187500.02235174447,1730246168.214851,1730246165.885326,6000
689.6407234240442,-187500.02235174447,1251.809448219472,-187500.02235174447,-187500.02235174447,-187500.02235174447,-187500.02235174447,-187500.02235174447,1730246168.2176085,1730246165.885326,6000
644.1325717130389,-187500.02235174447,1270.8978379843045,-187500.02235174447,-187500.02235174447,-187500.02235174447,-187500.02235174447,-187500.02235174447,1730246168.220435,1730246165.885326,6000
567.1531638089614,-187500.02235174447,1225.3449827843883,-187500.02235174447,-187500.02235174447,-187500.02235174447,-187500.02235174447,-187500.02235174447,1730246168.2243176,1730246165.885326,6000
575.7809371687099,-187500.02235174447,1190.3197992229225,-187500.02235174447,-187500.02235174447,-187500.02235174447,-187500.02235174447,-187500.02235174447,1730246168.2282968,1730246165.885326,6000
619.9032807234861,-187500.02235174447,1243.7404684711062,-187500.02235174447,-187500.02235174447,-187500.02235174447,-187500.02235174447,-187500.02235174447,1730246168.2335062,1730246165.885326,6000
626.8993767379972,-187500.02235174447,1271.166058917768,-187500.02235174447,-187500.02235174447,-187500.02235174447,-187500.02235174447,-187500.02235174447,1730246168.237604,1730246165.885326,6000
604.324114838137,-187500.02235174447,1218.7959216589836,-187500.02235174447,-187500.02235174447,-187500.02235174447,-187500.02235174447,-187500.02235174447,1730246168.2414784,1730246165.885326,6000
623.4795598363352,-187500.02235174447,1161.8660285313165,-187500.02235174447,-187500.02235174447,-187500.02235174447,-187500.02235174447,-187500.02235174447,1730246168.2442925,1730246165.885326,6000
634.2978041527039,-187500.02235174447,1250.2224743631452,-187500.02235174447,-187500.02235174447,-187500.02235174447,-187500.02235174447,-187500.02235174447,1730246168.2485223,1730246165.885326,6000
655.9566445298964,-187500.02235174447,1277.0445677095138,-187500.02235174447,-187500.02235174447,-187500.02235174447,-187500.02235174447,-187500.02235174447,1730246168.2522857,1730246165.885326,6000
631.7944087737094,-187500.02235174447,1227.5801572299192,-187500.02235174447,-187500.02235174447,-187500.02235174447,-187500.02235174447,-187500.02235174447,1730246168.256946,1730246165.885326,6000
589.9295914089194,-187500.02235174447,1165.3529006663443,-187500.02235174447,-187500.02235174447,-187500.02235174447,-187500.02235174447,-187500.02235174447,1730246168.2602673,1730246165.885326,6000
633.1355134410279,-187500.02235174447,1228.0495438634807,-187500.02235174447,-187500.02235174447,-187500.02235174447,-187500.02235174447,-187500.02235174447,1730246168.2654765,1730246165.885326,6000
654.4814293958461,-187500.02235174447,1304.3136959449882,-187500.02235174447,-187500.02235174447,-187500.02235174447,-187500.02235174447,-187500.02235174447,1730246168.2693155,1730246165.885326,6000
623.2560423917821,-187500.02235174447,1268.5956083054075,-187500.02235174447,-187500.02235174447,-187500.02235174447,-187500.02235174447,-187500.02235174447,1730246168.2729628,1730246165.885326,6000
630.74387678431,-187500.02235174447,1177.5122496500314,-187500.02235174447,-187500.02235174447,-187500.02235174447,-187500.02235174447,-187500.02235174447,1730246168.2766154,1730246165.885326,6000
635.1695221864608,-187500.02235174447,1213.2079855451568,-187500.02235174447,-187500.02235174447,-187500.02235174447,-187500.02235174447,-187500.02235174447,1730246168.2805872,1730246165.885326,6000
647.2841676812372,-187500.02235174447,1303.419626166776,-187500.02235174447,-187500.02235174447,-187500.02235174447,-187500.02235174447,-187500.02235174447,1730246168.2845078,1730246165.885326,6000
630.453304106391,-187500.02235174447,1266.3380821154217,-187500.02235174447,-187500.02235174447,-187500.02235174447,-187500.02235174447,-187500.02235174447,1730246168.2895775,1730246165.885326,6000
627.100542438095,-187500.02235174447,1230.9776223871258,-187500.02235174447,-187500.02235174447,-187500.02235174447,-187500.02235174447,-187500.02235174447,1730246168.2935178,1730246165.885326,6000
651.2180747053712,-187500.02235174447,1240.2759480805337,-187500.02235174447,-187500.02235174447,-187500.02235174447,-187500.02235174447,-187500.02235174447,1730246168.2975657,1730246165.885326,6000
684.902153599519,-187500.02235174447,1297.384655163843,-187500.02235174447,-187500.02235174447,-187500.02235174447,-187500.02235174447,-187500.02235174447,1730246168.3008528,1730246165.885326,6000
