Fp1,Fp2,C3,C4,P7,P8,O1,O2,time_board,time_marker,marker
3041.468923266998,-187500.02235174447,24171.31056443579,-187500.02235174447,-187500.02235174447,-187500.02235174447,-187500.02235174447,-187500.02235174447,1730411328.3837872,1730411328.3819163,6000
3103.070330985824,-187500.02235174447,24229.715672697508,-187500.02235174447,-187500.02235174447,-187500.02235174447,-187500.02235174447,-187500.02235174447,1730411328.3878074,1730411328.3819163,6000
3125.8914620746928,-187500.02235174447,24251.50862354143,-187500.02235174447,-187500.02235174447,-187500.02235174447,-187500.02235174447,-187500.02235174447,1730411328.3907833,1730411328.3819163,6000
3054.120010628702,-187500.02235174447,24173.612794114684,-187500.02235174447,-187500.02235174447,-187500.02235174447,-187500.02235174447,-187500.02235174447,1730411328.3948772,1730411328.3819163,6000
3043.949966901537,-187500.02235174447,24179.245433717424,-187500.02235174447,-187500.02235174447,-187500.02235174447,-187500.02235174447,-187500.02235174447,1730411328.3997817,1730411328.3819163,6000
3113.3297816908103,-187500.02235174447,24256.80598697734,-187500.02235174447,-187500.02235174447,-187500.02235174447,-187500.02235174447,-187500.02235174447,1730411328.4039245,1730411328.3819163,6000
3136.463837202053,-187500.02235174447,24246.457129294533,-187500.02235174447,-187500.02235174447,-187500.02235174447,-187500.02235174447,-187500.02235174447,1730411328.4078388,1730411328.3819163,6000
3056.0646123963134,-187500.02235174447,24163.822730043263,-187500.02235174447,-187500.02235174447,-187500.02235174447,-187500.02235174447,-187500.02235174447,1730411328.4110076,1730411328.3819163,6000
3034.450475508032,-187500.02235174447,24166.571994611262,-187500.02235174447,-187500.02235174447,-187500.02235174447,-187500.02235174447,-187500.02235174447,1730411328.4148383,1730411328.3819163,6000
3071.3085021148327,-187500.02235174447,24217.690434180557,-187500.02235174447,-187500.02235174447,-187500.02235174447,-187500.02235174447,-187500.02235174447,1730411328.418933,1730411328.3819163,6000
3121.465816672542,-187500.02235174447,24249.98870491847,-187500.02235174447,-187500.02235174447,-187500.02235174447,-187500.02235174447,-187500.02235174447,1730411328.4230213,1730411328.3819163,6000
3083.266685398422,-187500.02235174447,24209.55439919882,-187500.02235174447,-187500.02235174447,-187500.02235174447,-187500.02235174447,-187500.02235174447,1730411328.428014,1730411328.3819163,6000
3023.632231191663,-187500.02235174447,24161.8557765312,-187500.02235174447,-187500.02235174447,-187500.02235174447,-187500.02235174447,-187500.02235174447,1730411328.4318757,1730411328.3819163,6000
3053.091830383757,-187500.02235174447,24200.814867116795,-187500.02235174447,-187500.02235174447,-187500.02235174447,-187500.02235174447,-187500.02235174447,1730411328.435979,1730411328.3819163,6000
3109.999371766969,-187500.02235174447,24238.03052163488,-187500.02235174447,-187500.02235174447,-187500.02235174447,-187500.02235174447,-187500.02235174447,1730411328.4390955,1730411328.3819163,6000
3077.410528351132,-187500.02235174447,24191.94122456804,-187500.02235174447,-187500.02235174447,-187500.02235174447,-187500.02235174447,-187500.02235174447,1730411328.4430327,1730411328.3819163,6000
3026.7167719264958,-187500.02235174447,24155.239660172425,-187500.02235174447,-187500.02235174447,-187500.02235174447,-187500.02235174447,-187500.02235174447,1730411328.4469311,1730411328.3819163,6000
3061.1384583876684,-187500.02235174447,24206.402803230623,-187500.02235174447,-187500.02235174447,-187500.02235174447,-187500.02235174447,-187500.02235174447,1730411328.4509456,1730411328.3819163,6000
3117.263688714944,-187500.02235174447,24254.593164276263,-187500.02235174447,-187500.02235174447,-187500.02235174447,-187500.02235174447,-187500.02235174447,1730411328.454959,1730411328.3819163,6000
3104.009104252947,-187500.02235174447,24220.551457470832,-187500.02235174447,-187500.02235174447,-187500.02235174447,-187500.02235174447,-187500.02235174447,1730411328.459962,1730411328.3819163,6000
3035.3892487751546,-187500.02235174447,24159.39708464111,-187500.02235174447,-187500.02235174447,-187500.02235174447,-187500.02235174447,-187500.02235174447,1730411328.4639423,1730411328.3819163,6000
3049.8061239488275,-187500.02235174447,24187.917910566084,-187500.02235174447,-187500.02235174447,-187500.02235174447,-187500.02235174447,-187500.02235174447,1730411328.4671063,1730411328.3819163,6000
3106.914831032137,-187500.02235174447,24243.50669902643,-187500.02235174447,-187500.02235174447,-187500.02235174447,-187500.02235174447,-187500.02235174447,1730411328.4710004,1730411328.3819163,6000
3097.4823948719973,-187500.02235174447,24205.955768341515,-187500.02235174447,-187500.02235174447,-187500.02235174447,-187500.02235174447,-187500.02235174447,1730411328.4750369,1730411328.3819163,6000
3050.8119524493163,-187500.02235174447,24154.03266597184,-187500.02235174447,-187500.02235174447,-187500.02235174447,-187500.02235174447,-187500.02235174447,1730411328.4790618,1730411328.3819163,6000
3045.9616239025145,-187500.02235174447,24192.70118387952,-187500.02235174447,-187500.02235174447,-187500.02235174447,-187500.02235174447,-187500.02235174447,1730411328.4830177,1730411328.3819163,6000
3109.015895010936,-187500.02235174447,24247.015922905917,-187500.02235174447,-187500.02235174447,-187500.02235174447,-187500.02235174447,-187500.02235174447,1730411328.488052,1730411328.3819163,6000
3150.903064120181,-187500.02235174447,24270.485254583986,-187500.02235174447,-187500.02235174447,-187500.02235174447,-187500.02235174447,-187500.02235174447,1730411328.4909585,1730411328.3819163,6000
3088.117013945224,-187500.02235174447,24210.42611723257,-187500.02235174447,-187500.02235174447,-187500.02235174447,-187500.02235174447,-187500.02235174447,1730411328.495201,1730411328.3819163,6000
3047.973280903492,-187500.02235174447,24193.08116353526,-187500.02235174447,-187500.02235174447,-187500.02235174447,-187500.02235174447,-187500.02235174447,1730411328.4990678,1730411328.3819163,6000
3107.205403710056,-187500.02235174447,24242.947905415047,-187500.02235174447,-187500.02235174447,-187500.02235174447,-187500.02235174447,-187500.02235174447,1730411328.5032485,1730411328.3819163,6000
3135.256843001466,-187500.02235174447,24238.92459141309,-187500.02235174447,-187500.02235174447,-187500.02235174447,-187500.02235174447,-187500.02235174447,1730411328.5070827,1730411328.3819163,6000
3069.766231747417,-187500.02235174447,24187.225006487966,-187500.02235174447,-187500.02235174447,-187500.02235174447,-187500.02235174447,-187500.02235174447,1730411328.5112436,1730411328.3819163,6000
3038.205568576523,-187500.02235174447,24184.363983197687,-187500.02235174447,-187500.02235174447,-187500.02235174447,-187500.02235174447,-187500.02235174447,1730411328.516111,1730411328.3819163,6000
3086.395929622165,-187500.02235174447,24235.728291955984,-187500.02235174447,-187500.02235174447,-187500.02235174447,-187500.02235174447,-187500.02235174447,1730411328.5190463,1730411328.3819163,6000
3147.4385437296087,-187500.02235174447,24272.04987669586,-187500.02235174447,-187500.02235174447,-187500.02235174447,-187500.02235174447,-187500.02235174447,1730411328.523296,1730411328.3819163,6000
3106.08781648729,-187500.02235174447,24216.23757079096,-187500.02235174447,-187500.02235174447,-187500.02235174447,-187500.02235174447,-187500.02235174447,1730411328.5271983,1730411328.3819163,6000
3042.139475600657,-187500.02235174447,24174.551567381808,-187500.02235174447,-187500.02235174447,-187500.02235174447,-187500.02235174447,-187500.02235174447,1730411328.5312605,1730411328.3819163,6000
3091.559182591341,-187500.02235174447,24231.257943064924,-187500.02235174447,-187500.02235174447,-187500.02235174447,-187500.02235174447,-187500.02235174447,1730411328.535072,1730411328.3819163,6000
3151.52891296493,-187500.02235174447,24268.719466772018,-187500.02235174447,-187500.02235174447,-187500.02235174447,-187500.02235174447,-187500.02235174447,1730411328.53918,1730411328.3819163,6000
3105.394912409176,-187500.02235174447,24215.723480668483,-187500.02235174447,-187500.02235174447,-187500.02235174447,-187500.02235174447,-187500.02235174447,1730411328.5441778,1730411328.3819163,6000
3021.866443379693,-187500.02235174447,24151.3504566372,-187500.02235174447,-187500.02235174447,-187500.02235174447,-187500.02235174447,-187500.02235174447,1730411328.547237,1730411328.3819163,6000
3080.875048741704,-187500.02235174447,24219.299759781334,-187500.02235174447,-187500.02235174447,-187500.02235174447,-187500.02235174447,-187500.02235174447,1730411328.5501063,1730411328.3819163,6000
3125.734999863505,-187500.02235174447,24258.549423044853,-187500.02235174447,-187500.02235174447,-187500.02235174447,-187500.02235174447,-187500.02235174447,1730411328.5552337,1730411328.3819163,6000
3110.2228892115227,-187500.02235174447,24224.55241972833,-187500.02235174447,-187500.02235174447,-187500.02235174447,-187500.02235174447,-187500.02235174447,1730411328.559157,1730411328.3819163,6000
3065.586455534274,-187500.02235174447,24197.19388451504,-187500.02235174447,-187500.02235174447,-187500.02235174447,-187500.02235174447,-187500.02235174447,1730411328.5631049,1730411328.3819163,6000
3058.2997868418443,-187500.02235174447,24209.75556489892,-187500.02235174447,-187500.02235174447,-187500.02235174447,-187500.02235174447,-187500.02235174447,1730411328.56709,1730411328.3819163,6000
3125.5785376523186,-187500.02235174447,24263.60091729175,-187500.02235174447,-187500.02235174447,-187500.02235174447,-187500.02235174447,-187500.02235174447,1730411328.5721917,1730411328.3819163,6000
3123.7009911180726,-187500.02235174447,24232.66610296561,-187500.02235174447,-187500.02235174447,-187500.02235174447,-187500.02235174447,-187500.02235174447,1730411328.5752125,1730411328.3819163,6000
3058.791525219861,-187500.02235174447,24184.69925936452,-187500.02235174447,-187500.02235174447,-187500.02235174447,-187500.02235174447,-187500.02235174447,1730411328.5791886,1730411328.3819163,6000
3048.8673506817045,-187500.02235174447,24195.897483336623,-187500.02235174447,-187500.02235174447,-187500.02235174447,-187500.02235174447,-187500.02235174447,1730411328.5831418,1730411328.3819163,6000
3116.5707846368296,-187500.02235174447,24252.581507275285,-187500.02235174447,-187500.02235174447,-187500.02235174447,-187500.02235174447,-187500.02235174447,1730411328.5882585,1730411328.3819163,6000
3125.9361655636035,-187500.02235174447,24246.233611849977,-187500.02235174447,-187500.02235174447,-187500.02235174447,-187500.02235174447,-187500.02235174447,1730411328.5911405,1730411328.3819163,6000
3058.4786007974867,-187500.02235174447,24185.906253565103,-187500.02235174447,-187500.02235174447,-187500.02235174447,-187500.02235174447,-187500.02235174447,1730411328.5953453,1730411328.3819163,6000
3037.4232575205874,-187500.02235174447,24174.663326104084,-187500.02235174447,-187500.02235174447,-187500.02235174447,-187500.02235174447,-187500.02235174447,1730411328.59917,1730411328.3819163,6000
3097.236525682989,-187500.02235174447,24244.13254787118,-187500.02235174447,-187500.02235174447,-187500.02235174447,-187500.02235174447,-187500.02235174447,1730411328.6033297,1730411328.3819163,6000
3147.4385437296087,-187500.02235174447,24264.115007414224,-187500.02235174447,-187500.02235174447,-187500.02235174447,-187500.02235174447,-187500.02235174447,1730411328.6072392,1730411328.3819163,6000
3095.6495518266624,-187500.02235174447,24196.478628692465,-187500.02235174447,-187500.02235174447,-187500.02235174447,-187500.02235174447,-187500.02235174447,1730411328.611375,1730411328.3819163,6000
3036.3503737867327,-187500.02235174447,24175.22211971547,-187500.02235174447,-187500.02235174447,-187500.02235174447,-187500.02235174447,-187500.02235174447,1730411328.6151736,1730411328.3819163,6000
3083.8925342431708,-187500.02235174447,24232.50964075442,-187500.02235174447,-187500.02235174447,-187500.02235174447,-187500.02235174447,-187500.02235174447,1730411328.618226,1730411328.3819163,6000
3130.8535493437707,-187500.02235174447,24254.61551602072,-187500.02235174447,-187500.02235174447,-187500.02235174447,-187500.02235174447,-187500.02235174447,1730411328.6222093,1730411328.3819163,6000
3100.365769906732,-187500.02235174447,24208.70503290952,-187500.02235174447,-187500.02235174447,-187500.02235174447,-187500.02235174447,-187500.02235174447,1730411328.6272588,1730411328.3819163,6000
3038.205568576523,-187500.02235174447,24175.915023793583,-187500.02235174447,-187500.02235174447,-187500.02235174447,-187500.02235174447,-187500.02235174447,1730411328.631338,1730411328.3819163,6000
3083.043167953869,-187500.02235174447,24234.007207632927,-187500.02235174447,-187500.02235174447,-187500.02235174447,-187500.02235174447,-187500.02235174447,1730411328.6352837,1730411328.3819163,6000
3143.1246570497347,-187500.02235174447,24268.853577238748,-187500.02235174447,-187500.02235174447,-187500.02235174447,-187500.02235174447,-187500.02235174447,1730411328.6393228,1730411328.3819163,6000
3089.972208735014,-187500.02235174447,24204.65936716311,-187500.02235174447,-187500.02235174447,-187500.02235174447,-187500.02235174447,-187500.02235174447,1730411328.643371,1730411328.3819163,6000
3050.856655938227,-187500.02235174447,24192.32120422378,-187500.02235174447,-187500.02235174447,-187500.02235174447,-187500.02235174447,-187500.02235174447,1730411328.6463346,1730411328.3819163,6000
3081.0091592084364,-187500.02235174447,24236.06356812281,-187500.02235174447,-187500.02235174447,-187500.02235174447,-187500.02235174447,-187500.02235174447,1730411328.6503468,1730411328.3819163,6000
3127.746656864483,-187500.02235174447,24258.795292233863,-187500.02235174447,-187500.02235174447,-187500.02235174447,-187500.02235174447,-187500.02235174447,1730411328.6553898,1730411328.3819163,6000
3104.322028675321,-187500.02235174447,24200.14431478313,-187500.02235174447,-187500.02235174447,-187500.02235174447,-187500.02235174447,-187500.02235174447,1730411328.659423,1730411328.3819163,6000
3041.9383099005595,-187500.02235174447,24161.721666064463,-187500.02235174447,-187500.02235174447,-187500.02235174447,-187500.02235174447,-187500.02235174447,1730411328.6634114,1730411328.3819163,6000
3053.4271065505877,-187500.02235174447,24208.14623929813,-187500.02235174447,-187500.02235174447,-187500.02235174447,-187500.02235174447,-187500.02235174447,1730411328.6663644,1730411328.3819163,6000
3150.6795466756284,-187500.02235174447,24296.14505721868,-187500.02235174447,-187500.02235174447,-187500.02235174447,-187500.02235174447,-187500.02235174447,1730411328.6703515,1730411328.3819163,6000
3149.00316584148,-187500.02235174447,24272.45220809605,-187500.02235174447,-187500.02235174447,-187500.02235174447,-187500.02235174447,-187500.02235174447,1730411328.674286,1730411328.3819163,6000
3074.594208549763,-187500.02235174447,24189.08020127776,-187500.02235174447,-187500.02235174447,-187500.02235174447,-187500.02235174447,-187500.02235174447,1730411328.678466,1730411328.3819163,6000
3046.36395530271,-187500.02235174447,24179.29013720633,-187500.02235174447,-187500.02235174447,-187500.02235174447,-187500.02235174447,-187500.02235174447,1730411328.683458,1730411328.3819163,6000
3088.8546215122487,-187500.02235174447,24228.978065130483,-187500.02235174447,-187500.02235174447,-187500.02235174447,-187500.02235174447,-187500.02235174447,1730411328.6875477,1730411328.3819163,6000
3064.13359214468,-187500.02235174447,24193.2599774909,-187500.02235174447,-187500.02235174447,-187500.02235174447,-187500.02235174447,-187500.02235174447,1730411328.6914246,1730411328.3819163,6000
3015.339733998744,-187500.02235174447,24121.980264422928,-187500.02235174447,-187500.02235174447,-187500.02235174447,-187500.02235174447,-187500.02235174447,1730411328.6945298,1730411328.3819163,6000
3107.0712932433244,-187500.02235174447,24212.057794577813,-187500.02235174447,-187500.02235174447,-187500.02235174447,-187500.02235174447,-187500.02235174447,1730411328.698415,1730411328.3819163,6000
3163.241227059511,-187500.02235174447,24291.76411530544,-187500.02235174447,-187500.02235174447,-187500.02235174447,-187500.02235174447,-187500.02235174447,1730411328.7024136,1730411328.3819163,6000
3228.7318383135607,-187500.02235174447,24335.70764490457,-187500.02235174447,-187500.02235174447,-187500.02235174447,-187500.02235174447,-187500.02235174447,1730411328.7064433,1730411328.3819163,6000
3165.856381160782,-187500.02235174447,24285.23740592449,-187500.02235174447,-187500.02235174447,-187500.02235174447,-187500.02235174447,-187500.02235174447,1730411328.7115216,1730411328.3819163,6000
2999.760568113395,-187500.02235174447,24171.444674902523,-187500.02235174447,-187500.02235174447,-187500.02235174447,-187500.02235174447,-187500.02235174447,1730411328.7153604,1730411328.3819163,6000
3063.686557255573,-187500.02235174447,24180.02774477336,-187500.02235174447,-187500.02235174447,-187500.02235174447,-187500.02235174447,-187500.02235174447,1730411328.7194405,1730411328.3819163,6000
3170.7961166854047,-187500.02235174447,24207.07335556428,-187500.02235174447,-187500.02235174447,-187500.02235174447,-187500.02235174447,-187500.02235174447,1730411328.7225184,1730411328.3819163,6000
3155.239302544511,-187500.02235174447,24167.95780276749,-187500.02235174447,-187500.02235174447,-187500.02235174447,-187500.02235174447,-187500.02235174447,1730411328.727544,1730411328.3819163,6000
3247.0602687669125,-187500.02235174447,24301.598882865776,-187500.02235174447,-187500.02235174447,-187500.02235174447,-187500.02235174447,-187500.02235174447,1730411328.7315264,1730411328.3819163,6000
3263.0864695413675,-187500.02235174447,24286.645565825173,-187500.02235174447,-187500.02235174447,-187500.02235174447,-187500.02235174447,-187500.02235174447,1730411328.7344875,1730411328.3819163,6000
3043.0335453788693,-187500.02235174447,24200.032556060854,-187500.02235174447,-187500.02235174447,-187500.02235174447,-187500.02235174447,-187500.02235174447,1730411328.7385423,1730411328.3819163,6000
3170.9078754076813,-187500.02235174447,24309.556103891864,-187500.02235174447,-187500.02235174447,-187500.02235174447,-187500.02235174447,-187500.02235174447,1730411328.7434893,1730411328.3819163,6000
3052.4883332834643,-187500.02235174447,24182.575843641265,-187500.02235174447,-187500.02235174447,-187500.02235174447,-187500.02235174447,-187500.02235174447,1730411328.747608,1730411328.3819163,6000
2923.3846573096107,-187500.02235174447,24099.38265077861,-187500.02235174447,-187500.02235174447,-187500.02235174447,-187500.02235174447,-187500.02235174447,1730411328.750481,1730411328.3819163,6000
3156.0216136004465,-187500.02235174447,24197.41740195959,-187500.02235174447,-187500.02235174447,-187500.02235174447,-187500.02235174447,-187500.02235174447,1730411328.7546055,1730411328.3819163,6000
3200.836861233337,-187500.02235174447,24162.21340444248,-187500.02235174447,-187500.02235174447,-187500.02235174447,-187500.02235174447,-187500.02235174447,1730411328.7585652,1730411328.3819163,6000
3165.7446224385053,-187500.02235174447,24021.28565565177,-187500.02235174447,-187500.02235174447,-187500.02235174447,-187500.02235174447,-187500.02235174447,1730411328.7625923,1730411328.3819163,6000
3230.5646813588955,-187500.02235174447,24269.18885340558,-187500.02235174447,-187500.02235174447,-187500.02235174447,-187500.02235174447,-187500.02235174447,1730411328.7665515,1730411328.3819163,6000
3086.977074978003,-187500.02235174447,24453.7248556286,-187500.02235174447,-187500.02235174447,-187500.02235174447,-187500.02235174447,-187500.02235174447,1730411328.7714405,1730411328.3819163,6000
3126.204386497067,-187500.02235174447,24333.852450114784,-187500.02235174447,-187500.02235174447,-187500.02235174447,-187500.02235174447,-187500.02235174447,1730411328.7744322,1730411328.3819163,6000
3263.1535247747333,-187500.02235174447,24359.69106670512,-187500.02235174447,-187500.02235174447,-187500.02235174447,-187500.02235174447,-187500.02235174447,1730411328.7784996,1730411328.3819163,6000
3158.033270601424,-187500.02235174447,24346.592944454307,-187500.02235174447,-187500.02235174447,-187500.02235174447,-187500.02235174447,-187500.02235174447,1730411328.7825086,1730411328.3819163,6000
3037.333850542766,-187500.02235174447,24193.617605402185,-187500.02235174447,-187500.02235174447,-187500.02235174447,-187500.02235174447,-187500.02235174447,1730411328.786648,1730411328.3819163,6000
3078.192839407068,-187500.02235174447,24107.67514797153,-187500.02235174447,-187500.02235174447,-187500.02235174447,-187500.02235174447,-187500.02235174447,1730411328.790496,1730411328.3819163,6000
3091.022740724414,-187500.02235174447,24179.26778546188,-187500.02235174447,-187500.02235174447,-187500.02235174447,-187500.02235174447,-187500.02235174447,1730411328.794654,1730411328.3819163,6000
3027.275565537878,-187500.02235174447,24115.76647946435,-187500.02235174447,-187500.02235174447,-187500.02235174447,-187500.02235174447,-187500.02235174447,1730411328.7995424,1730411328.3819163,6000
2949.223273899945,-187500.02235174447,23964.86985264657,-187500.02235174447,-187500.02235174447,-187500.02235174447,-187500.02235174447,-187500.02235174447,1730411328.8025472,1730411328.3819163,6000
3282.420728495208,-187500.02235174447,24543.265943916555,-187500.02235174447,-187500.02235174447,-187500.02235174447,-187500.02235174447,-187500.02235174447,1730411328.8067305,1730411328.3819163,6000
2959.9074077495825,-187500.02235174447,24137.69354077501,-187500.02235174447,-187500.02235174447,-187500.02235174447,-187500.02235174447,-187500.02235174447,1730411328.8107212,1730411328.3819163,6000
2978.504059136398,-187500.02235174447,24012.41201310301,-187500.02235174447,-187500.02235174447,-187500.02235174447,-187500.02235174447,-187500.02235174447,1730411328.814669,1730411328.3819163,6000
3008.88007985116,-187500.02235174447,24020.23512366237,-187500.02235174447,-187500.02235174447,-187500.02235174447,-187500.02235174447,-187500.02235174447,1730411328.8187833,1730411328.3819163,6000
3301.039731626479,-187500.02235174447,24417.269160421987,-187500.02235174447,-187500.02235174447,-187500.02235174447,-187500.02235174447,-187500.02235174447,1730411328.8227324,1730411328.3819163,6000
3273.904713857736,-187500.02235174447,24453.009599806024,-187500.02235174447,-187500.02235174447,-187500.02235174447,-187500.02235174447,-187500.02235174447,1730411328.8277853,1730411328.3819163,6000
3247.1273240002783,-187500.02235174447,24330.119708790746,-187500.02235174447,-187500.02235174447,-187500.02235174447,-187500.02235174447,-187500.02235174447,1730411328.8307724,1730411328.3819163,6000
3212.7056375391053,-187500.02235174447,24274.46386509703,-187500.02235174447,-187500.02235174447,-187500.02235174447,-187500.02235174447,-187500.02235174447,1730411328.834764,1730411328.3819163,6000
3259.912521828714,-187500.02235174447,24390.64823277572,-187500.02235174447,-187500.02235174447,-187500.02235174447,-187500.02235174447,-187500.02235174447,1730411328.8387988,1730411328.3819163,6000
3171.5113725079746,-187500.02235174447,24332.131365791724,-187500.02235174447,-187500.02235174447,-187500.02235174447,-187500.02235174447,-187500.02235174447,1730411328.8428953,1730411328.3819163,6000
2959.952111238493,-187500.02235174447,24181.36884944068,-187500.02235174447,-187500.02235174447,-187500.02235174447,-187500.02235174447,-187500.02235174447,1730411328.8468144,1730411328.3819163,6000
3034.025792363381,-187500.02235174447,24083.110580815148,-187500.02235174447,-187500.02235174447,-187500.02235174447,-187500.02235174447,-187500.02235174447,1730411328.850768,1730411328.3819163,6000
2968.222256686957,-187500.02235174447,24061.58585090469,-187500.02235174447,-187500.02235174447,-187500.02235174447,-187500.02235174447,-187500.02235174447,1730411328.8558547,1730411328.3819163,6000
3191.1809076286445,-187500.02235174447,24254.503757298444,-187500.02235174447,-187500.02235174447,-187500.02235174447,-187500.02235174447,-187500.02235174447,1730411328.85881,1730411328.3819163,6000
3325.380781338308,-187500.02235174447,24416.397442388232,-187500.02235174447,-187500.02235174447,-187500.02235174447,-187500.02235174447,-187500.02235174447,1730411328.8618376,1730411328.3819163,6000
3076.784679506383,-187500.02235174447,24237.69524546805,-187500.02235174447,-187500.02235174447,-187500.02235174447,-187500.02235174447,-187500.02235174447,1730411328.866638,1730411328.3819163,6000
3103.293848430377,-187500.02235174447,24165.320296921767,-187500.02235174447,-187500.02235174447,-187500.02235174447,-187500.02235174447,-187500.02235174447,1730411328.870865,1730411328.3819163,6000
2983.555553383297,-187500.02235174447,24087.089191328192,-187500.02235174447,-187500.02235174447,-187500.02235174447,-187500.02235174447,-187500.02235174447,1730411328.874675,1730411328.3819163,6000
2909.951258891971,-187500.02235174447,24070.41478996453,-187500.02235174447,-187500.02235174447,-187500.02235174447,-187500.02235174447,-187500.02235174447,1730411328.8788753,1730411328.3819163,6000
3104.836118797793,-187500.02235174447,24240.98095190298,-187500.02235174447,-187500.02235174447,-187500.02235174447,-187500.02235174447,-187500.02235174447,1730411328.8838863,1730411328.3819163,6000
3417.9170033832797,-187500.02235174447,24572.859653575382,-187500.02235174447,-187500.02235174447,-187500.02235174447,-187500.02235174447,-187500.02235174447,1730411328.8869734,1730411328.3819163,6000
3187.738738982527,-187500.02235174447,24433.36241642981,-187500.02235174447,-187500.02235174447,-187500.02235174447,-187500.02235174447,-187500.02235174447,1730411328.889779,1730411328.3819163,6000
3081.880877242193,-187500.02235174447,24201.664233406096,-187500.02235174447,-187500.02235174447,-187500.02235174447,-187500.02235174447,-187500.02235174447,1730411328.894765,1730411328.3819163,6000
3025.3980190036323,-187500.02235174447,24115.43120329752,-187500.02235174447,-187500.02235174447,-187500.02235174447,-187500.02235174447,-187500.02235174447,1730411328.8986976,1730411328.3819163,6000
3008.634210662152,-187500.02235174447,24159.285325918838,-187500.02235174447,-187500.02235174447,-187500.02235174447,-187500.02235174447,-187500.02235174447,1730411328.9026916,1730411328.3819163,6000
2909.392465280589,-187500.02235174447,24042.94449602896,-187500.02235174447,-187500.02235174447,-187500.02235174447,-187500.02235174447,-187500.02235174447,1730411328.9067056,1730411328.3819163,6000
3164.0905933488125,-187500.02235174447,24253.09559739776,-187500.02235174447,-187500.02235174447,-187500.02235174447,-187500.02235174447,-187500.02235174447,1730411328.9098172,1730411328.3819163,6000
3193.0808059073456,-187500.02235174447,24405.713308538598,-187500.02235174447,-187500.02235174447,-187500.02235174447,-187500.02235174447,-187500.02235174447,1730411328.9138856,1730411328.3819163,6000
3318.742313235082,-187500.02235174447,24461.61502142132,-187500.02235174447,-187500.02235174447,-187500.02235174447,-187500.02235174447,-187500.02235174447,1730411328.9179032,1730411328.3819163,6000
3281.4372517391744,-187500.02235174447,24389.955328697604,-187500.02235174447,-187500.02235174447,-187500.02235174447,-187500.02235174447,-187500.02235174447,1730411328.92187,1730411328.3819163,6000
3018.2007572890234,-187500.02235174447,24232.487289009965,-187500.02235174447,-187500.02235174447,-187500.02235174447,-187500.02235174447,-187500.02235174447,1730411328.9268029,1730411328.3819163,6000
2981.3650824266774,-187500.02235174447,24164.44857888801,-187500.02235174447,-187500.02235174447,-187500.02235174447,-187500.02235174447,-187500.02235174447,1730411328.9308093,1730411328.3819163,6000
3179.7591662119826,-187500.02235174447,24256.068379410317,-187500.02235174447,-187500.02235174447,-187500.02235174447,-187500.02235174447,-187500.02235174447,1730411328.9348936,1730411328.3819163,6000
3177.0769568773458,-187500.02235174447,24267.244251637967,-187500.02235174447,-187500.02235174447,-187500.02235174447,-187500.02235174447,-187500.02235174447,1730411328.9379144,1730411328.3819163,6000
3075.2871126278774,-187500.02235174447,24263.51151031393,-187500.02235174447,-187500.02235174447,-187500.02235174447,-187500.02235174447,-187500.02235174447,1730411328.9418423,1730411328.3819163,6000
3342.2116449131545,-187500.02235174447,24460.16215803172,-187500.02235174447,-187500.02235174447,-187500.02235174447,-187500.02235174447,-187500.02235174447,1730411328.945944,1730411328.3819163,6000
3178.7086342225834,-187500.02235174447,24404.662776549198,-187500.02235174447,-187500.02235174447,-187500.02235174447,-187500.02235174447,-187500.02235174447,1730411328.9498036,1730411328.3819163,6000
3114.067389257835,-187500.02235174447,24397.68903227914,-187500.02235174447,-187500.02235174447,-187500.02235174447,-187500.02235174447,-187500.02235174447,1730411328.9548893,1730411328.3819163,6000
3181.01086390148,-187500.02235174447,24365.81544468587,-187500.02235174447,-187500.02235174447,-187500.02235174447,-187500.02235174447,-187500.02235174447,1730411328.9588027,1730411328.3819163,6000
3123.231604484511,-187500.02235174447,24272.60867030724,-187500.02235174447,-187500.02235174447,-187500.02235174447,-187500.02235174447,-187500.02235174447,1730411328.9629965,1730411328.3819163,6000
2998.955905313004,-187500.02235174447,24186.28623322085,-187500.02235174447,-187500.02235174447,-187500.02235174447,-187500.02235174447,-187500.02235174447,1730411328.9658878,1730411328.3819163,6000
2992.339788954233,-187500.02235174447,24094.71113618745,-187500.02235174447,-187500.02235174447,-187500.02235174447,-187500.02235174447,-187500.02235174447,1730411328.970103,1730411328.3819163,6000
3268.2944259994542,-187500.02235174447,24130.339816849213,-187500.02235174447,-187500.02235174447,-187500.02235174447,-187500.02235174447,-187500.02235174447,1730411328.97385,1730411328.3819163,6000
3337.160150666255,-187500.02235174447,24422.65593083572,-187500.02235174447,-187500.02235174447,-187500.02235174447,-187500.02235174447,-187500.02235174447,1730411328.9779863,1730411328.3819163,6000
3136.106209290768,-187500.02235174447,24442.77250084549,-187500.02235174447,-187500.02235174447,-187500.02235174447,-187500.02235174447,-187500.02235174447,1730411328.982828,1730411328.3819163,6000
3165.6105119717736,-187500.02235174447,24500.59646375137,-187500.02235174447,-187500.02235174447,-187500.02235174447,-187500.02235174447,-187500.02235174447,1730411328.9870656,1730411328.3819163,6000
3128.6407266426954,-187500.02235174447,24464.65485866724,-187500.02235174447,-187500.02235174447,-187500.02235174447,-187500.02235174447,-187500.02235174447,1730411328.990828,1730411328.3819163,6000
2989.8363935752386,-187500.02235174447,24225.29002729536,-187500.02235174447,-187500.02235174447,-187500.02235174447,-187500.02235174447,-187500.02235174447,1730411328.993982,1730411328.3819163,6000
2942.137770907613,-187500.02235174447,24068.649002152564,-187500.02235174447,-187500.02235174447,-187500.02235174447,-187500.02235174447,-187500.02235174447,1730411328.997969,1730411328.3819163,6000
3149.159628052668,-187500.02235174447,24376.4548750466,-187500.02235174447,-187500.02235174447,-187500.02235174447,-187500.02235174447,-187500.02235174447,1730411329.0019355,1730411328.3819163,6000
3267.556818432429,-187500.02235174447,24460.475082454097,-187500.02235174447,-187500.02235174447,-187500.02235174447,-187500.02235174447,-187500.02235174447,1730411329.0058732,1730411328.3819163,6000
3292.0766820999006,-187500.02235174447,24488.14654208977,-187500.02235174447,-187500.02235174447,-187500.02235174447,-187500.02235174447,-187500.02235174447,1730411329.0110123,1730411328.3819163,6000
3100.522232117919,-187500.02235174447,24373.459741289586,-187500.02235174447,-187500.02235174447,-187500.02235174447,-187500.02235174447,-187500.02235174447,1730411329.0148866,1730411328.3819163,6000
3097.728264061006,-187500.02235174447,24331.974903580536,-187500.02235174447,-187500.02235174447,-187500.02235174447,-187500.02235174447,-187500.02235174447,1730411329.0180905,1730411328.3819163,6000
3165.364642782765,-187500.02235174447,24354.214889313567,-187500.02235174447,-187500.02235174447,-187500.02235174447,-187500.02235174447,-187500.02235174447,1730411329.0220869,1730411328.3819163,6000
3150.9924710980026,-187500.02235174447,24343.933086864126,-187500.02235174447,-187500.02235174447,-187500.02235174447,-187500.02235174447,-187500.02235174447,1730411329.0262277,1730411328.3819163,6000
3089.100490701257,-187500.02235174447,24273.56979531882,-187500.02235174447,-187500.02235174447,-187500.02235174447,-187500.02235174447,-187500.02235174447,1730411329.0301995,1730411328.3819163,6000
3130.2277004990224,-187500.02235174447,24314.227618483023,-187500.02235174447,-187500.02235174447,-187500.02235174447,-187500.02235174447,-187500.02235174447,1730411329.0340874,1730411328.3819163,6000
3078.4610603405317,-187500.02235174447,24310.204304481067,-187500.02235174447,-187500.02235174447,-187500.02235174447,-187500.02235174447,-187500.02235174447,1730411329.038046,1730411328.3819163,6000
3058.053917652836,-187500.02235174447,24192.14239026813,-187500.02235174447,-187500.02235174447,-187500.02235174447,-187500.02235174447,-187500.02235174447,1730411329.043089,1730411328.3819163,6000
3154.4793432330302,-187500.02235174447,24361.367447539265,-187500.02235174447,-187500.02235174447,-187500.02235174447,-187500.02235174447,-187500.02235174447,1730411329.046102,1730411328.3819163,6000
3095.8060140378493,-187500.02235174447,24390.849398475817,-187500.02235174447,-187500.02235174447,-187500.02235174447,-187500.02235174447,-187500.02235174447,1730411329.0501187,1730411328.3819163,6000
3190.0186169169688,-187500.02235174447,24330.522040190943,-187500.02235174447,-187500.02235174447,-187500.02235174447,-187500.02235174447,-187500.02235174447,1730411329.054024,1730411328.3819163,6000
3328.8676534733363,-187500.02235174447,24469.59459419186,-187500.02235174447,-187500.02235174447,-187500.02235174447,-187500.02235174447,-187500.02235174447,1730411329.0580175,1730411328.3819163,6000
3154.077011832835,-187500.02235174447,24360.361619038777,-187500.02235174447,-187500.02235174447,-187500.02235174447,-187500.02235174447,-187500.02235174447,1730411329.0620584,1730411328.3819163,6000
3058.0315659083803,-187500.02235174447,24329.38210122372,-187500.02235174447,-187500.02235174447,-187500.02235174447,-187500.02235174447,-187500.02235174447,1730411329.066091,1730411328.3819163,6000
3034.539882485853,-187500.02235174447,24323.078909287324,-187500.02235174447,-187500.02235174447,-187500.02235174447,-187500.02235174447,-187500.02235174447,1730411329.071126,1730411328.3819163,6000
3002.755701870406,-187500.02235174447,24216.036405090857,-187500.02235174447,-187500.02235174447,-187500.02235174447,-187500.02235174447,-187500.02235174447,1730411329.0739667,1730411328.3819163,6000
3218.8970707532253,-187500.02235174447,24513.113440646342,-187500.02235174447,-187500.02235174447,-187500.02235174447,-187500.02235174447,-187500.02235174447,1730411329.0781002,1730411328.3819163,6000
3127.1878632531007,-187500.02235174447,24443.152480501238,-187500.02235174447,-187500.02235174447,-187500.02235174447,-187500.02235174447,-187500.02235174447,1730411329.0819523,1730411328.3819163,6000
3182.463727291075,-187500.02235174447,24466.107722056837,-187500.02235174447,-187500.02235174447,-187500.02235174447,-187500.02235174447,-187500.02235174447,1730411329.08611,1730411328.3819163,6000
3143.661098916662,-187500.02235174447,24386.133180395747,-187500.02235174447,-187500.02235174447,-187500.02235174447,-187500.02235174447,-187500.02235174447,1730411329.0900483,1730411328.3819163,6000
3154.211122299567,-187500.02235174447,24322.76598486495,-187500.02235174447,-187500.02235174447,-187500.02235174447,-187500.02235174447,-187500.02235174447,1730411329.0940988,1730411328.3819163,6000
3150.0760495753348,-187500.02235174447,24385.68614550664,-187500.02235174447,-187500.02235174447,-187500.02235174447,-187500.02235174447,-187500.02235174447,1730411329.099015,1730411328.3819163,6000
3141.872959360237,-187500.02235174447,24437.3186751984,-187500.02235174447,-187500.02235174447,-187500.02235174447,-187500.02235174447,-187500.02235174447,1730411329.102209,1730411328.3819163,6000
3178.10513712229,-187500.02235174447,24393.509256066,-187500.02235174447,-187500.02235174447,-187500.02235174447,-187500.02235174447,-187500.02235174447,1730411329.106127,1730411328.3819163,6000
3028.214338805001,-187500.02235174447,24291.85352228326,-187500.02235174447,-187500.02235174447,-187500.02235174447,-187500.02235174447,-187500.02235174447,1730411329.1103148,1730411328.3819163,6000
2927.3856195671106,-187500.02235174447,24230.162707586613,-187500.02235174447,-187500.02235174447,-187500.02235174447,-187500.02235174447,-187500.02235174447,1730411329.114208,1730411328.3819163,6000
3099.3152379173325,-187500.02235174447,24357.053560859396,-187500.02235174447,-187500.02235174447,-187500.02235174447,-187500.02235174447,-187500.02235174447,1730411329.1182692,1730411328.3819163,6000
3208.101178181312,-187500.02235174447,24485.3302222884,-187500.02235174447,-187500.02235174447,-187500.02235174447,-187500.02235174447,-187500.02235174447,1730411329.1222312,1730411328.3819163,6000
3224.462655122597,-187500.02235174447,24444.158309001723,-187500.02235174447,-187500.02235174447,-187500.02235174447,-187500.02235174447,-187500.02235174447,1730411329.126118,1730411328.3819163,6000
3133.5804621673183,-187500.02235174447,24428.176811716177,-187500.02235174447,-187500.02235174447,-187500.02235174447,-187500.02235174447,-187500.02235174447,1730411329.129212,1730411328.3819163,6000
3077.2764178844,-187500.02235174447,24337.67459841664,-187500.02235174447,-187500.02235174447,-187500.02235174447,-187500.02235174447,-187500.02235174447,1730411329.1331084,1730411328.3819163,6000
3044.307594812822,-187500.02235174447,24333.025435569936,-187500.02235174447,-187500.02235174447,-187500.02235174447,-187500.02235174447,-187500.02235174447,1730411329.1381197,1730411328.3819163,6000
3125.6455928856844,-187500.02235174447,24301.39771716568,-187500.02235174447,-187500.02235174447,-187500.02235174447,-187500.02235174447,-187500.02235174447,1730411329.142175,1730411328.3819163,6000
3039.859597666216,-187500.02235174447,24200.92662583907,-187500.02235174447,-187500.02235174447,-187500.02235174447,-187500.02235174447,-187500.02235174447,1730411329.1460912,1730411328.3819163,6000
2993.278562221356,-187500.02235174447,24205.19580903004,-187500.02235174447,-187500.02235174447,-187500.02235174447,-187500.02235174447,-187500.02235174447,1730411329.150232,1730411328.3819163,6000
3211.1186636827783,-187500.02235174447,24575.85478733239,-187500.02235174447,-187500.02235174447,-187500.02235174447,-187500.02235174447,-187500.02235174447,1730411329.1541495,1730411328.3819163,6000
3316.8871184452914,-187500.02235174447,24674.49303561366,-187500.02235174447,-187500.02235174447,-187500.02235174447,-187500.02235174447,-187500.02235174447,1730411329.157142,1730411328.3819163,6000
3077.566990562319,-187500.02235174447,24461.83853886587,-187500.02235174447,-187500.02235174447,-187500.02235174447,-187500.02235174447,-187500.02235174447,1730411329.1612332,1730411328.3819163,6000
3082.238505153478,-187500.02235174447,24441.252582222533,-187500.02235174447,-187500.02235174447,-187500.02235174447,-187500.02235174447,-187500.02235174447,1730411329.166196,1730411328.3819163,6000
3144.8457413727933,-187500.02235174447,24377.25953784699,-187500.02235174447,-187500.02235174447,-187500.02235174447,-187500.02235174447,-187500.02235174447,1730411329.1702807,1730411328.3819163,6000
3097.884726272193,-187500.02235174447,24318.89913307418,-187500.02235174447,-187500.02235174447,-187500.02235174447,-187500.02235174447,-187500.02235174447,1730411329.1741617,1730411328.3819163,6000
2951.5255035788423,-187500.02235174447,24257.99062943347,-187500.02235174447,-187500.02235174447,-187500.02235174447,-187500.02235174447,-187500.02235174447,1730411329.178193,1730411328.3819163,6000
3125.757351607961,-187500.02235174447,24496.55079800496,-187500.02235174447,-187500.02235174447,-187500.02235174447,-187500.02235174447,-187500.02235174447,1730411329.181309,1730411328.3819163,6000
3169.6114742292734,-187500.02235174447,24527.105632675368,-187500.02235174447,-187500.02235174447,-187500.02235174447,-187500.02235174447,-187500.02235174447,1730411329.1854062,1730411328.3819163,6000
3217.287745152443,-187500.02235174447,24538.77324328104,-187500.02235174447,-187500.02235174447,-187500.02235174447,-187500.02235174447,-187500.02235174447,1730411329.1892524,1730411328.3819163,6000
3147.7738198964385,-187500.02235174447,24454.21659400661,-187500.02235174447,-187500.02235174447,-187500.02235174447,-187500.02235174447,-187500.02235174447,1730411329.1943412,1730411328.3819163,6000
3070.190914892068,-187500.02235174447,24363.937898151627,-187500.02235174447,-187500.02235174447,-187500.02235174447,-187500.02235174447,-187500.02235174447,1730411329.1983132,1730411328.3819163,6000
3103.450310641565,-187500.02235174447,24366.418941786163,-187500.02235174447,-187500.02235174447,-187500.02235174447,-187500.02235174447,-187500.02235174447,1730411329.2024946,1730411328.3819163,6000
3144.130485550223,-187500.02235174447,24451.959067816624,-187500.02235174447,-187500.02235174447,-187500.02235174447,-187500.02235174447,-187500.02235174447,1730411329.2063997,1730411328.3819163,6000
3076.7399760174726,-187500.02235174447,24380.56759602637,-187500.02235174447,-187500.02235174447,-187500.02235174447,-187500.02235174447,-187500.02235174447,1730411329.2092552,1730411328.3819163,6000
3023.2298997914672,-187500.02235174447,24347.218793299056,-187500.02235174447,-187500.02235174447,-187500.02235174447,-187500.02235174447,-187500.02235174447,1730411329.213337,1730411328.3819163,6000
2990.372835442166,-187500.02235174447,24314.115859760743,-187500.02235174447,-187500.02235174447,-187500.02235174447,-187500.02235174447,-187500.02235174447,1730411329.217385,1730411328.3819163,6000
3113.8885753021927,-187500.02235174447,24383.898005950214,-187500.02235174447,-187500.02235174447,-187500.02235174447,-187500.02235174447,-187500.02235174447,1730411329.222422,1730411328.3819163,6000
3226.6084225903064,-187500.02235174447,24444.270067724,-187500.02235174447,-187500.02235174447,-187500.02235174447,-187500.02235174447,-187500.02235174447,1730411329.22642,1730411328.3819163,6000
3144.957500095069,-187500.02235174447,24418.811430789403,-187500.02235174447,-187500.02235174447,-187500.02235174447,-187500.02235174447,-187500.02235174447,1730411329.2304313,1730411328.3819163,6000
3109.015895010936,-187500.02235174447,24512.979330179613,-187500.02235174447,-187500.02235174447,-187500.02235174447,-187500.02235174447,-187500.02235174447,1730411329.2333448,1730411328.3819163,6000
3037.60207147623,-187500.02235174447,24365.03313362993,-187500.02235174447,-187500.02235174447,-187500.02235174447,-187500.02235174447,-187500.02235174447,1730411329.23745,1730411328.3819163,6000
3114.134444491201,-187500.02235174447,24399.521875324477,-187500.02235174447,-187500.02235174447,-187500.02235174447,-187500.02235174447,-187500.02235174447,1730411329.241295,1730411328.3819163,6000
3063.5524467888413,-187500.02235174447,24448.382788703777,-187500.02235174447,-187500.02235174447,-187500.02235174447,-187500.02235174447,-187500.02235174447,1730411329.245454,1730411328.3819163,6000
3041.111295355713,-187500.02235174447,24434.189430974657,-187500.02235174447,-187500.02235174447,-187500.02235174447,-187500.02235174447,-187500.02235174447,1730411329.2503364,1730411328.3819163,6000
3192.901991951703,-187500.02235174447,24513.00168192407,-187500.02235174447,-187500.02235174447,-187500.02235174447,-187500.02235174447,-187500.02235174447,1730411329.2545104,1730411328.3819163,6000
3221.176948687667,-187500.02235174447,24485.84431241087,-187500.02235174447,-187500.02235174447,-187500.02235174447,-187500.02235174447,-187500.02235174447,1730411329.2584674,1730411328.3819163,6000
3034.4728272524867,-187500.02235174447,24383.58508152784,-187500.02235174447,-187500.02235174447,-187500.02235174447,-187500.02235174447,-187500.02235174447,1730411329.2615356,1730411328.3819163,6000
3043.9052634126265,-187500.02235174447,24419.79490754544,-187500.02235174447,-187500.02235174447,-187500.02235174447,-187500.02235174447,-187500.02235174447,1730411329.265294,1730411328.3819163,6000
3230.095294725334,-187500.02235174447,24522.61293203985,-187500.02235174447,-187500.02235174447,-187500.02235174447,-187500.02235174447,-187500.02235174447,1730411329.2694423,1730411328.3819163,6000
3097.750615805461,-187500.02235174447,24446.86287008081,-187500.02235174447,-187500.02235174447,-187500.02235174447,-187500.02235174447,-187500.02235174447,1730411329.2733097,1730411328.3819163,6000
3076.851734739749,-187500.02235174447,24446.3711317028,-187500.02235174447,-187500.02235174447,-187500.02235174447,-187500.02235174447,-187500.02235174447,1730411329.2774062,1730411328.3819163,6000
2997.3912832011324,-187500.02235174447,24355.712456192072,-187500.02235174447,-187500.02235174447,-187500.02235174447,-187500.02235174447,-187500.02235174447,1730411329.2823625,1730411328.3819163,6000
3083.4454993540644,-187500.02235174447,24433.943561785647,-187500.02235174447,-187500.02235174447,-187500.02235174447,-187500.02235174447,-187500.02235174447,1730411329.2868516,1730411328.3819163,6000
3112.9050985461595,-187500.02235174447,24448.919230570704,-187500.02235174447,-187500.02235174447,-187500.02235174447,-187500.02235174447,-187500.02235174447,1730411329.28938,1730411328.3819163,6000
3220.0146579759908,-187500.02235174447,24565.52828139404,-187500.02235174447,-187500.02235174447,-187500.02235174447,-187500.02235174447,-187500.02235174447,1730411329.293738,1730411328.3819163,6000
3064.357109589233,-187500.02235174447,24392.078744420854,-187500.02235174447,-187500.02235174447,-187500.02235174447,-187500.02235174447,-187500.02235174447,1730411329.2977166,1730411328.3819163,6000
3116.3472671922764,-187500.02235174447,24452.87548933929,-187500.02235174447,-187500.02235174447,-187500.02235174447,-187500.02235174447,-187500.02235174447,1730411329.3015869,1730411328.3819163,6000
3207.296515380921,-187500.02235174447,24601.939273111737,-187500.02235174447,-187500.02235174447,-187500.02235174447,-187500.02235174447,-187500.02235174447,1730411329.3058202,1730411328.3819163,6000
3134.0274970564246,-187500.02235174447,24474.22140529411,-187500.02235174447,-187500.02235174447,-187500.02235174447,-187500.02235174447,-187500.02235174447,1730411329.3106475,1730411328.3819163,6000
3053.8964931841488,-187500.02235174447,24393.55395955491,-187500.02235174447,-187500.02235174447,-187500.02235174447,-187500.02235174447,-187500.02235174447,1730411329.3146808,1730411328.3819163,6000
3041.468923266998,-187500.02235174447,24387.898968207715,-187500.02235174447,-187500.02235174447,-187500.02235174447,-187500.02235174447,-187500.02235174447,1730411329.3178232,1730411328.3819163,6000
3079.7574615189387,-187500.02235174447,24334.880630359727,-187500.02235174447,-187500.02235174447,-187500.02235174447,-187500.02235174447,-187500.02235174447,1730411329.321707,1730411328.3819163,6000
3196.433567575642,-187500.02235174447,24424.511125625508,-187500.02235174447,-187500.02235174447,-187500.02235174447,-187500.02235174447,-187500.02235174447,1730411329.3257823,1730411328.3819163,6000
3036.4621325090093,-187500.02235174447,24403.32167188188,-187500.02235174447,-187500.02235174447,-187500.02235174447,-187500.02235174447,-187500.02235174447,1730411329.3295991,1730411328.3819163,6000
3129.4453894430867,-187500.02235174447,24593.132685796343,-187500.02235174447,-187500.02235174447,-187500.02235174447,-187500.02235174447,-187500.02235174447,1730411329.3336024,1730411328.3819163,6000
3241.3158704418984,-187500.02235174447,24607.840133647936,-187500.02235174447,-187500.02235174447,-187500.02235174447,-187500.02235174447,-187500.02235174447,1730411329.338714,1730411328.3819163,6000
3099.270534428422,-187500.02235174447,24492.12515260281,-187500.02235174447,-187500.02235174447,-187500.02235174447,-187500.02235174447,-187500.02235174447,1730411329.343124,1730411328.3819163,6000
3020.8606148792046,-187500.02235174447,24385.23911061753,-187500.02235174447,-187500.02235174447,-187500.02235174447,-187500.02235174447,-187500.02235174447,1730411329.3457358,1730411328.3819163,6000
2994.0385215328365,-187500.02235174447,24337.83106062783,-187500.02235174447,-187500.02235174447,-187500.02235174447,-187500.02235174447,-187500.02235174447,1730411329.349486,1730411328.3819163,6000
3036.9985743759366,-187500.02235174447,24369.34702030981,-187500.02235174447,-187500.02235174447,-187500.02235174447,-187500.02235174447,-187500.02235174447,1730411329.3537304,1730411328.3819163,6000
3124.5727091518297,-187500.02235174447,24441.252582222533,-187500.02235174447,-187500.02235174447,-187500.02235174447,-187500.02235174447,-187500.02235174447,1730411329.357572,1730411328.3819163,6000
3088.3181796453214,-187500.02235174447,24387.72015425207,-187500.02235174447,-187500.02235174447,-187500.02235174447,-187500.02235174447,-187500.02235174447,1730411329.36184,1730411328.3819163,6000
3139.727191892528,-187500.02235174447,24532.693568789196,-187500.02235174447,-187500.02235174447,-187500.02235174447,-187500.02235174447,-187500.02235174447,1730411329.365569,1730411328.3819163,6000
3092.050920969358,-187500.02235174447,24477.238890795576,-187500.02235174447,-187500.02235174447,-187500.02235174447,-187500.02235174447,-187500.02235174447,1730411329.369678,1730411328.3819163,6000
3165.9904916275136,-187500.02235174447,24536.269847902044,-187500.02235174447,-187500.02235174447,-187500.02235174447,-187500.02235174447,-187500.02235174447,1730411329.3736084,1730411328.3819163,6000
3136.7767616244278,-187500.02235174447,24461.9726493326,-187500.02235174447,-187500.02235174447,-187500.02235174447,-187500.02235174447,-187500.02235174447,1730411329.3777635,1730411328.3819163,6000
3005.952001327515,-187500.02235174447,24390.67058452017,-187500.02235174447,-187500.02235174447,-187500.02235174447,-187500.02235174447,-187500.02235174447,1730411329.3816848,1730411328.3819163,6000
3046.341603558255,-187500.02235174447,24443.51010841252,-187500.02235174447,-187500.02235174447,-187500.02235174447,-187500.02235174447,-187500.02235174447,1730411329.385806,1730411328.3819163,6000
3068.3580718467324,-187500.02235174447,24418.096174966835,-187500.02235174447,-187500.02235174447,-187500.02235174447,-187500.02235174447,-187500.02235174447,1730411329.3896906,1730411328.3819163,6000
3061.719603743506,-187500.02235174447,24361.70272370609,-187500.02235174447,-187500.02235174447,-187500.02235174447,-187500.02235174447,-187500.02235174447,1730411329.3940165,1730411328.3819163,6000
3072.314330615321,-187500.02235174447,24422.29830292443,-187500.02235174447,-187500.02235174447,-187500.02235174447,-187500.02235174447,-187500.02235174447,1730411329.3980749,1730411328.3819163,6000
3061.2502171099445,-187500.02235174447,24442.83955607886,-187500.02235174447,-187500.02235174447,-187500.02235174447,-187500.02235174447,-187500.02235174447,1730411329.400643,1730411328.3819163,6000
3158.8379334018155,-187500.02235174447,24518.544914548984,-187500.02235174447,-187500.02235174447,-187500.02235174447,-187500.02235174447,-187500.02235174447,1730411329.4058616,1730411328.3819163,6000
2998.732387868451,-187500.02235174447,24339.61920018425,-187500.02235174447,-187500.02235174447,-187500.02235174447,-187500.02235174447,-187500.02235174447,1730411329.409742,1730411328.3819163,6000
3030.918899884093,-187500.02235174447,24351.465624745564,-187500.02235174447,-187500.02235174447,-187500.02235174447,-187500.02235174447,-187500.02235174447,1730411329.414091,1730411328.3819163,6000
3179.0662621338683,-187500.02235174447,24562.53314763703,-187500.02235174447,-187500.02235174447,-187500.02235174447,-187500.02235174447,-187500.02235174447,1730411329.417772,1730411328.3819163,6000
3163.91177939317,-187500.02235174447,24562.53314763703,-187500.02235174447,-187500.02235174447,-187500.02235174447,-187500.02235174447,-187500.02235174447,1730411329.4220543,1730411328.3819163,6000
3098.644685583673,-187500.02235174447,24432.580105373872,-187500.02235174447,-187500.02235174447,-187500.02235174447,-187500.02235174447,-187500.02235174447,1730411329.4259005,1730411328.3819163,6000
3038.2949755543445,-187500.02235174447,24352.851432901796,-187500.02235174447,-187500.02235174447,-187500.02235174447,-187500.02235174447,-187500.02235174447,1730411329.4286492,1730411328.3819163,6000
3048.9344059150703,-187500.02235174447,24422.208895946613,-187500.02235174447,-187500.02235174447,-187500.02235174447,-187500.02235174447,-187500.02235174447,1730411329.4337533,1730411328.3819163,6000
3067.1287259016904,-187500.02235174447,24438.57037288789,-187500.02235174447,-187500.02235174447,-187500.02235174447,-187500.02235174447,-187500.02235174447,1730411329.4379826,1730411328.3819163,6000
3173.232456831033,-187500.02235174447,24509.313644088943,-187500.02235174447,-187500.02235174447,-187500.02235174447,-187500.02235174447,-187500.02235174447,1730411329.4417672,1730411328.3819163,6000
3082.506726086942,-187500.02235174447,24423.77351805848,-187500.02235174447,-187500.02235174447,-187500.02235174447,-187500.02235174447,-187500.02235174447,1730411329.4461002,1730411328.3819163,6000
3056.2881298408665,-187500.02235174447,24390.134142653245,-187500.02235174447,-187500.02235174447,-187500.02235174447,-187500.02235174447,-187500.02235174447,1730411329.4497986,1730411328.3819163,6000
3040.0384116218584,-187500.02235174447,24432.98243677407,-187500.02235174447,-187500.02235174447,-187500.02235174447,-187500.02235174447,-187500.02235174447,1730411329.4538217,1730411328.3819163,6000
3010.578812429764,-187500.02235174447,24355.935973636624,-187500.02235174447,-187500.02235174447,-187500.02235174447,-187500.02235174447,-187500.02235174447,1730411329.4566348,1730411328.3819163,6000
3028.2813940383667,-187500.02235174447,24372.990354656024,-187500.02235174447,-187500.02235174447,-187500.02235174447,-187500.02235174447,-187500.02235174447,1730411329.4607124,1730411328.3819163,6000
3157.6756426901397,-187500.02235174447,24475.11547507232,-187500.02235174447,-187500.02235174447,-187500.02235174447,-187500.02235174447,-187500.02235174447,1730411329.4656992,1730411328.3819163,6000
3038.1608650876124,-187500.02235174447,24429.92024778369,-187500.02235174447,-187500.02235174447,-187500.02235174447,-187500.02235174447,-187500.02235174447,1730411329.4698083,1730411328.3819163,6000
3116.9284125481145,-187500.02235174447,24426.679244837676,-187500.02235174447,-187500.02235174447,-187500.02235174447,-187500.02235174447,-187500.02235174447,1730411329.4736664,1730411328.3819163,6000
3210.470463093575,-187500.02235174447,24542.1930601827,-187500.02235174447,-187500.02235174447,-187500.02235174447,-187500.02235174447,-187500.02235174447,1730411329.4768095,1730411328.3819163,6000
3079.46688884102,-187500.02235174447,24474.1767018052,-187500.02235174447,-187500.02235174447,-187500.02235174447,-187500.02235174447,-187500.02235174447,1730411329.481302,1730411328.3819163,6000
3015.3844374876544,-187500.02235174447,24433.943561785647,-187500.02235174447,-187500.02235174447,-187500.02235174447,-187500.02235174447,-187500.02235174447,1730411329.4848692,1730411328.3819163,6000
3109.932316533604,-187500.02235174447,24474.84725413886,-187500.02235174447,-187500.02235174447,-187500.02235174447,-187500.02235174447,-187500.02235174447,1730411329.4889994,1730411328.3819163,6000
3018.670143922585,-187500.02235174447,24343.91073511967,-187500.02235174447,-187500.02235174447,-187500.02235174447,-187500.02235174447,-187500.02235174447,1730411329.4938731,1730411328.3819163,6000
2851.568502374709,-187500.02235174447,24200.30077699432,-187500.02235174447,-187500.02235174447,-187500.02235174447,-187500.02235174447,-187500.02235174447,1730411329.497856,1730411328.3819163,6000
3100.0304937399023,-187500.02235174447,24455.40123646274,-187500.02235174447,-187500.02235174447,-187500.02235174447,-187500.02235174447,-187500.02235174447,1730411329.5019512,1730411328.3819163,6000
3117.241336970489,-187500.02235174447,24449.679189882183,-187500.02235174447,-187500.02235174447,-187500.02235174447,-187500.02235174447,-187500.02235174447,1730411329.504996,1730411328.3819163,6000
3193.6395995187286,-187500.02235174447,24502.831638196905,-187500.02235174447,-187500.02235174447,-187500.02235174447,-187500.02235174447,-187500.02235174447,1730411329.5088987,1730411328.3819163,6000
3114.492072402486,-187500.02235174447,24460.899765598748,-187500.02235174447,-187500.02235174447,-187500.02235174447,-187500.02235174447,-187500.02235174447,1730411329.5133543,1730411328.3819163,6000
3072.3813858486874,-187500.02235174447,24488.0794868564,-187500.02235174447,-187500.02235174447,-187500.02235174447,-187500.02235174447,-187500.02235174447,1730411329.5169363,1730411328.3819163,6000
3118.5824416378077,-187500.02235174447,24490.56053049094,-187500.02235174447,-187500.02235174447,-187500.02235174447,-187500.02235174447,-187500.02235174447,1730411329.522051,1730411328.3819163,6000
2974.0337102453364,-187500.02235174447,24314.00410103847,-187500.02235174447,-187500.02235174447,-187500.02235174447,-187500.02235174447,-187500.02235174447,1730411329.5265205,1730411328.3819163,6000
2942.3389366077117,-187500.02235174447,24274.5309203304,-187500.02235174447,-187500.02235174447,-187500.02235174447,-187500.02235174447,-187500.02235174447,1730411329.5298204,1730411328.3819163,6000
3056.17637111859,-187500.02235174447,24428.199163460635,-187500.02235174447,-187500.02235174447,-187500.02235174447,-187500.02235174447,-187500.02235174447,1730411329.5328407,1730411328.3819163,6000
3032.975260373981,-187500.02235174447,24392.19050314313,-187500.02235174447,-187500.02235174447,-187500.02235174447,-187500.02235174447,-187500.02235174447,1730411329.5373504,1730411328.3819163,6000
3181.524954023952,-187500.02235174447,24495.47791427111,-187500.02235174447,-187500.02235174447,-187500.02235174447,-187500.02235174447,-187500.02235174447,1730411329.540876,1730411328.3819163,6000
3130.138293521201,-187500.02235174447,24503.39043180829,-187500.02235174447,-187500.02235174447,-187500.02235174447,-187500.02235174447,-187500.02235174447,1730411329.545388,1730411328.3819163,6000
2987.8470883187165,-187500.02235174447,24358.685238204627,-187500.02235174447,-187500.02235174447,-187500.02235174447,-187500.02235174447,-187500.02235174447,1730411329.5488555,1730411328.3819163,6000
3060.691423498562,-187500.02235174447,24412.55294234192,-187500.02235174447,-187500.02235174447,-187500.02235174447,-187500.02235174447,-187500.02235174447,1730411329.5544271,1730411328.3819163,6000
3159.1955613131004,-187500.02235174447,24516.75677499256,-187500.02235174447,-187500.02235174447,-187500.02235174447,-187500.02235174447,-187500.02235174447,1730411329.5578375,1730411328.3819163,6000
3057.629234508185,-187500.02235174447,24403.992224215537,-187500.02235174447,-187500.02235174447,-187500.02235174447,-187500.02235174447,-187500.02235174447,1730411329.561304,1730411328.3819163,6000
2998.9335535685486,-187500.02235174447,24307.164467235147,-187500.02235174447,-187500.02235174447,-187500.02235174447,-187500.02235174447,-187500.02235174447,1730411329.5648327,1730411328.3819163,6000
3028.6166702051964,-187500.02235174447,24341.9437816076,-187500.02235174447,-187500.02235174447,-187500.02235174447,-187500.02235174447,-187500.02235174447,1730411329.5689108,1730411328.3819163,6000
3078.4834120849864,-187500.02235174447,24410.094250451835,-187500.02235174447,-187500.02235174447,-187500.02235174447,-187500.02235174447,-187500.02235174447,1730411329.572978,1730411328.3819163,6000
3153.473514732542,-187500.02235174447,24507.212580110143,-187500.02235174447,-187500.02235174447,-187500.02235174447,-187500.02235174447,-187500.02235174447,1730411329.577012,1730411328.3819163,6000
2922.8035119537726,-187500.02235174447,24266.596051048764,-187500.02235174447,-187500.02235174447,-187500.02235174447,-187500.02235174447,-187500.02235174447,1730411329.5818417,1730411328.3819163,6000
3129.043058042891,-187500.02235174447,24504.910350431248,-187500.02235174447,-187500.02235174447,-187500.02235174447,-187500.02235174447,-187500.02235174447,1730411329.5850165,1730411328.3819163,6000
3117.598964881774,-187500.02235174447,24487.85596941185,-187500.02235174447,-187500.02235174447,-187500.02235174447,-187500.02235174447,-187500.02235174447,1730411329.5889864,1730411328.3819163,6000
3106.08781648729,-187500.02235174447,24442.146652000745,-187500.02235174447,-187500.02235174447,-187500.02235174447,-187500.02235174447,-187500.02235174447,1730411329.592998,1730411328.3819163,6000
3000.587582658241,-187500.02235174447,24377.21483435808,-187500.02235174447,-187500.02235174447,-187500.02235174447,-187500.02235174447,-187500.02235174447,1730411329.5970109,1730411328.3819163,6000
3011.0929025522355,-187500.02235174447,24386.468456562576,-187500.02235174447,-187500.02235174447,-187500.02235174447,-187500.02235174447,-187500.02235174447,1730411329.600916,1730411328.3819163,6000
3130.540624921397,-187500.02235174447,24485.9784228776,-187500.02235174447,-187500.02235174447,-187500.02235174447,-187500.02235174447,-187500.02235174447,1730411329.6050315,1730411328.3819163,6000
3100.633990840196,-187500.02235174447,24425.002864003523,-187500.02235174447,-187500.02235174447,-187500.02235174447,-187500.02235174447,-187500.02235174447,1730411329.6100676,1730411328.3819163,6000
3037.914995898604,-187500.02235174447,24365.837796430325,-187500.02235174447,-187500.02235174447,-187500.02235174447,-187500.02235174447,-187500.02235174447,1730411329.6130297,1730411328.3819163,6000
2937.332145849722,-187500.02235174447,24297.866141541737,-187500.02235174447,-187500.02235174447,-187500.02235174447,-187500.02235174447,-187500.02235174447,1730411329.6170144,1730411328.3819163,6000
3076.851734739749,-187500.02235174447,24391.4081920872,-187500.02235174447,-187500.02235174447,-187500.02235174447,-187500.02235174447,-187500.02235174447,1730411329.6210487,1730411328.3819163,6000
3187.425814560153,-187500.02235174447,24484.86083565484,-187500.02235174447,-187500.02235174447,-187500.02235174447,-187500.02235174447,-187500.02235174447,1730411329.62493,1730411328.3819163,6000
3119.9011945606703,-187500.02235174447,24429.69673033914,-187500.02235174447,-187500.02235174447,-187500.02235174447,-187500.02235174447,-187500.02235174447,1730411329.6290023,1730411328.3819163,6000
2981.409785915588,-187500.02235174447,24377.751276225004,-187500.02235174447,-187500.02235174447,-187500.02235174447,-187500.02235174447,-187500.02235174447,1730411329.6330817,1730411328.3819163,6000
3000.5428791693307,-187500.02235174447,24406.853247505816,-187500.02235174447,-187500.02235174447,-187500.02235174447,-187500.02235174447,-187500.02235174447,1730411329.6380692,1730411328.3819163,6000
3122.337534706299,-187500.02235174447,24473.99788784956,-187500.02235174447,-187500.02235174447,-187500.02235174447,-187500.02235174447,-187500.02235174447,1730411329.6410644,1730411328.3819163,6000
3067.9557404465368,-187500.02235174447,24422.54417211344,-187500.02235174447,-187500.02235174447,-187500.02235174447,-187500.02235174447,-187500.02235174447,1730411329.645205,1730411328.3819163,6000
3028.728428927473,-187500.02235174447,24388.994203686027,-187500.02235174447,-187500.02235174447,-187500.02235174447,-187500.02235174447,-187500.02235174447,1730411329.649047,1730411328.3819163,6000
3081.187973164079,-187500.02235174447,24434.725872841584,-187500.02235174447,-187500.02235174447,-187500.02235174447,-187500.02235174447,-187500.02235174447,1730411329.653088,1730411328.3819163,6000
3133.692220889595,-187500.02235174447,24480.74811467506,-187500.02235174447,-187500.02235174447,-187500.02235174447,-187500.02235174447,-187500.02235174447,1730411329.656988,1730411328.3819163,6000
3065.3852898341765,-187500.02235174447,24388.41305833019,-187500.02235174447,-187500.02235174447,-187500.02235174447,-187500.02235174447,-187500.02235174447,1730411329.6611948,1730411328.3819163,6000
3015.4514927210207,-187500.02235174447,24351.353866023288,-187500.02235174447,-187500.02235174447,-187500.02235174447,-187500.02235174447,-187500.02235174447,1730411329.6650105,1730411328.3819163,6000
3063.8430194667603,-187500.02235174447,24404.59572131583,-187500.02235174447,-187500.02235174447,-187500.02235174447,-187500.02235174447,-187500.02235174447,1730411329.6690528,1730411328.3819163,6000
3162.771840425949,-187500.02235174447,24521.048309927977,-187500.02235174447,-187500.02235174447,-187500.02235174447,-187500.02235174447,-187500.02235174447,1730411329.6729856,1730411328.3819163,6000
3121.242299227989,-187500.02235174447,24449.522727671,-187500.02235174447,-187500.02235174447,-187500.02235174447,-187500.02235174447,-187500.02235174447,1730411329.677146,1730411328.3819163,6000
2946.429305843032,-187500.02235174447,24253.2744113534,-187500.02235174447,-187500.02235174447,-187500.02235174447,-187500.02235174447,-187500.02235174447,1730411329.6811352,1730411328.3819163,6000
2985.20958247299,-187500.02235174447,24351.219755556554,-187500.02235174447,-187500.02235174447,-187500.02235174447,-187500.02235174447,-187500.02235174447,1730411329.6851645,1730411328.3819163,6000
3232.553986615418,-187500.02235174447,24597.1559997983,-187500.02235174447,-187500.02235174447,-187500.02235174447,-187500.02235174447,-187500.02235174447,1730411329.6890364,1730411328.3819163,6000
3119.85649107176,-187500.02235174447,24477.14948381776,-187500.02235174447,-187500.02235174447,-187500.02235174447,-187500.02235174447,-187500.02235174447,1730411329.694538,1730411328.3819163,6000
3037.93734764306,-187500.02235174447,24393.285738621445,-187500.02235174447,-187500.02235174447,-187500.02235174447,-187500.02235174447,-187500.02235174447,1730411329.6973548,1730411328.3819163,6000
3083.46785109852,-187500.02235174447,24428.601494860828,-187500.02235174447,-187500.02235174447,-187500.02235174447,-187500.02235174447,-187500.02235174447,1730411329.700243,1730411328.3819163,6000
3024.571004458786,-187500.02235174447,24355.377180025243,-187500.02235174447,-187500.02235174447,-187500.02235174447,-187500.02235174447,-187500.02235174447,1730411329.7050931,1730411328.3819163,6000
3068.2910166133665,-187500.02235174447,24387.742505996528,-187500.02235174447,-187500.02235174447,-187500.02235174447,-187500.02235174447,-187500.02235174447,1730411329.7092264,1730411328.3819163,6000
3098.2200024390227,-187500.02235174447,24482.625661209306,-187500.02235174447,-187500.02235174447,-187500.02235174447,-187500.02235174447,-187500.02235174447,1730411329.713544,1730411328.3819163,6000
3063.105411899736,-187500.02235174447,24441.36434094481,-187500.02235174447,-187500.02235174447,-187500.02235174447,-187500.02235174447,-187500.02235174447,1730411329.7192123,1730411328.3819163,6000
3091.559182591341,-187500.02235174447,24479.339954774376,-187500.02235174447,-187500.02235174447,-187500.02235174447,-187500.02235174447,-187500.02235174447,1730411329.7223704,1730411328.3819163,6000
3074.5495050608524,-187500.02235174447,24396.63850028974,-187500.02235174447,-187500.02235174447,-187500.02235174447,-187500.02235174447,-187500.02235174447,1730411329.7252097,1730411328.3819163,6000
2949.1785704110357,-187500.02235174447,24257.45418756654,-187500.02235174447,-187500.02235174447,-187500.02235174447,-187500.02235174447,-187500.02235174447,1730411329.7288077,1730411328.3819163,6000
3012.232841519456,-187500.02235174447,24391.92228220967,-187500.02235174447,-187500.02235174447,-187500.02235174447,-187500.02235174447,-187500.02235174447,1730411329.7331374,1730411328.3819163,6000
3048.1744466035902,-187500.02235174447,24422.49946862453,-187500.02235174447,-187500.02235174447,-187500.02235174447,-187500.02235174447,-187500.02235174447,1730411329.7372987,1730411328.3819163,6000
3149.226683286033,-187500.02235174447,24516.063870914444,-187500.02235174447,-187500.02235174447,-187500.02235174447,-187500.02235174447,-187500.02235174447,1730411329.7411504,1730411328.3819163,6000
3051.5495600163413,-187500.02235174447,24378.77945646995,-187500.02235174447,-187500.02235174447,-187500.02235174447,-187500.02235174447,-187500.02235174447,1730411329.7457535,1730411328.3819163,6000
3004.432082704554,-187500.02235174447,24332.73486289201,-187500.02235174447,-187500.02235174447,-187500.02235174447,-187500.02235174447,-187500.02235174447,1730411329.7482164,1730411328.3819163,6000
3082.6408365536736,-187500.02235174447,24444.828861335383,-187500.02235174447,-187500.02235174447,-187500.02235174447,-187500.02235174447,-187500.02235174447,1730411329.7523634,1730411328.3819163,6000
3115.810825325349,-187500.02235174447,24440.380864188777,-187500.02235174447,-187500.02235174447,-187500.02235174447,-187500.02235174447,-187500.02235174447,1730411329.75646,1730411328.3819163,6000
2992.853879076705,-187500.02235174447,24305.57749337882,-187500.02235174447,-187500.02235174447,-187500.02235174447,-187500.02235174447,-187500.02235174447,1730411329.7614603,1730411328.3819163,6000
3068.8051067358383,-187500.02235174447,24388.122485652268,-187500.02235174447,-187500.02235174447,-187500.02235174447,-187500.02235174447,-187500.02235174447,1730411329.7651312,1730411328.3819163,6000
3066.7263945014947,-187500.02235174447,24453.79191086196,-187500.02235174447,-187500.02235174447,-187500.02235174447,-187500.02235174447,-187500.02235174447,1730411329.7693105,1730411328.3819163,6000
3085.3901011216763,-187500.02235174447,24444.87356482429,-187500.02235174447,-187500.02235174447,-187500.02235174447,-187500.02235174447,-187500.02235174447,1730411329.7733085,1730411328.3819163,6000
3010.824681618772,-187500.02235174447,24331.281999502426,-187500.02235174447,-187500.02235174447,-187500.02235174447,-187500.02235174447,-187500.02235174447,1730411329.776791,1730411328.3819163,6000
2860.0398135232704,-187500.02235174447,24186.420343687576,-187500.02235174447,-187500.02235174447,-187500.02235174447,-187500.02235174447,-187500.02235174447,1730411329.7803836,1730411328.3819163,6000
3090.396891879665,-187500.02235174447,24458.86575685332,-187500.02235174447,-187500.02235174447,-187500.02235174447,-187500.02235174447,-187500.02235174447,1730411329.78452,1730411328.3819163,6000
3142.074125060335,-187500.02235174447,24472.679134926693,-187500.02235174447,-187500.02235174447,-187500.02235174447,-187500.02235174447,-187500.02235174447,1730411329.7891853,1730411328.3819163,6000
3109.194708966578,-187500.02235174447,24456.18354751868,-187500.02235174447,-187500.02235174447,-187500.02235174447,-187500.02235174447,-187500.02235174447,1730411329.7937212,1730411328.3819163,6000
3054.70115598454,-187500.02235174447,24413.469363864588,-187500.02235174447,-187500.02235174447,-187500.02235174447,-187500.02235174447,-187500.02235174447,1730411329.7974043,1730411328.3819163,6000
3015.764417143395,-187500.02235174447,24361.747427195005,-187500.02235174447,-187500.02235174447,-187500.02235174447,-187500.02235174447,-187500.02235174447,1730411329.8018692,1730411328.3819163,6000
3043.2794145678777,-187500.02235174447,24369.168206354167,-187500.02235174447,-187500.02235174447,-187500.02235174447,-187500.02235174447,-187500.02235174447,1730411329.8046565,1730411328.3819163,6000
3014.7138851539958,-187500.02235174447,24363.04382837341,-187500.02235174447,-187500.02235174447,-187500.02235174447,-187500.02235174447,-187500.02235174447,1730411329.8086045,1730411328.3819163,6000
2943.411820341566,-187500.02235174447,24304.34814743378,-187500.02235174447,-187500.02235174447,-187500.02235174447,-187500.02235174447,-187500.02235174447,1730411329.8126853,1730411328.3819163,6000
2890.974627849416,-187500.02235174447,24253.788501475872,-187500.02235174447,-187500.02235174447,-187500.02235174447,-187500.02235174447,-187500.02235174447,1730411329.8162184,1730411328.3819163,6000
3096.208345438045,-187500.02235174447,24433.45182340763,-187500.02235174447,-187500.02235174447,-187500.02235174447,-187500.02235174447,-187500.02235174447,1730411329.821376,1730411328.3819163,6000
3232.263413937499,-187500.02235174447,24561.460263903173,-187500.02235174447,-187500.02235174447,-187500.02235174447,-187500.02235174447,-187500.02235174447,1730411329.825315,1730411328.3819163,6000
3112.1898427235897,-187500.02235174447,24394.895064222223,-187500.02235174447,-187500.02235174447,-187500.02235174447,-187500.02235174447,-187500.02235174447,1730411329.8282576,1730411328.3819163,6000
2982.817945816272,-187500.02235174447,24348.53754622192,-187500.02235174447,-187500.02235174447,-187500.02235174447,-187500.02235174447,-187500.02235174447,1730411329.8322551,1730411328.3819163,6000
3125.176206252123,-187500.02235174447,24467.76175114653,-187500.02235174447,-187500.02235174447,-187500.02235174447,-187500.02235174447,-187500.02235174447,1730411329.8365636,1730411328.3819163,6000
3076.5835138062853,-187500.02235174447,24395.677375278163,-187500.02235174447,-187500.02235174447,-187500.02235174447,-187500.02235174447,-187500.02235174447,1730411329.8403096,1730411328.3819163,6000
2962.6790240620408,-187500.02235174447,24316.976883051026,-187500.02235174447,-187500.02235174447,-187500.02235174447,-187500.02235174447,-187500.02235174447,1730411329.844358,1730411328.3819163,6000
2982.706187093996,-187500.02235174447,24339.95447635108,-187500.02235174447,-187500.02235174447,-187500.02235174447,-187500.02235174447,-187500.02235174447,1730411329.8492177,1730411328.3819163,6000
3003.2027367595124,-187500.02235174447,24354.23724105802,-187500.02235174447,-187500.02235174447,-187500.02235174447,-187500.02235174447,-187500.02235174447,1730411329.853785,1730411328.3819163,6000
3143.370526238743,-187500.02235174447,24482.89388214277,-187500.02235174447,-187500.02235174447,-187500.02235174447,-187500.02235174447,-187500.02235174447,1730411329.8565147,1730411328.3819163,6000
3057.182199619079,-187500.02235174447,24400.34888986932,-187500.02235174447,-187500.02235174447,-187500.02235174447,-187500.02235174447,-187500.02235174447,1730411329.860481,1730411328.3819163,6000
3012.724579897473,-187500.02235174447,24338.568668194854,-187500.02235174447,-187500.02235174447,-187500.02235174447,-187500.02235174447,-187500.02235174447,1730411329.8645775,1730411328.3819163,6000
3093.0791012143018,-187500.02235174447,24447.064035780917,-187500.02235174447,-187500.02235174447,-187500.02235174447,-187500.02235174447,-187500.02235174447,1730411329.868608,1730411328.3819163,6000
3139.9954128259915,-187500.02235174447,24449.63448639327,-187500.02235174447,-187500.02235174447,-187500.02235174447,-187500.02235174447,-187500.02235174447,1730411329.8728666,1730411328.3819163,6000
3062.680728755084,-187500.02235174447,24401.287663136445,-187500.02235174447,-187500.02235174447,-187500.02235174447,-187500.02235174447,-187500.02235174447,1730411329.876434,1730411328.3819163,6000
2956.599349570197,-187500.02235174447,24294.24515893998,-187500.02235174447,-187500.02235174447,-187500.02235174447,-187500.02235174447,-187500.02235174447,1730411329.8814127,1730411328.3819163,6000
2947.8374657437166,-187500.02235174447,24289.640699582185,-187500.02235174447,-187500.02235174447,-187500.02235174447,-187500.02235174447,-187500.02235174447,1730411329.8845005,1730411328.3819163,6000
3028.1919870605457,-187500.02235174447,24322.56481916485,-187500.02235174447,-187500.02235174447,-187500.02235174447,-187500.02235174447,-187500.02235174447,1730411329.888971,1730411328.3819163,6000
3065.8323247232825,-187500.02235174447,24369.838758687827,-187500.02235174447,-187500.02235174447,-187500.02235174447,-187500.02235174447,-187500.02235174447,1730411329.8925877,1730411328.3819163,6000
3057.8974554416486,-187500.02235174447,24393.643366532728,-187500.02235174447,-187500.02235174447,-187500.02235174447,-187500.02235174447,-187500.02235174447,1730411329.896794,1730411328.3819163,6000
3086.574743577808,-187500.02235174447,24461.05622780993,-187500.02235174447,-187500.02235174447,-187500.02235174447,-187500.02235174447,-187500.02235174447,1730411329.9004848,1730411328.3819163,6000
3097.884726272193,-187500.02235174447,24451.26616373851,-187500.02235174447,-187500.02235174447,-187500.02235174447,-187500.02235174447,-187500.02235174447,1730411329.9054544,1730411328.3819163,6000
3079.3551301187435,-187500.02235174447,24406.47326785008,-187500.02235174447,-187500.02235174447,-187500.02235174447,-187500.02235174447,-187500.02235174447,1730411329.909478,1730411328.3819163,6000
2980.2921986928227,-187500.02235174447,24318.63091214072,-187500.02235174447,-187500.02235174447,-187500.02235174447,-187500.02235174447,-187500.02235174447,1730411329.9127653,1730411328.3819163,6000
3002.643943148129,-187500.02235174447,24349.230450300038,-187500.02235174447,-187500.02235174447,-187500.02235174447,-187500.02235174447,-187500.02235174447,1730411329.9163508,1730411328.3819163,6000
3047.012155891914,-187500.02235174447,24394.06804967738,-187500.02235174447,-187500.02235174447,-187500.02235174447,-187500.02235174447,-187500.02235174447,1730411329.920834,1730411328.3819163,6000
3025.822702148283,-187500.02235174447,24346.950572365597,-187500.02235174447,-187500.02235174447,-187500.02235174447,-187500.02235174447,-187500.02235174447,1730411329.9244409,1730411328.3819163,6000
2988.2270679744565,-187500.02235174447,24300.458943898557,-187500.02235174447,-187500.02235174447,-187500.02235174447,-187500.02235174447,-187500.02235174447,1730411329.9289625,1730411328.3819163,6000
3010.3105914963,-187500.02235174447,24365.368409796767,-187500.02235174447,-187500.02235174447,-187500.02235174447,-187500.02235174447,-187500.02235174447,1730411329.9324324,1730411328.3819163,6000
3060.1996851205454,-187500.02235174447,24380.29937509291,-187500.02235174447,-187500.02235174447,-187500.02235174447,-187500.02235174447,-187500.02235174447,1730411329.9376554,1730411328.3819163,6000
3110.7146275895398,-187500.02235174447,24405.936825983143,-187500.02235174447,-187500.02235174447,-187500.02235174447,-187500.02235174447,-187500.02235174447,1730411329.940506,1730411328.3819163,6000
3040.93248140007,-187500.02235174447,24366.888328419725,-187500.02235174447,-187500.02235174447,-187500.02235174447,-187500.02235174447,-187500.02235174447,1730411329.9448016,1730411328.3819163,6000
2991.624533131663,-187500.02235174447,24348.135214821723,-187500.02235174447,-187500.02235174447,-187500.02235174447,-187500.02235174447,-187500.02235174447,1730411329.9484477,1730411328.3819163,6000
3099.6505140841623,-187500.02235174447,24448.449843937145,-187500.02235174447,-187500.02235174447,-187500.02235174447,-187500.02235174447,-187500.02235174447,1730411329.9529388,1730411328.3819163,6000
3126.2267382415225,-187500.02235174447,24455.2224225071,-187500.02235174447,-187500.02235174447,-187500.02235174447,-187500.02235174447,-187500.02235174447,1730411329.9564404,1730411328.3819163,6000
3031.142417328646,-187500.02235174447,24359.44519751611,-187500.02235174447,-187500.02235174447,-187500.02235174447,-187500.02235174447,-187500.02235174447,1730411329.96062,1730411328.3819163,6000
2979.3981289146104,-187500.02235174447,24311.165429492645,-187500.02235174447,-187500.02235174447,-187500.02235174447,-187500.02235174447,-187500.02235174447,1730411329.964711,1730411328.3819163,6000
3031.008306861914,-187500.02235174447,24372.02922964445,-187500.02235174447,-187500.02235174447,-187500.02235174447,-187500.02235174447,-187500.02235174447,1730411329.9681203,1730411328.3819163,6000
3081.545601075364,-187500.02235174447,24399.23130264656,-187500.02235174447,-187500.02235174447,-187500.02235174447,-187500.02235174447,-187500.02235174447,1730411329.9715104,1730411328.3819163,6000
3027.767303915895,-187500.02235174447,24337.76400539446,-187500.02235174447,-187500.02235174447,-187500.02235174447,-187500.02235174447,-187500.02235174447,1730411329.9766495,1730411328.3819163,6000
3038.2949755543445,-187500.02235174447,24369.97286915456,-187500.02235174447,-187500.02235174447,-187500.02235174447,-187500.02235174447,-187500.02235174447,1730411329.9807987,1730411328.3819163,6000
3002.2639634923894,-187500.02235174447,24355.1983660696,-187500.02235174447,-187500.02235174447,-187500.02235174447,-187500.02235174447,-187500.02235174447,1730411329.9851377,1730411328.3819163,6000
3062.926597944093,-187500.02235174447,24381.416962315678,-187500.02235174447,-187500.02235174447,-187500.02235174447,-187500.02235174447,-187500.02235174447,1730411329.98856,1730411328.3819163,6000
3120.035305027402,-187500.02235174447,24386.44610481812,-187500.02235174447,-187500.02235174447,-187500.02235174447,-187500.02235174447,-187500.02235174447,1730411329.99307,1730411328.3819163,6000
2991.9374575540373,-187500.02235174447,24342.52492696344,-187500.02235174447,-187500.02235174447,-187500.02235174447,-187500.02235174447,-187500.02235174447,1730411329.9959016,1730411328.3819163,6000
2845.622938349597,-187500.02235174447,24192.03063154586,-187500.02235174447,-187500.02235174447,-187500.02235174447,-187500.02235174447,-187500.02235174447,1730411329.9995313,1730411328.3819163,6000
3087.2452959114667,-187500.02235174447,24375.963136668583,-187500.02235174447,-187500.02235174447,-187500.02235174447,-187500.02235174447,-187500.02235174447,1730411330.0047574,1730411328.3819163,6000
3141.9623663380585,-187500.02235174447,24446.035855535967,-187500.02235174447,-187500.02235174447,-187500.02235174447,-187500.02235174447,-187500.02235174447,1730411330.0085328,1730411328.3819163,6000
3082.7302435314946,-187500.02235174447,24428.51208788301,-187500.02235174447,-187500.02235174447,-187500.02235174447,-187500.02235174447,-187500.02235174447,1730411330.0130584,1730411328.3819163,6000
3066.234656123478,-187500.02235174447,24431.55192512893,-187500.02235174447,-187500.02235174447,-187500.02235174447,-187500.02235174447,-187500.02235174447,1730411330.0165253,1730411328.3819163,6000
3061.3843275766767,-187500.02235174447,24404.84159050484,-187500.02235174447,-187500.02235174447,-187500.02235174447,-187500.02235174447,-187500.02235174447,1730411330.0208287,1730411328.3819163,6000
3063.239522366467,-187500.02235174447,24381.68518324914,-187500.02235174447,-187500.02235174447,-187500.02235174447,-187500.02235174447,-187500.02235174447,1730411330.0245478,1730411328.3819163,6000
3004.7450071269286,-187500.02235174447,24310.29371145889,-187500.02235174447,-187500.02235174447,-187500.02235174447,-187500.02235174447,-187500.02235174447,1730411330.0277832,1730411328.3819163,6000
2952.643090801608,-187500.02235174447,24277.99544072097,-187500.02235174447,-187500.02235174447,-187500.02235174447,-187500.02235174447,-187500.02235174447,1730411330.032632,1730411328.3819163,6000
2990.708111608996,-187500.02235174447,24305.689252101096,-187500.02235174447,-187500.02235174447,-187500.02235174447,-187500.02235174447,-187500.02235174447,1730411330.0370188,1730411328.3819163,6000
3112.4133601681424,-187500.02235174447,24447.466367181107,-187500.02235174447,-187500.02235174447,-187500.02235174447,-187500.02235174447,-187500.02235174447,1730411330.0405717,1730411328.3819163,6000
3067.5757607907967,-187500.02235174447,24387.22841587405,-187500.02235174447,-187500.02235174447,-187500.02235174447,-187500.02235174447,-187500.02235174447,1730411330.044814,1730411328.3819163,6000
2966.590579341719,-187500.02235174447,24283.71748730153,-187500.02235174447,-187500.02235174447,-187500.02235174447,-187500.02235174447,-187500.02235174447,1730411330.0485747,1730411328.3819163,6000
3011.249364763423,-187500.02235174447,24341.0944153183,-187500.02235174447,-187500.02235174447,-187500.02235174447,-187500.02235174447,-187500.02235174447,1730411330.0519912,1730411328.3819163,6000
3058.8585804532268,-187500.02235174447,24370.621069743764,-187500.02235174447,-187500.02235174447,-187500.02235174447,-187500.02235174447,-187500.02235174447,1730411330.055834,1730411328.3819163,6000
3039.859597666216,-187500.02235174447,24324.688234888108,-187500.02235174447,-187500.02235174447,-187500.02235174447,-187500.02235174447,-187500.02235174447,1730411330.0609393,1730411328.3819163,6000
2971.753832310895,-187500.02235174447,24300.235426454,-187500.02235174447,-187500.02235174447,-187500.02235174447,-187500.02235174447,-187500.02235174447,1730411330.064778,1730411328.3819163,6000
2933.957032436971,-187500.02235174447,24258.90705095614,-187500.02235174447,-187500.02235174447,-187500.02235174447,-187500.02235174447,-187500.02235174447,1730411330.068915,1730411328.3819163,6000
3066.771097990405,-187500.02235174447,24350.236278800523,-187500.02235174447,-187500.02235174447,-187500.02235174447,-187500.02235174447,-187500.02235174447,1730411330.071928,1730411328.3819163,6000
3117.084874759302,-187500.02235174447,24453.36722771731,-187500.02235174447,-187500.02235174447,-187500.02235174447,-187500.02235174447,-187500.02235174447,1730411330.0763533,1730411328.3819163,6000
2997.4583384344983,-187500.02235174447,24337.227563527533,-187500.02235174447,-187500.02235174447,-187500.02235174447,-187500.02235174447,-187500.02235174447,1730411330.079751,1730411328.3819163,6000
3011.5175856968863,-187500.02235174447,24347.44231074361,-187500.02235174447,-187500.02235174447,-187500.02235174447,-187500.02235174447,-187500.02235174447,1730411330.0838726,1730411328.3819163,6000
3090.128670946201,-187500.02235174447,24418.699672067127,-187500.02235174447,-187500.02235174447,-187500.02235174447,-187500.02235174447,-187500.02235174447,1730411330.0886118,1730411328.3819163,6000
3004.387379215644,-187500.02235174447,24296.033298496404,-187500.02235174447,-187500.02235174447,-187500.02235174447,-187500.02235174447,-187500.02235174447,1730411330.0927572,1730411328.3819163,6000
2948.508018077376,-187500.02235174447,24235.48242276697,-187500.02235174447,-187500.02235174447,-187500.02235174447,-187500.02235174447,-187500.02235174447,1730411330.0969405,1730411328.3819163,6000
2996.184289000546,-187500.02235174447,24314.272321971934,-187500.02235174447,-187500.02235174447,-187500.02235174447,-187500.02235174447,-187500.02235174447,1730411330.0996835,1730411328.3819163,6000
3074.728319016495,-187500.02235174447,24347.5987729548,-187500.02235174447,-187500.02235174447,-187500.02235174447,-187500.02235174447,-187500.02235174447,1730411330.1039252,1730411328.3819163,6000
3120.1247120052235,-187500.02235174447,24460.631544665284,-187500.02235174447,-187500.02235174447,-187500.02235174447,-187500.02235174447,-187500.02235174447,1730411330.107653,1730411328.3819163,6000
3006.4660914499877,-187500.02235174447,24335.417072226654,-187500.02235174447,-187500.02235174447,-187500.02235174447,-187500.02235174447,-187500.02235174447,1730411330.112143,1730411328.3819163,6000
2990.9316290535485,-187500.02235174447,24344.87186013125,-187500.02235174447,-187500.02235174447,-187500.02235174447,-187500.02235174447,-187500.02235174447,1730411330.116851,1730411328.3819163,6000
3063.887722955671,-187500.02235174447,24419.727852312077,-187500.02235174447,-187500.02235174447,-187500.02235174447,-187500.02235174447,-187500.02235174447,1730411330.1208692,1730411328.3819163,6000
3096.2306971825,-187500.02235174447,24410.071898707374,-187500.02235174447,-187500.02235174447,-187500.02235174447,-187500.02235174447,-187500.02235174447,1730411330.1246915,1730411328.3819163,6000
3008.298934495322,-187500.02235174447,24324.978807566025,-187500.02235174447,-187500.02235174447,-187500.02235174447,-187500.02235174447,-187500.02235174447,1730411330.12806,1730411328.3819163,6000
2967.2611316753787,-187500.02235174447,24300.34718517628,-187500.02235174447,-187500.02235174447,-187500.02235174447,-187500.02235174447,-187500.02235174447,1730411330.131698,1730411328.3819163,6000
2995.223163988968,-187500.02235174447,24282.66695531213,-187500.02235174447,-187500.02235174447,-187500.02235174447,-187500.02235174447,-187500.02235174447,1730411330.1357577,1730411328.3819163,6000
3053.9859001619698,-187500.02235174447,24329.315045990355,-187500.02235174447,-187500.02235174447,-187500.02235174447,-187500.02235174447,-187500.02235174447,1730411330.139682,1730411328.3819163,6000
2950.698489033996,-187500.02235174447,24239.21516409101,-187500.02235174447,-187500.02235174447,-187500.02235174447,-187500.02235174447,-187500.02235174447,1730411330.1453288,1730411328.3819163,6000
2962.053175217292,-187500.02235174447,24262.23746087998,-187500.02235174447,-187500.02235174447,-187500.02235174447,-187500.02235174447,-187500.02235174447,1730411330.1487503,1730411328.3819163,6000
3111.720456090028,-187500.02235174447,24477.46240824013,-187500.02235174447,-187500.02235174447,-187500.02235174447,-187500.02235174447,-187500.02235174447,1730411330.15332,1730411328.3819163,6000
3137.782590124916,-187500.02235174447,24477.08242858439,-187500.02235174447,-187500.02235174447,-187500.02235174447,-187500.02235174447,-187500.02235174447,1730411330.155942,1730411328.3819163,6000
3050.655490238129,-187500.02235174447,24341.2955810184,-187500.02235174447,-187500.02235174447,-187500.02235174447,-187500.02235174447,-187500.02235174447,1730411330.1600056,1730411328.3819163,6000
3029.130760327668,-187500.02235174447,24294.51337987344,-187500.02235174447,-187500.02235174447,-187500.02235174447,-187500.02235174447,-187500.02235174447,1730411330.1641915,1730411328.3819163,6000
3043.6146907347074,-187500.02235174447,24341.317932762853,-187500.02235174447,-187500.02235174447,-187500.02235174447,-187500.02235174447,-187500.02235174447,1730411330.1682017,1730411328.3819163,6000
3063.5077432999306,-187500.02235174447,24366.508348763982,-187500.02235174447,-187500.02235174447,-187500.02235174447,-187500.02235174447,-187500.02235174447,1730411330.1719904,1730411328.3819163,6000
3085.412452866132,-187500.02235174447,24394.09040142184,-187500.02235174447,-187500.02235174447,-187500.02235174447,-187500.02235174447,-187500.02235174447,1730411330.1769896,1730411328.3819163,6000
2921.216538097446,-187500.02235174447,24259.734065500983,-187500.02235174447,-187500.02235174447,-187500.02235174447,-187500.02235174447,-187500.02235174447,1730411330.1810796,1730411328.3819163,6000
3040.0160598774028,-187500.02235174447,24395.610320044794,-187500.02235174447,-187500.02235174447,-187500.02235174447,-187500.02235174447,-187500.02235174447,1730411330.1841,1730411328.3819163,6000
3102.37742690771,-187500.02235174447,24402.315843381388,-187500.02235174447,-187500.02235174447,-187500.02235174447,-187500.02235174447,-187500.02235174447,1730411330.1879065,1730411328.3819163,6000
3096.4095111381425,-187500.02235174447,24364.54139525192,-187500.02235174447,-187500.02235174447,-187500.02235174447,-187500.02235174447,-187500.02235174447,1730411330.1918926,1730411328.3819163,6000
2984.181402228046,-187500.02235174447,24297.933196775102,-187500.02235174447,-187500.02235174447,-187500.02235174447,-187500.02235174447,-187500.02235174447,1730411330.1960783,1730411328.3819163,6000
3025.93446087056,-187500.02235174447,24350.59390671181,-187500.02235174447,-187500.02235174447,-187500.02235174447,-187500.02235174447,-187500.02235174447,1730411330.1999185,1730411328.3819163,6000
3049.64966173764,-187500.02235174447,24361.99329638401,-187500.02235174447,-187500.02235174447,-187500.02235174447,-187500.02235174447,-187500.02235174447,1730411330.2050748,1730411328.3819163,6000
3124.259784729455,-187500.02235174447,24434.278837952475,-187500.02235174447,-187500.02235174447,-187500.02235174447,-187500.02235174447,-187500.02235174447,1730411330.207795,1730411328.3819163,6000
3049.2026268485342,-187500.02235174447,24381.662831504684,-187500.02235174447,-187500.02235174447,-187500.02235174447,-187500.02235174447,-187500.02235174447,1730411330.212014,1730411328.3819163,6000
3010.0647223072915,-187500.02235174447,24348.805767155383,-187500.02235174447,-187500.02235174447,-187500.02235174447,-187500.02235174447,-187500.02235174447,1730411330.2158058,1730411328.3819163,6000
3025.152149814624,-187500.02235174447,24345.85533688728,-187500.02235174447,-187500.02235174447,-187500.02235174447,-187500.02235174447,-187500.02235174447,1730411330.220137,1730411328.3819163,6000
3057.4504205525427,-187500.02235174447,24332.757214636476,-187500.02235174447,-187500.02235174447,-187500.02235174447,-187500.02235174447,-187500.02235174447,1730411330.2238717,1730411328.3819163,6000
3047.2580250809224,-187500.02235174447,24350.63861020072,-187500.02235174447,-187500.02235174447,-187500.02235174447,-187500.02235174447,-187500.02235174447,1730411330.2281508,1730411328.3819163,6000
2963.5283903513423,-187500.02235174447,24282.55519658985,-187500.02235174447,-187500.02235174447,-187500.02235174447,-187500.02235174447,-187500.02235174447,1730411330.2328217,1730411328.3819163,6000
3090.665112813129,-187500.02235174447,24397.510218323496,-187500.02235174447,-187500.02235174447,-187500.02235174447,-187500.02235174447,-187500.02235174447,1730411330.2361195,1730411328.3819163,6000
3189.236305861033,-187500.02235174447,24486.80543742245,-187500.02235174447,-187500.02235174447,-187500.02235174447,-187500.02235174447,-187500.02235174447,1730411330.239023,1730411328.3819163,6000
3060.2667403539112,-187500.02235174447,24364.20611908509,-187500.02235174447,-187500.02235174447,-187500.02235174447,-187500.02235174447,-187500.02235174447,1730411330.2444768,1730411328.3819163,6000
3032.88585339616,-187500.02235174447,24344.67069443115,-187500.02235174447,-187500.02235174447,-187500.02235174447,-187500.02235174447,-187500.02235174447,1730411330.2480562,1730411328.3819163,6000
2996.765434356384,-187500.02235174447,24272.116931929224,-187500.02235174447,-187500.02235174447,-187500.02235174447,-187500.02235174447,-187500.02235174447,1730411330.2521043,1730411328.3819163,6000
3097.370636149721,-187500.02235174447,24369.3023168209,-187500.02235174447,-187500.02235174447,-187500.02235174447,-187500.02235174447,-187500.02235174447,1730411330.2561555,1730411328.3819163,6000
3144.8680931172485,-187500.02235174447,24480.45754199714,-187500.02235174447,-187500.02235174447,-187500.02235174447,-187500.02235174447,-187500.02235174447,1730411330.2611072,1730411328.3819163,6000
3087.2676476559222,-187500.02235174447,24426.187506459657,-187500.02235174447,-187500.02235174447,-187500.02235174447,-187500.02235174447,-187500.02235174447,1730411330.2640235,1730411328.3819163,6000
3081.143269675168,-187500.02235174447,24416.12922145477,-187500.02235174447,-187500.02235174447,-187500.02235174447,-187500.02235174447,-187500.02235174447,1730411330.2672048,1730411328.3819163,6000
3106.5124996319414,-187500.02235174447,24439.017407777003,-187500.02235174447,-187500.02235174447,-187500.02235174447,-187500.02235174447,-187500.02235174447,1730411330.2721455,1730411328.3819163,6000
3115.207328225056,-187500.02235174447,24402.60641605931,-187500.02235174447,-187500.02235174447,-187500.02235174447,-187500.02235174447,-187500.02235174447,1730411330.2763133,1730411328.3819163,6000
3045.224016335489,-187500.02235174447,24368.0506191314,-187500.02235174447,-187500.02235174447,-187500.02235174447,-187500.02235174447,-187500.02235174447,1730411330.2802143,1730411328.3819163,6000
3027.029696348869,-187500.02235174447,24353.566688724364,-187500.02235174447,-187500.02235174447,-187500.02235174447,-187500.02235174447,-187500.02235174447,1730411330.2846448,1730411328.3819163,6000
3091.5815343357963,-187500.02235174447,24419.39257614524,-187500.02235174447,-187500.02235174447,-187500.02235174447,-187500.02235174447,-187500.02235174447,1730411330.2871883,1730411328.3819163,6000
3055.79639146285,-187500.02235174447,24343.68721767512,-187500.02235174447,-187500.02235174447,-187500.02235174447,-187500.02235174447,-187500.02235174447,1730411330.2909503,1730411328.3819163,6000
2963.573093840253,-187500.02235174447,24281.2811471559,-187500.02235174447,-187500.02235174447,-187500.02235174447,-187500.02235174447,-187500.02235174447,1730411330.2953937,1730411328.3819163,6000
3104.724360075517,-187500.02235174447,24454.95420157364,-187500.02235174447,-187500.02235174447,-187500.02235174447,-187500.02235174447,-187500.02235174447,1730411330.3000276,1730411328.3819163,6000
3131.300584232877,-187500.02235174447,24472.567376204417,-187500.02235174447,-187500.02235174447,-187500.02235174447,-187500.02235174447,-187500.02235174447,1730411330.304175,1730411328.3819163,6000
3081.545601075364,-187500.02235174447,24383.093343149823,-187500.02235174447,-187500.02235174447,-187500.02235174447,-187500.02235174447,-187500.02235174447,1730411330.3079405,1730411328.3819163,6000
3035.053972608325,-187500.02235174447,24347.710531677072,-187500.02235174447,-187500.02235174447,-187500.02235174447,-187500.02235174447,-187500.02235174447,1730411330.311974,1730411328.3819163,6000
3044.9334436575705,-187500.02235174447,24383.607433272296,-187500.02235174447,-187500.02235174447,-187500.02235174447,-187500.02235174447,-187500.02235174447,1730411330.315014,1730411328.3819163,6000
3030.918899884093,-187500.02235174447,24342.033188585425,-187500.02235174447,-187500.02235174447,-187500.02235174447,-187500.02235174447,-187500.02235174447,1730411330.319084,1730411328.3819163,6000
3109.552336877863,-187500.02235174447,24396.750259012017,-187500.02235174447,-187500.02235174447,-187500.02235174447,-187500.02235174447,-187500.02235174447,1730411330.3231084,1730411328.3819163,6000
3100.5445838623746,-187500.02235174447,24421.02425349048,-187500.02235174447,-187500.02235174447,-187500.02235174447,-187500.02235174447,-187500.02235174447,1730411330.328167,1730411328.3819163,6000
3005.3261524827662,-187500.02235174447,24382.86982570527,-187500.02235174447,-187500.02235174447,-187500.02235174447,-187500.02235174447,-187500.02235174447,1730411330.3320627,1730411328.3819163,6000
3052.689498983562,-187500.02235174447,24397.26434913449,-187500.02235174447,-187500.02235174447,-187500.02235174447,-187500.02235174447,-187500.02235174447,1730411330.3364415,1730411328.3819163,6000
3113.240374712989,-187500.02235174447,24447.35460845883,-187500.02235174447,-187500.02235174447,-187500.02235174447,-187500.02235174447,-187500.02235174447,1730411330.3400788,1730411328.3819163,6000
3030.5165684838976,-187500.02235174447,24343.597810697294,-187500.02235174447,-187500.02235174447,-187500.02235174447,-187500.02235174447,-187500.02235174447,1730411330.343568,1730411328.3819163,6000
3006.331980983255,-187500.02235174447,24342.033188585425,-187500.02235174447,-187500.02235174447,-187500.02235174447,-187500.02235174447,-187500.02235174447,1730411330.3472788,1730411328.3819163,6000
3099.806976295349,-187500.02235174447,24466.398294734758,-187500.02235174447,-187500.02235174447,-187500.02235174447,-187500.02235174447,-187500.02235174447,1730411330.3515232,1730411328.3819163,6000
3093.861412270238,-187500.02235174447,24408.28375915096,-187500.02235174447,-187500.02235174447,-187500.02235174447,-187500.02235174447,-187500.02235174447,1730411330.3563511,1730411328.3819163,6000
3109.0605984998465,-187500.02235174447,24425.80752680392,-187500.02235174447,-187500.02235174447,-187500.02235174447,-187500.02235174447,-187500.02235174447,1730411330.360124,1730411328.3819163,6000
2973.497268378409,-187500.02235174447,24314.071156271835,-187500.02235174447,-187500.02235174447,-187500.02235174447,-187500.02235174447,-187500.02235174447,1730411330.3643272,1730411328.3819163,6000
3024.4592457365093,-187500.02235174447,24352.314991034866,-187500.02235174447,-187500.02235174447,-187500.02235174447,-187500.02235174447,-187500.02235174447,1730411330.3682857,1730411328.3819163,6000
3168.6503492176957,-187500.02235174447,24500.484705029092,-187500.02235174447,-187500.02235174447,-187500.02235174447,-187500.02235174447,-187500.02235174447,1730411330.3712592,1730411328.3819163,6000
3098.2870576723885,-187500.02235174447,24430.903724539727,-187500.02235174447,-187500.02235174447,-187500.02235174447,-187500.02235174447,-187500.02235174447,1730411330.3751163,1730411328.3819163,6000
2996.564268656286,-187500.02235174447,24357.612354470773,-187500.02235174447,-187500.02235174447,-187500.02235174447,-187500.02235174447,-187500.02235174447,1730411330.3791983,1730411328.3819163,6000
2985.0307685173475,-187500.02235174447,24313.37825219372,-187500.02235174447,-187500.02235174447,-187500.02235174447,-187500.02235174447,-187500.02235174447,1730411330.3847623,1730411328.3819163,6000
3124.528005662919,-187500.02235174447,24471.56154770393,-187500.02235174447,-187500.02235174447,-187500.02235174447,-187500.02235174447,-187500.02235174447,1730411330.3882768,1730411328.3819163,6000
3124.840930085293,-187500.02235174447,24446.237021236066,-187500.02235174447,-187500.02235174447,-187500.02235174447,-187500.02235174447,-187500.02235174447,1730411330.3923583,1730411328.3819163,6000
3098.979961750503,-187500.02235174447,24403.88046549326,-187500.02235174447,-187500.02235174447,-187500.02235174447,-187500.02235174447,-187500.02235174447,1730411330.3965387,1730411328.3819163,6000
3037.7361819429616,-187500.02235174447,24393.97864269956,-187500.02235174447,-187500.02235174447,-187500.02235174447,-187500.02235174447,-187500.02235174447,1730411330.3990655,1730411328.3819163,6000
3063.5077432999306,-187500.02235174447,24415.905704010216,-187500.02235174447,-187500.02235174447,-187500.02235174447,-187500.02235174447,-187500.02235174447,1730411330.403612,1730411328.3819163,6000
3116.973116037025,-187500.02235174447,24447.689884625663,-187500.02235174447,-187500.02235174447,-187500.02235174447,-187500.02235174447,-187500.02235174447,1730411330.4070845,1730411328.3819163,6000
3041.491275011453,-187500.02235174447,24369.39172379872,-187500.02235174447,-187500.02235174447,-187500.02235174447,-187500.02235174447,-187500.02235174447,1730411330.4113376,1730411328.3819163,6000
3010.9364403410486,-187500.02235174447,24369.615241243275,-187500.02235174447,-187500.02235174447,-187500.02235174447,-187500.02235174447,-187500.02235174447,1730411330.4161377,1730411328.3819163,6000
2963.01430022887,-187500.02235174447,24318.563856907356,-187500.02235174447,-187500.02235174447,-187500.02235174447,-187500.02235174447,-187500.02235174447,1730411330.420806,1730411328.3819163,6000
2998.464166934987,-187500.02235174447,24305.733955590007,-187500.02235174447,-187500.02235174447,-187500.02235174447,-187500.02235174447,-187500.02235174447,1730411330.423077,1730411328.3819163,6000
3139.749543636983,-187500.02235174447,24487.40893452274,-187500.02235174447,-187500.02235174447,-187500.02235174447,-187500.02235174447,-187500.02235174447,1730411330.4273937,1730411328.3819163,6000
3090.37454013521,-187500.02235174447,24442.77250084549,-187500.02235174447,-187500.02235174447,-187500.02235174447,-187500.02235174447,-187500.02235174447,1730411330.431339,1730411328.3819163,6000
3151.7747821539383,-187500.02235174447,24460.9221173432,-187500.02235174447,-187500.02235174447,-187500.02235174447,-187500.02235174447,-187500.02235174447,1730411330.4354205,1730411328.3819163,6000
3074.393042849665,-187500.02235174447,24402.44995384812,-187500.02235174447,-187500.02235174447,-187500.02235174447,-187500.02235174447,-187500.02235174447,1730411330.442335,1730411328.3819163,6000
3031.1871208175567,-187500.02235174447,24381.059334404392,-187500.02235174447,-187500.02235174447,-187500.02235174447,-187500.02235174447,-187500.02235174447,1730411330.4465773,1730411328.3819163,6000
2956.6664048035627,-187500.02235174447,24325.53760117741,-187500.02235174447,-187500.02235174447,-187500.02235174447,-187500.02235174447,-187500.02235174447,1730411330.4491248,1730411328.3819163,6000
3037.914995898604,-187500.02235174447,24406.38386087225,-187500.02235174447,-187500.02235174447,-187500.02235174447,-187500.02235174447,-187500.02235174447,1730411330.4524565,1730411328.3819163,6000
3118.940069549092,-187500.02235174447,24473.79672214946,-187500.02235174447,-187500.02235174447,-187500.02235174447,-187500.02235174447,-187500.02235174447,1730411330.4551632,1730411328.3819163,6000
3055.528170529386,-187500.02235174447,24370.509311021488,-187500.02235174447,-187500.02235174447,-187500.02235174447,-187500.02235174447,-187500.02235174447,1730411330.4593103,1730411328.3819163,6000
2981.812117315784,-187500.02235174447,24322.18483950911,-187500.02235174447,-187500.02235174447,-187500.02235174447,-187500.02235174447,-187500.02235174447,1730411330.4636807,1730411328.3819163,6000
3066.0334904233805,-187500.02235174447,24432.40129141823,-187500.02235174447,-187500.02235174447,-187500.02235174447,-187500.02235174447,-187500.02235174447,1730411330.467903,1730411328.3819163,6000
3164.24705556,-187500.02235174447,24494.002699137058,-187500.02235174447,-187500.02235174447,-187500.02235174447,-187500.02235174447,-187500.02235174447,1730411330.4727545,1730411328.3819163,6000
3124.058619029357,-187500.02235174447,24439.687960110663,-187500.02235174447,-187500.02235174447,-187500.02235174447,-187500.02235174447,-187500.02235174447,1730411330.47641,1730411328.3819163,6000
3033.690516196551,-187500.02235174447,24397.845494490328,-187500.02235174447,-187500.02235174447,-187500.02235174447,-187500.02235174447,-187500.02235174447,1730411330.4793298,1730411328.3819163,6000
3007.114292039191,-187500.02235174447,24373.03505814493,-187500.02235174447,-187500.02235174447,-187500.02235174447,-187500.02235174447,-187500.02235174447,1730411330.48334,1730411328.3819163,6000
3097.214173938534,-187500.02235174447,24464.990134834068,-187500.02235174447,-187500.02235174447,-187500.02235174447,-187500.02235174447,-187500.02235174447,1730411330.4874296,1730411328.3819163,6000
3091.4921273579757,-187500.02235174447,24418.140878455742,-187500.02235174447,-187500.02235174447,-187500.02235174447,-187500.02235174447,-187500.02235174447,1730411330.4913592,1730411328.3819163,6000
3023.7663416583946,-187500.02235174447,24339.887421117717,-187500.02235174447,-187500.02235174447,-187500.02235174447,-187500.02235174447,-187500.02235174447,1730411330.495212,1730411328.3819163,6000
2981.4544894044984,-187500.02235174447,24316.6416068842,-187500.02235174447,-187500.02235174447,-187500.02235174447,-187500.02235174447,-187500.02235174447,1730411330.4991825,1730411328.3819163,6000
3010.1988327740232,-187500.02235174447,24335.3947204822,-187500.02235174447,-187500.02235174447,-187500.02235174447,-187500.02235174447,-187500.02235174447,1730411330.5045843,1730411328.3819163,6000
3119.14123524919,-187500.02235174447,24386.5578635404,-187500.02235174447,-187500.02235174447,-187500.02235174447,-187500.02235174447,-187500.02235174447,1730411330.5072846,1730411328.3819163,6000
3139.302508747877,-187500.02235174447,24436.58106763137,-187500.02235174447,-187500.02235174447,-187500.02235174447,-187500.02235174447,-187500.02235174447,1730411330.511804,1730411328.3819163,6000
3058.098621141746,-187500.02235174447,24449.99211430456,-187500.02235174447,-187500.02235174447,-187500.02235174447,-187500.02235174447,-187500.02235174447,1730411330.5152507,1730411328.3819163,6000
3054.6564524956293,-187500.02235174447,24425.60636110382,-187500.02235174447,-187500.02235174447,-187500.02235174447,-187500.02235174447,-187500.02235174447,1730411330.5193088,1730411328.3819163,6000
3157.116849078757,-187500.02235174447,24507.972539421626,-187500.02235174447,-187500.02235174447,-187500.02235174447,-187500.02235174447,-187500.02235174447,1730411330.523282,1730411328.3819163,6000
3075.175353905601,-187500.02235174447,24413.82699177587,-187500.02235174447,-187500.02235174447,-187500.02235174447,-187500.02235174447,-187500.02235174447,1730411330.5277643,1730411328.3819163,6000
2995.871364578172,-187500.02235174447,24349.05163634439,-187500.02235174447,-187500.02235174447,-187500.02235174447,-187500.02235174447,-187500.02235174447,1730411330.5313644,1730411328.3819163,6000
3018.133702055657,-187500.02235174447,24367.737694709027,-187500.02235174447,-187500.02235174447,-187500.02235174447,-187500.02235174447,-187500.02235174447,1730411330.534871,1730411328.3819163,6000
3107.8089008103493,-187500.02235174447,24422.83474479136,-187500.02235174447,-187500.02235174447,-187500.02235174447,-187500.02235174447,-187500.02235174447,1730411330.5394645,1730411328.3819163,6000
3034.450475508032,-187500.02235174447,24316.887476073203,-187500.02235174447,-187500.02235174447,-187500.02235174447,-187500.02235174447,-187500.02235174447,1730411330.5435305,1730411328.3819163,6000
2887.6889214144853,-187500.02235174447,24196.97036707048,-187500.02235174447,-187500.02235174447,-187500.02235174447,-187500.02235174447,-187500.02235174447,1730411330.5477028,1730411328.3819163,6000
3136.553244179874,-187500.02235174447,24528.290275131498,-187500.02235174447,-187500.02235174447,-187500.02235174447,-187500.02235174447,-187500.02235174447,1730411330.5518196,1730411328.3819163,6000
3161.944825881103,-187500.02235174447,24530.79367051049,-187500.02235174447,-187500.02235174447,-187500.02235174447,-187500.02235174447,-187500.02235174447,1730411330.5560594,1730411328.3819163,6000
3091.313313402333,-187500.02235174447,24403.23226490405,-187500.02235174447,-187500.02235174447,-187500.02235174447,-187500.02235174447,-187500.02235174447,1730411330.5592897,1730411328.3819163,6000
3010.9364403410486,-187500.02235174447,24333.58422918132,-187500.02235174447,-187500.02235174447,-187500.02235174447,-187500.02235174447,-187500.02235174447,1730411330.5629027,1730411328.3819163,6000
3087.5135168449306,-187500.02235174447,24428.176811716177,-187500.02235174447,-187500.02235174447,-187500.02235174447,-187500.02235174447,-187500.02235174447,1730411330.5678518,1730411328.3819163,6000
3105.752540320461,-187500.02235174447,24430.635503606263,-187500.02235174447,-187500.02235174447,-187500.02235174447,-187500.02235174447,-187500.02235174447,1730411330.5715528,1730411328.3819163,6000
3087.84879301176,-187500.02235174447,24407.344985883832,-187500.02235174447,-187500.02235174447,-187500.02235174447,-187500.02235174447,-187500.02235174447,1730411330.575558,1730411328.3819163,6000
3076.56116206183,-187500.02235174447,24393.598663043816,-187500.02235174447,-187500.02235174447,-187500.02235174447,-187500.02235174447,-187500.02235174447,1730411330.5793116,1730411328.3819163,6000
3011.6963996525287,-187500.02235174447,24351.286810789923,-187500.02235174447,-187500.02235174447,-187500.02235174447,-187500.02235174447,-187500.02235174447,1730411330.5835495,1730411328.3819163,6000
3073.4542695825426,-187500.02235174447,24394.98447120005,-187500.02235174447,-187500.02235174447,-187500.02235174447,-187500.02235174447,-187500.02235174447,1730411330.587528,1730411328.3819163,6000
3092.56501109183,-187500.02235174447,24430.12141348379,-187500.02235174447,-187500.02235174447,-187500.02235174447,-187500.02235174447,-187500.02235174447,1730411330.5902812,1730411328.3819163,6000
3064.7370892449726,-187500.02235174447,24383.361564083287,-187500.02235174447,-187500.02235174447,-187500.02235174447,-187500.02235174447,-187500.02235174447,1730411330.5944417,1730411328.3819163,6000
3106.3783891652097,-187500.02235174447,24466.30888775693,-187500.02235174447,-187500.02235174447,-187500.02235174447,-187500.02235174447,-187500.02235174447,1730411330.5993233,1730411328.3819163,6000
3090.7321680464947,-187500.02235174447,24452.182585261176,-187500.02235174447,-187500.02235174447,-187500.02235174447,-187500.02235174447,-187500.02235174447,1730411330.6034355,1730411328.3819163,6000
3108.300639188366,-187500.02235174447,24421.65010233523,-187500.02235174447,-187500.02235174447,-187500.02235174447,-187500.02235174447,-187500.02235174447,1730411330.6074333,1730411328.3819163,6000
3087.737034289484,-187500.02235174447,24408.77549752897,-187500.02235174447,-187500.02235174447,-187500.02235174447,-187500.02235174447,-187500.02235174447,1730411330.61144,1730411328.3819163,6000
2980.6721783485627,-187500.02235174447,24338.345150750298,-187500.02235174447,-187500.02235174447,-187500.02235174447,-187500.02235174447,-187500.02235174447,1730411330.615373,1730411328.3819163,6000
3069.2968451138554,-187500.02235174447,24435.0164455195,-187500.02235174447,-187500.02235174447,-187500.02235174447,-187500.02235174447,-187500.02235174447,1730411330.6184652,1730411328.3819163,6000
3129.043058042891,-187500.02235174447,24456.67528589669,-187500.02235174447,-187500.02235174447,-187500.02235174447,-187500.02235174447,-187500.02235174447,1730411330.62247,1730411328.3819163,6000
3025.8674056371938,-187500.02235174447,24333.40541522568,-187500.02235174447,-187500.02235174447,-187500.02235174447,-187500.02235174447,-187500.02235174447,1730411330.6274788,1730411328.3819163,6000
3030.181292317068,-187500.02235174447,24368.74352320952,-187500.02235174447,-187500.02235174447,-187500.02235174447,-187500.02235174447,-187500.02235174447,1730411330.63145,1730411328.3819163,6000
3131.725267377528,-187500.02235174447,24492.728649703105,-187500.02235174447,-187500.02235174447,-187500.02235174447,-187500.02235174447,-187500.02235174447,1730411330.6356473,1730411328.3819163,6000
3214.136149184245,-187500.02235174447,24495.790838693483,-187500.02235174447,-187500.02235174447,-187500.02235174447,-187500.02235174447,-187500.02235174447,1730411330.6388168,1730411328.3819163,6000
3048.0626878813136,-187500.02235174447,24332.757214636476,-187500.02235174447,-187500.02235174447,-187500.02235174447,-187500.02235174447,-187500.02235174447,1730411330.6425936,1730411328.3819163,6000
3021.307649768311,-187500.02235174447,24345.922392120647,-187500.02235174447,-187500.02235174447,-187500.02235174447,-187500.02235174447,-187500.02235174447,1730411330.6465857,1730411328.3819163,6000
3096.856546027249,-187500.02235174447,24494.22621658161,-187500.02235174447,-187500.02235174447,-187500.02235174447,-187500.02235174447,-187500.02235174447,1730411330.650954,1730411328.3819163,6000
3097.817671038827,-187500.02235174447,24466.55475694594,-187500.02235174447,-187500.02235174447,-187500.02235174447,-187500.02235174447,-187500.02235174447,1730411330.654968,1730411328.3819163,6000
3084.630141810196,-187500.02235174447,24413.715233053597,-187500.02235174447,-187500.02235174447,-187500.02235174447,-187500.02235174447,-187500.02235174447,1730411330.6594412,1730411328.3819163,6000
2997.8383180902388,-187500.02235174447,24316.4404411841,-187500.02235174447,-187500.02235174447,-187500.02235174447,-187500.02235174447,-187500.02235174447,1730411330.6637084,1730411328.3819163,6000
2963.6177973291637,-187500.02235174447,24291.1829699496,-187500.02235174447,-187500.02235174447,-187500.02235174447,-187500.02235174447,-187500.02235174447,1730411330.6666818,1730411328.3819163,6000
3088.072310456313,-187500.02235174447,24423.25942793601,-187500.02235174447,-187500.02235174447,-187500.02235174447,-187500.02235174447,-187500.02235174447,1730411330.6707232,1730411328.3819163,6000
3051.75072571644,-187500.02235174447,24350.97388636755,-187500.02235174447,-187500.02235174447,-187500.02235174447,-187500.02235174447,-187500.02235174447,1730411330.674714,1730411328.3819163,6000
3093.794357036872,-187500.02235174447,24403.612244559798,-187500.02235174447,-187500.02235174447,-187500.02235174447,-187500.02235174447,-187500.02235174447,1730411330.678526,1730411328.3819163,6000
3078.908095229637,-187500.02235174447,24455.17771901819,-187500.02235174447,-187500.02235174447,-187500.02235174447,-187500.02235174447,-187500.02235174447,1730411330.6824763,1730411328.3819163,6000
3069.9897491919696,-187500.02235174447,24432.60245711833,-187500.02235174447,-187500.02235174447,-187500.02235174447,-187500.02235174447,-187500.02235174447,1730411330.6879957,1730411328.3819163,6000
3141.269462259944,-187500.02235174447,24454.685980640174,-187500.02235174447,-187500.02235174447,-187500.02235174447,-187500.02235174447,-187500.02235174447,1730411330.69167,1730411328.3819163,6000
3057.696289741551,-187500.02235174447,24372.02922964445,-187500.02235174447,-187500.02235174447,-187500.02235174447,-187500.02235174447,-187500.02235174447,1730411330.6947162,1730411328.3819163,6000
2999.0229605463696,-187500.02235174447,24340.446214729094,-187500.02235174447,-187500.02235174447,-187500.02235174447,-187500.02235174447,-187500.02235174447,1730411330.6985488,1730411328.3819163,6000
3080.5174208304197,-187500.02235174447,24434.1670792302,-187500.02235174447,-187500.02235174447,-187500.02235174447,-187500.02235174447,-187500.02235174447,1730411330.7030168,1730411328.3819163,6000
3105.014932753436,-187500.02235174447,24437.40808217622,-187500.02235174447,-187500.02235174447,-187500.02235174447,-187500.02235174447,-187500.02235174447,1730411330.7065296,1730411328.3819163,6000
2972.2902741778225,-187500.02235174447,24287.360821647744,-187500.02235174447,-187500.02235174447,-187500.02235174447,-187500.02235174447,-187500.02235174447,1730411330.710764,1730411328.3819163,6000
2956.9793292259374,-187500.02235174447,24285.907958258147,-187500.02235174447,-187500.02235174447,-187500.02235174447,-187500.02235174447,-187500.02235174447,1730411330.7156332,1730411328.3819163,6000
3105.6407815981847,-187500.02235174447,24475.786027405986,-187500.02235174447,-187500.02235174447,-187500.02235174447,-187500.02235174447,-187500.02235174447,1730411330.719684,1730411328.3819163,6000
3136.1509127796785,-187500.02235174447,24469.08050406939,-187500.02235174447,-187500.02235174447,-187500.02235174447,-187500.02235174447,-187500.02235174447,1730411330.7229524,1730411328.3819163,6000
3138.184921525112,-187500.02235174447,24478.535291973985,-187500.02235174447,-187500.02235174447,-187500.02235174447,-187500.02235174447,-187500.02235174447,1730411330.7265208,1730411328.3819163,6000
3047.660356481118,-187500.02235174447,24403.098154437324,-187500.02235174447,-187500.02235174447,-187500.02235174447,-187500.02235174447,-187500.02235174447,1730411330.7310452,1730411328.3819163,6000
3053.114182128213,-187500.02235174447,24408.52962833996,-187500.02235174447,-187500.02235174447,-187500.02235174447,-187500.02235174447,-187500.02235174447,1730411330.7347856,1730411328.3819163,6000
3088.2958279008662,-187500.02235174447,24420.64427383474,-187500.02235174447,-187500.02235174447,-187500.02235174447,-187500.02235174447,-187500.02235174447,1730411330.7388232,1730411328.3819163,6000
3072.6719585266064,-187500.02235174447,24394.22451188857,-187500.02235174447,-187500.02235174447,-187500.02235174447,-187500.02235174447,-187500.02235174447,1730411330.744145,1730411328.3819163,6000
3008.4553967065094,-187500.02235174447,24347.397607254698,-187500.02235174447,-187500.02235174447,-187500.02235174447,-187500.02235174447,-187500.02235174447,1730411330.747824,1730411328.3819163,6000
3012.3446002417327,-187500.02235174447,24360.58513648333,-187500.02235174447,-187500.02235174447,-187500.02235174447,-187500.02235174447,-187500.02235174447,1730411330.7513337,1730411328.3819163,6000
3076.918789973115,-187500.02235174447,24386.28964260693,-187500.02235174447,-187500.02235174447,-187500.02235174447,-187500.02235174447,-187500.02235174447,1730411330.7548175,1730411328.3819163,6000
3146.388011740209,-187500.02235174447,24485.531387988496,-187500.02235174447,-187500.02235174447,-187500.02235174447,-187500.02235174447,-187500.02235174447,1730411330.7587411,1730411328.3819163,6000
2998.218297745979,-187500.02235174447,24348.269325288456,-187500.02235174447,-187500.02235174447,-187500.02235174447,-187500.02235174447,-187500.02235174447,1730411330.7632432,1730411328.3819163,6000
3056.3328333297773,-187500.02235174447,24416.28568366596,-187500.02235174447,-187500.02235174447,-187500.02235174447,-187500.02235174447,-187500.02235174447,1730411330.7667985,1730411328.3819163,6000
3139.4813227035197,-187500.02235174447,24487.252472311557,-187500.02235174447,-187500.02235174447,-187500.02235174447,-187500.02235174447,-187500.02235174447,1730411330.7721567,1730411328.3819163,6000
3005.9072978386043,-187500.02235174447,24309.153772491667,-187500.02235174447,-187500.02235174447,-187500.02235174447,-187500.02235174447,-187500.02235174447,1730411330.774632,1730411328.3819163,6000
3032.595280718241,-187500.02235174447,24344.87186013125,-187500.02235174447,-187500.02235174447,-187500.02235174447,-187500.02235174447,-187500.02235174447,1730411330.7787397,1730411328.3819163,6000
