Fp1,Fp2,C3,C4,P7,P8,O1,O2,time_board,time_marker,marker
1150.84661851485,-187500.02235174447,560.2241230278162,-187500.02235174447,-187500.02235174447,-187500.02235174447,-187500.02235174447,-187500.02235174447,1730244252.68195,1730244252.6809378,6000
1153.5958830828529,-187500.02235174447,544.2873292311823,-187500.02235174447,-187500.02235174447,-187500.02235174447,-187500.02235174447,-187500.02235174447,1730244252.6870496,1730244252.6809378,6000
1174.0477292594587,-187500.02235174447,593.8634984330533,-187500.02235174447,-187500.02235174447,-187500.02235174447,-187500.02235174447,-187500.02235174447,1730244252.690935,1730244252.6809378,6000
1171.5443338804644,-187500.02235174447,617.3104783666705,-187500.02235174447,-187500.02235174447,-187500.02235174447,-187500.02235174447,-187500.02235174447,1730244252.6940248,1730244252.6809378,6000
1151.383060381777,-187500.02235174447,569.0977655765731,-187500.02235174447,-187500.02235174447,-187500.02235174447,-187500.02235174447,-187500.02235174447,1730244252.6979637,1730244252.6809378,6000
1151.293653403956,-187500.02235174447,540.9122158184309,-187500.02235174447,-187500.02235174447,-187500.02235174447,-187500.02235174447,-187500.02235174447,1730244252.7020202,1730244252.6809378,6000
1169.264455946023,-187500.02235174447,582.3523500385702,-187500.02235174447,-187500.02235174447,-187500.02235174447,-187500.02235174447,-187500.02235174447,1730244252.7060826,1730244252.6809378,6000
1177.1099182498358,-187500.02235174447,619.6350597900224,-187500.02235174447,-187500.02235174447,-187500.02235174447,-187500.02235174447,-187500.02235174447,1730244252.7099495,1730244252.6809378,6000
1152.455944115632,-187500.02235174447,574.1716115679278,-187500.02235174447,-187500.02235174447,-187500.02235174447,-187500.02235174447,-187500.02235174447,1730244252.7150152,1730244252.6809378,6000
1145.169275423202,-187500.02235174447,536.6877361163779,-187500.02235174447,-187500.02235174447,-187500.02235174447,-187500.02235174447,-187500.02235174447,1730244252.7190137,1730244252.6809378,6000
1172.5948658698635,-187500.02235174447,577.9043528919641,-187500.02235174447,-187500.02235174447,-187500.02235174447,-187500.02235174447,-187500.02235174447,1730244252.7220137,1730244252.6809378,6000
1176.2605519605345,-187500.02235174447,617.6457545335,-187500.02235174447,-187500.02235174447,-187500.02235174447,-187500.02235174447,-187500.02235174447,1730244252.725978,1730244252.6809378,6000
1156.8368860288724,-187500.02235174447,588.1638035969501,-187500.02235174447,-187500.02235174447,-187500.02235174447,-187500.02235174447,-187500.02235174447,1730244252.7302325,1730244252.6809378,6000
1146.756249279529,-187500.02235174447,536.3971634384588,-187500.02235174447,-187500.02235174447,-187500.02235174447,-187500.02235174447,-187500.02235174447,1730244252.7341273,1730244252.6809378,6000
1163.0953744763583,-187500.02235174447,561.9452073508749,-187500.02235174447,-187500.02235174447,-187500.02235174447,-187500.02235174447,-187500.02235174447,1730244252.7381136,1730244252.6809378,6000
1174.0477292594587,-187500.02235174447,609.8896992075086,-187500.02235174447,-187500.02235174447,-187500.02235174447,-187500.02235174447,-187500.02235174447,1730244252.7432027,1730244252.6809378,6000
1156.9933482400595,-187500.02235174447,596.2551350897712,-187500.02235174447,-187500.02235174447,-187500.02235174447,-187500.02235174447,-187500.02235174447,1730244252.7461636,1730244252.6809378,6000
1145.4374963566656,-187500.02235174447,547.5283321772018,-187500.02235174447,-187500.02235174447,-187500.02235174447,-187500.02235174447,-187500.02235174447,1730244252.7500556,1730244252.6809378,6000
1158.915598263216,-187500.02235174447,554.3456142360704,-187500.02235174447,-187500.02235174447,-187500.02235174447,-187500.02235174447,-187500.02235174447,1730244252.7541697,1730244252.6809378,6000
1168.4150896567214,-187500.02235174447,606.0228474167404,-187500.02235174447,-187500.02235174447,-187500.02235174447,-187500.02235174447,-187500.02235174447,1730244252.7581353,1730244252.6809378,6000
1159.4743918745985,-187500.02235174447,603.228879359827,-187500.02235174447,-187500.02235174447,-187500.02235174447,-187500.02235174447,-187500.02235174447,1730244252.7622228,1730244252.6809378,6000
1145.6610138012188,-187500.02235174447,550.5458176786683,-187500.02235174447,-187500.02235174447,-187500.02235174447,-187500.02235174447,-187500.02235174447,1730244252.7660708,1730244252.6809378,6000
1156.9262930066936,-187500.02235174447,544.6226053980118,-187500.02235174447,-187500.02235174447,-187500.02235174447,-187500.02235174447,-187500.02235174447,1730244252.7712207,1730244252.6809378,6000
1177.8028223279505,-187500.02235174447,597.551536268179,-187500.02235174447,-187500.02235174447,-187500.02235174447,-187500.02235174447,-187500.02235174447,1730244252.7740717,1730244252.6809378,6000
1170.337339679878,-187500.02235174447,615.0976556655951,-187500.02235174447,-187500.02235174447,-187500.02235174447,-187500.02235174447,-187500.02235174447,1730244252.7772524,1730244252.6809378,6000
1147.2256359130904,-187500.02235174447,564.3815474965033,-187500.02235174447,-187500.02235174447,-187500.02235174447,-187500.02235174447,-187500.02235174447,1730244252.782066,1730244252.6809378,6000
1154.199380183146,-187500.02235174447,543.4379629418806,-187500.02235174447,-187500.02235174447,-187500.02235174447,-187500.02235174447,-187500.02235174447,1730244252.7862594,1730244252.6809378,6000
1171.276112947001,-187500.02235174447,589.5272600087238,-187500.02235174447,-187500.02235174447,-187500.02235174447,-187500.02235174447,-187500.02235174447,1730244252.7901752,1730244252.6809378,6000
1168.6162553568192,-187500.02235174447,614.4718068208465,-187500.02235174447,-187500.02235174447,-187500.02235174447,-187500.02235174447,-187500.02235174447,1730244252.7943096,1730244252.6809378,6000
1145.817476012406,-187500.02235174447,571.1541260664613,-187500.02235174447,-187500.02235174447,-187500.02235174447,-187500.02235174447,-187500.02235174447,1730244252.7991822,1730244252.6809378,6000
1147.3150428909116,-187500.02235174447,537.7606198502326,-187500.02235174447,-187500.02235174447,-187500.02235174447,-187500.02235174447,-187500.02235174447,1730244252.8022928,1730244252.6809378,6000
1167.1857437116796,-187500.02235174447,584.5651727396456,-187500.02235174447,-187500.02235174447,-187500.02235174447,-187500.02235174447,-187500.02235174447,1730244252.805313,1730244252.6809378,6000
1170.8290780578943,-187500.02235174447,621.9149377244637,-187500.02235174447,-187500.02235174447,-187500.02235174447,-187500.02235174447,-187500.02235174447,1730244252.8103356,1730244252.6809378,6000
1151.651281315241,-187500.02235174447,581.5923907270898,-187500.02235174447,-187500.02235174447,-187500.02235174447,-187500.02235174447,-187500.02235174447,1730244252.8142457,1730244252.6809378,6000
1148.5667405804088,-187500.02235174447,539.2805384731935,-187500.02235174447,-187500.02235174447,-187500.02235174447,-187500.02235174447,-187500.02235174447,1730244252.818254,1730244252.6809378,6000
1164.570589610409,-187500.02235174447,569.3883382544922,-187500.02235174447,-187500.02235174447,-187500.02235174447,-187500.02235174447,-187500.02235174447,1730244252.822409,1730244252.6809378,6000
1168.1468687232575,-187500.02235174447,609.8896992075086,-187500.02235174447,-187500.02235174447,-187500.02235174447,-187500.02235174447,-187500.02235174447,1730244252.8263564,1730244252.6809378,6000
1149.2819964029786,-187500.02235174447,585.4815942623133,-187500.02235174447,-187500.02235174447,-187500.02235174447,-187500.02235174447,-187500.02235174447,1730244252.830402,1730244252.6809378,6000
1139.5142840760093,-187500.02235174447,539.1464280064616,-187500.02235174447,-187500.02235174447,-187500.02235174447,-187500.02235174447,-187500.02235174447,1730244252.8333013,1730244252.6809378,6000
1163.0506709874478,-187500.02235174447,563.7109951628441,-187500.02235174447,-187500.02235174447,-187500.02235174447,-187500.02235174447,-187500.02235174447,1730244252.8383317,1730244252.6809378,6000
1172.7066245921403,-187500.02235174447,613.0189434312515,-187500.02235174447,-187500.02235174447,-187500.02235174447,-187500.02235174447,-187500.02235174447,1730244252.8423262,1730244252.6809378,6000
1153.1935516826572,-187500.02235174447,596.3221903231371,-187500.02235174447,-187500.02235174447,-187500.02235174447,-187500.02235174447,-187500.02235174447,1730244252.8462615,1730244252.6809378,6000
1141.4141823547104,-187500.02235174447,541.5604164076349,-187500.02235174447,-187500.02235174447,-187500.02235174447,-187500.02235174447,-187500.02235174447,1730244252.8502662,1730244252.6809378,6000
1156.5463133509534,-187500.02235174447,547.4612769438359,-187500.02235174447,-187500.02235174447,-187500.02235174447,-187500.02235174447,-187500.02235174447,1730244252.854431,1730244252.6809378,6000
1174.3830054262885,-187500.02235174447,603.8770799490309,-187500.02235174447,-187500.02235174447,-187500.02235174447,-187500.02235174447,-187500.02235174447,1730244252.8583367,1730244252.6809378,6000
1168.1468687232575,-187500.02235174447,604.2123561158605,-187500.02235174447,-187500.02235174447,-187500.02235174447,-187500.02235174447,-187500.02235174447,1730244252.8614717,1730244252.6809378,6000
1143.2917288889562,-187500.02235174447,552.7362886352884,-187500.02235174447,-187500.02235174447,-187500.02235174447,-187500.02235174447,-187500.02235174447,1730244252.865272,1730244252.6809378,6000
1152.0983162043472,-187500.02235174447,545.2484542427604,-187500.02235174447,-187500.02235174447,-187500.02235174447,-187500.02235174447,-187500.02235174447,1730244252.8714838,1730244252.6809378,6000
1178.3392641948778,-187500.02235174447,603.9217834379415,-187500.02235174447,-187500.02235174447,-187500.02235174447,-187500.02235174447,-187500.02235174447,1730244252.8743403,1730244252.6809378,6000
1169.7785460684952,-187500.02235174447,614.2482893762934,-187500.02235174447,-187500.02235174447,-187500.02235174447,-187500.02235174447,-187500.02235174447,1730244252.8784344,1730244252.6809378,6000
1146.108048690325,-187500.02235174447,558.7489078937659,-187500.02235174447,-187500.02235174447,-187500.02235174447,-187500.02235174447,-187500.02235174447,1730244252.8814845,1730244252.6809378,6000
1146.3092143904228,-187500.02235174447,535.8160180826209,-187500.02235174447,-187500.02235174447,-187500.02235174447,-187500.02235174447,-187500.02235174447,1730244252.885434,1730244252.6809378,6000
1165.5987698553529,-187500.02235174447,582.9111436499529,-187500.02235174447,-187500.02235174447,-187500.02235174447,-187500.02235174447,-187500.02235174447,1730244252.889442,1730244252.6809378,6000
1167.833944300883,-187500.02235174447,613.1083504090727,-187500.02235174447,-187500.02235174447,-187500.02235174447,-187500.02235174447,-187500.02235174447,1730244252.8933413,1730244252.6809378,6000
1146.5103800905206,-187500.02235174447,564.582713196601,-187500.02235174447,-187500.02235174447,-187500.02235174447,-187500.02235174447,-187500.02235174447,1730244252.8983798,1730244252.6809378,6000
1145.0128132120149,-187500.02235174447,531.8374075695763,-187500.02235174447,-187500.02235174447,-187500.02235174447,-187500.02235174447,-187500.02235174447,1730244252.9024732,1730244252.6809378,6000
1167.4986681340538,-187500.02235174447,572.7410999227882,-187500.02235174447,-187500.02235174447,-187500.02235174447,-187500.02235174447,-187500.02235174447,1730244252.9063697,1730244252.6809378,6000
1172.1925344696683,-187500.02235174447,610.3814375855253,-187500.02235174447,-187500.02235174447,-187500.02235174447,-187500.02235174447,-187500.02235174447,1730244252.909377,1730244252.6809378,6000
1152.746516793551,-187500.02235174447,574.7304051793105,-187500.02235174447,-187500.02235174447,-187500.02235174447,-187500.02235174447,-187500.02235174447,1730244252.9134305,1730244252.6809378,6000
1138.2178828976016,-187500.02235174447,535.9054250604421,-187500.02235174447,-187500.02235174447,-187500.02235174447,-187500.02235174447,-187500.02235174447,1730244252.9174912,1730244252.6809378,6000
1152.2547784155345,-187500.02235174447,563.9568643518525,-187500.02235174447,-187500.02235174447,-187500.02235174447,-187500.02235174447,-187500.02235174447,1730244252.9214928,1730244252.6809378,6000
1161.5978075978528,-187500.02235174447,607.5427660397013,-187500.02235174447,-187500.02235174447,-187500.02235174447,-187500.02235174447,-187500.02235174447,1730244252.9265077,1730244252.6809378,6000
1150.623101070297,-187500.02235174447,588.2979140636819,-187500.02235174447,-187500.02235174447,-187500.02235174447,-187500.02235174447,-187500.02235174447,1730244252.9305143,1730244252.6809378,6000
1136.0497636854368,-187500.02235174447,540.6439948849672,-187500.02235174447,-187500.02235174447,-187500.02235174447,-187500.02235174447,-187500.02235174447,1730244252.934408,1730244252.6809378,6000
1153.0370894714702,-187500.02235174447,555.5079049477464,-187500.02235174447,-187500.02235174447,-187500.02235174447,-187500.02235174447,-187500.02235174447,1730244252.9374492,1730244252.6809378,6000
1168.4821448900873,-187500.02235174447,610.2473271187935,-187500.02235174447,-187500.02235174447,-187500.02235174447,-187500.02235174447,-187500.02235174447,1730244252.9413722,1730244252.6809378,6000
1158.5803220963862,-187500.02235174447,600.9490014253856,-187500.02235174447,-187500.02235174447,-187500.02235174447,-187500.02235174447,-187500.02235174447,1730244252.945488,1730244252.6809378,6000
1142.0176794550036,-187500.02235174447,546.9918903102745,-187500.02235174447,-187500.02235174447,-187500.02235174447,-187500.02235174447,-187500.02235174447,1730244252.9495783,1730244252.6809378,6000
1149.684327803174,-187500.02235174447,549.1376577779839,-187500.02235174447,-187500.02235174447,-187500.02235174447,-187500.02235174447,-187500.02235174447,1730244252.954528,1730244252.6809378,6000
1166.1575634667354,-187500.02235174447,598.937344424408,-187500.02235174447,-187500.02235174447,-187500.02235174447,-187500.02235174447,-187500.02235174447,1730244252.9584625,1730244252.6809378,6000
1158.490915118565,-187500.02235174447,606.4922340503018,-187500.02235174447,-187500.02235174447,-187500.02235174447,-187500.02235174447,-187500.02235174447,1730244252.9624596,1730244252.6809378,6000
1137.7037927751294,-187500.02235174447,552.8033438686542,-187500.02235174447,-187500.02235174447,-187500.02235174447,-187500.02235174447,-187500.02235174447,1730244252.9654744,1730244252.6809378,6000
1143.649356800241,-187500.02235174447,540.9792710517968,-187500.02235174447,-187500.02235174447,-187500.02235174447,-187500.02235174447,-187500.02235174447,1730244252.9695425,1730244252.6809378,6000
1170.0244152575035,-187500.02235174447,592.5000420212796,-187500.02235174447,-187500.02235174447,-187500.02235174447,-187500.02235174447,-187500.02235174447,1730244252.9734411,1730244252.6809378,6000
1166.4481361446544,-187500.02235174447,612.4601498198688,-187500.02235174447,-187500.02235174447,-187500.02235174447,-187500.02235174447,-187500.02235174447,1730244252.9774387,1730244252.6809378,6000
1155.071098216903,-187500.02235174447,556.8043061261542,-187500.02235174447,-187500.02235174447,-187500.02235174447,-187500.02235174447,-187500.02235174447,1730244252.9815583,1730244252.6809378,6000
1172.2148862141237,-187500.02235174447,527.5682243786126,-187500.02235174447,-187500.02235174447,-187500.02235174447,-187500.02235174447,-187500.02235174447,1730244252.9865384,1730244252.6809378,6000
1166.9622262671264,-187500.02235174447,573.5457627231792,-187500.02235174447,-187500.02235174447,-187500.02235174447,-187500.02235174447,-187500.02235174447,1730244252.989493,1730244252.6809378,6000
1158.557970351931,-187500.02235174447,616.3270016106369,-187500.02235174447,-187500.02235174447,-187500.02235174447,-187500.02235174447,-187500.02235174447,1730244252.9935503,1730244252.6809378,6000
1129.500702560032,-187500.02235174447,578.0831668476065,-187500.02235174447,-187500.02235174447,-187500.02235174447,-187500.02235174447,-187500.02235174447,1730244252.997528,1730244252.6809378,6000
1127.4666938145988,-187500.02235174447,535.8607215715315,-187500.02235174447,-187500.02235174447,-187500.02235174447,-187500.02235174447,-187500.02235174447,1730244253.001538,1730244252.6809378,6000
1170.4043949132438,-187500.02235174447,575.3115505351485,-187500.02235174447,-187500.02235174447,-187500.02235174447,-187500.02235174447,-187500.02235174447,1730244253.0056288,1730244252.6809378,6000
1172.013720514026,-187500.02235174447,613.0412951757069,-187500.02235174447,-187500.02235174447,-187500.02235174447,-187500.02235174447,-187500.02235174447,1730244253.0096822,1730244252.6809378,6000
1150.1090109478248,-187500.02235174447,574.0151493567407,-187500.02235174447,-187500.02235174447,-187500.02235174447,-187500.02235174447,-187500.02235174447,1730244253.0146806,1730244252.6809378,6000
1162.4024703982438,-187500.02235174447,533.1561604924393,-187500.02235174447,-187500.02235174447,-187500.02235174447,-187500.02235174447,-187500.02235174447,1730244253.0176775,1730244252.6809378,6000
1181.3120462074337,-187500.02235174447,563.5545329516569,-187500.02235174447,-187500.02235174447,-187500.02235174447,-187500.02235174447,-187500.02235174447,1730244253.021552,1730244252.6809378,6000
1182.429633430199,-187500.02235174447,603.742969482299,-187500.02235174447,-187500.02235174447,-187500.02235174447,-187500.02235174447,-187500.02235174447,1730244253.0256748,1730244252.6809378,6000
1165.9340460221822,-187500.02235174447,599.7643589692544,-187500.02235174447,-187500.02235174447,-187500.02235174447,-187500.02235174447,-187500.02235174447,1730244253.029619,1730244252.6809378,6000
1145.951586479138,-187500.02235174447,552.8256956131096,-187500.02235174447,-187500.02235174447,-187500.02235174447,-187500.02235174447,-187500.02235174447,1730244253.0336013,1730244252.6809378,6000
1147.4491533576434,-187500.02235174447,535.9277768048975,-187500.02235174447,-187500.02235174447,-187500.02235174447,-187500.02235174447,-187500.02235174447,1730244253.0375965,1730244252.6809378,6000
1161.7989732979504,-187500.02235174447,574.7080534348552,-187500.02235174447,-187500.02235174447,-187500.02235174447,-187500.02235174447,-187500.02235174447,1730244253.042562,1730244252.6809378,6000
1160.2567029305344,-187500.02235174447,601.2842775922153,-187500.02235174447,-187500.02235174447,-187500.02235174447,-187500.02235174447,-187500.02235174447,1730244253.0456393,1730244252.6809378,6000
1116.8049117094174,-187500.02235174447,575.3786057685144,-187500.02235174447,-187500.02235174447,-187500.02235174447,-187500.02235174447,-187500.02235174447,1730244253.0485413,1730244252.6809378,6000
1129.0760194153809,-187500.02235174447,558.972425338319,-187500.02235174447,-187500.02235174447,-187500.02235174447,-187500.02235174447,-187500.02235174447,1730244253.0536883,1730244252.6809378,6000
1188.464604433132,-187500.02235174447,585.4815942623133,-187500.02235174447,-187500.02235174447,-187500.02235174447,-187500.02235174447,-187500.02235174447,1730244253.057576,1730244252.6809378,6000
1177.691063605674,-187500.02235174447,588.3202658081372,-187500.02235174447,-187500.02235174447,-187500.02235174447,-187500.02235174447,-187500.02235174447,1730244253.0618088,1730244252.6809378,6000
1116.0449523979369,-187500.02235174447,538.1629512504281,-187500.02235174447,-187500.02235174447,-187500.02235174447,-187500.02235174447,-187500.02235174447,1730244253.065564,1730244252.6809378,6000
1103.7067894586075,-187500.02235174447,518.1357882184731,-187500.02235174447,-187500.02235174447,-187500.02235174447,-187500.02235174447,-187500.02235174447,1730244253.070829,1730244252.6809378,6000
1135.4239148406882,-187500.02235174447,569.164820809939,-187500.02235174447,-187500.02235174447,-187500.02235174447,-187500.02235174447,-187500.02235174447,1730244253.0735753,1730244252.6809378,6000
1155.8981127617494,-187500.02235174447,568.0248818427184,-187500.02235174447,-187500.02235174447,-187500.02235174447,-187500.02235174447,-187500.02235174447,1730244253.0777192,1730244252.6809378,6000
1164.4141273992211,-187500.02235174447,537.5147506612243,-187500.02235174447,-187500.02235174447,-187500.02235174447,-187500.02235174447,-187500.02235174447,1730244253.0817173,1730244252.6809378,6000
1134.9992316960374,-187500.02235174447,558.1901142823833,-187500.02235174447,-187500.02235174447,-187500.02235174447,-187500.02235174447,-187500.02235174447,1730244253.0858078,1730244252.6809378,6000
1172.9971972700594,-187500.02235174447,582.2182395718384,-187500.02235174447,-187500.02235174447,-187500.02235174447,-187500.02235174447,-187500.02235174447,1730244253.0897963,1730244252.6809378,6000
1191.459738190143,-187500.02235174447,620.9314609684302,-187500.02235174447,-187500.02235174447,-187500.02235174447,-187500.02235174447,-187500.02235174447,1730244253.0938427,1730244252.6809378,6000
1158.46856337411,-187500.02235174447,594.4222920444361,-187500.02235174447,-187500.02235174447,-187500.02235174447,-187500.02235174447,-187500.02235174447,1730244253.0978625,1730244252.6809378,6000
1127.6008042813307,-187500.02235174447,550.4117072119365,-187500.02235174447,-187500.02235174447,-187500.02235174447,-187500.02235174447,-187500.02235174447,1730244253.1008315,1730244252.6809378,6000
1164.5035343770426,-187500.02235174447,545.6284338985007,-187500.02235174447,-187500.02235174447,-187500.02235174447,-187500.02235174447,-187500.02235174447,1730244253.104876,1730244252.6809378,6000
1187.6599416327408,-187500.02235174447,605.9334404389192,-187500.02235174447,-187500.02235174447,-187500.02235174447,-187500.02235174447,-187500.02235174447,1730244253.1098137,1730244252.6809378,6000
1165.3752524107997,-187500.02235174447,632.2861471517261,-187500.02235174447,-187500.02235174447,-187500.02235174447,-187500.02235174447,-187500.02235174447,1730244253.113683,1730244252.6809378,6000
1182.004950285548,-187500.02235174447,571.1317743220061,-187500.02235174447,-187500.02235174447,-187500.02235174447,-187500.02235174447,-187500.02235174447,1730244253.117798,1730244252.6809378,6000
1221.5451862269863,-187500.02235174447,554.971463080819,-187500.02235174447,-187500.02235174447,-187500.02235174447,-187500.02235174447,-187500.02235174447,1730244253.121797,1730244252.6809378,6000
1222.7298286831176,-187500.02235174447,615.2317661323269,-187500.02235174447,-187500.02235174447,-187500.02235174447,-187500.02235174447,-187500.02235174447,1730244253.125872,1730244252.6809378,6000
1130.7300485050737,-187500.02235174447,614.9411934544079,-187500.02235174447,-187500.02235174447,-187500.02235174447,-187500.02235174447,-187500.02235174447,1730244253.1288235,1730244252.6809378,6000
1118.6601064992078,-187500.02235174447,531.5915383805678,-187500.02235174447,-187500.02235174447,-187500.02235174447,-187500.02235174447,-187500.02235174447,1730244253.1327407,1730244252.6809378,6000
1176.1934967271682,-187500.02235174447,537.134771005484,-187500.02235174447,-187500.02235174447,-187500.02235174447,-187500.02235174447,-187500.02235174447,1730244253.1377428,1730244252.6809378,6000
1154.6687668167076,-187500.02235174447,592.0083036432628,-187500.02235174447,-187500.02235174447,-187500.02235174447,-187500.02235174447,-187500.02235174447,1730244253.1418493,1730244252.6809378,6000
1125.9244234471826,-187500.02235174447,621.1773301574386,-187500.02235174447,-187500.02235174447,-187500.02235174447,-187500.02235174447,-187500.02235174447,1730244253.1458263,1730244252.6809378,6000
1074.78363213344,-187500.02235174447,568.6283789430116,-187500.02235174447,-187500.02235174447,-187500.02235174447,-187500.02235174447,-187500.02235174447,1730244253.149825,1730244252.6809378,6000
1099.772882434473,-187500.02235174447,541.1133815185286,-187500.02235174447,-187500.02235174447,-187500.02235174447,-187500.02235174447,-187500.02235174447,1730244253.1529162,1730244252.6809378,6000
1205.80955813045,-187500.02235174447,584.2075448283607,-187500.02235174447,-187500.02235174447,-187500.02235174447,-187500.02235174447,-187500.02235174447,1730244253.15677,1730244252.6809378,6000
1182.943723552671,-187500.02235174447,634.8118942751759,-187500.02235174447,-187500.02235174447,-187500.02235174447,-187500.02235174447,-187500.02235174447,1730244253.1608932,1730244252.6809378,6000
1127.846673470339,-187500.02235174447,605.4640538053577,-187500.02235174447,-187500.02235174447,-187500.02235174447,-187500.02235174447,-187500.02235174447,1730244253.1648884,1730244252.6809378,6000
1132.9652229506044,-187500.02235174447,553.5185996912242,-187500.02235174447,-187500.02235174447,-187500.02235174447,-187500.02235174447,-187500.02235174447,1730244253.1699655,1730244252.6809378,6000
1115.195586108635,-187500.02235174447,601.1054636365728,-187500.02235174447,-187500.02235174447,-187500.02235174447,-187500.02235174447,-187500.02235174447,1730244253.1738443,1730244252.6809378,6000
1156.3451476508556,-187500.02235174447,611.163748641461,-187500.02235174447,-187500.02235174447,-187500.02235174447,-187500.02235174447,-187500.02235174447,1730244253.1780615,1730244252.6809378,6000
1211.3080872664557,-187500.02235174447,586.8897541629975,-187500.02235174447,-187500.02235174447,-187500.02235174447,-187500.02235174447,-187500.02235174447,1730244253.1817613,1730244252.6809378,6000
1194.454871947154,-187500.02235174447,545.8295995985985,-187500.02235174447,-187500.02235174447,-187500.02235174447,-187500.02235174447,-187500.02235174447,1730244253.186067,1730244252.6809378,6000
1109.4511877836214,-187500.02235174447,584.2522483172713,-187500.02235174447,-187500.02235174447,-187500.02235174447,-187500.02235174447,-187500.02235174447,1730244253.188989,1730244252.6809378,6000
1081.1315275587474,-187500.02235174447,673.7262813718655,-187500.02235174447,-187500.02235174447,-187500.02235174447,-187500.02235174447,-187500.02235174447,1730244253.194002,1730244252.6809378,6000
1079.2316292800465,-187500.02235174447,595.7410449672991,-187500.02235174447,-187500.02235174447,-187500.02235174447,-187500.02235174447,-187500.02235174447,1730244253.1979434,1730244252.6809378,6000
1068.3239779858563,-187500.02235174447,467.8220114495769,-187500.02235174447,-187500.02235174447,-187500.02235174447,-187500.02235174447,-187500.02235174447,1730244253.2019162,1730244252.6809378,6000
1227.356639785366,-187500.02235174447,491.5819158055682,-187500.02235174447,-187500.02235174447,-187500.02235174447,-187500.02235174447,-187500.02235174447,1730244253.206024,1730244252.6809378,6000
1230.552939242475,-187500.02235174447,681.3258744866699,-187500.02235174447,-187500.02235174447,-187500.02235174447,-187500.02235174447,-187500.02235174447,1730244253.2091715,1730244252.6809378,6000
1159.2285226855902,-187500.02235174447,659.1752957314606,-187500.02235174447,-187500.02235174447,-187500.02235174447,-187500.02235174447,-187500.02235174447,1730244253.2130651,1730244252.6809378,6000
1186.8776305768051,-187500.02235174447,525.9365470333752,-187500.02235174447,-187500.02235174447,-187500.02235174447,-187500.02235174447,-187500.02235174447,1730244253.2169735,1730244252.6809378,6000
1196.1312527813022,-187500.02235174447,553.4962479467688,-187500.02235174447,-187500.02235174447,-187500.02235174447,-187500.02235174447,-187500.02235174447,1730244253.2212007,1730244252.6809378,6000
1120.5823565223643,-187500.02235174447,731.0361541552728,-187500.02235174447,-187500.02235174447,-187500.02235174447,-187500.02235174447,-187500.02235174447,1730244253.226143,1730244252.6809378,6000
1044.139390485214,-187500.02235174447,664.6514731230108,-187500.02235174447,-187500.02235174447,-187500.02235174447,-187500.02235174447,-187500.02235174447,1730244253.2301302,1730244252.6809378,6000
1100.2199173235797,-187500.02235174447,553.8091723691431,-187500.02235174447,-187500.02235174447,-187500.02235174447,-187500.02235174447,-187500.02235174447,1730244253.2329931,1730244252.6809378,6000
1100.0858068568475,-187500.02235174447,588.8343559306093,-187500.02235174447,-187500.02235174447,-187500.02235174447,-187500.02235174447,-187500.02235174447,1730244253.2371347,1730244252.6809378,6000
1120.5153012889984,-187500.02235174447,534.9666517933192,-187500.02235174447,-187500.02235174447,-187500.02235174447,-187500.02235174447,-187500.02235174447,1730244253.240873,1730244252.6809378,6000
1294.2777626845557,-187500.02235174447,545.7625443652325,-187500.02235174447,-187500.02235174447,-187500.02235174447,-187500.02235174447,-187500.02235174447,1730244253.2450893,1730244252.6809378,6000
1267.3439106159103,-187500.02235174447,569.0307103432071,-187500.02235174447,-187500.02235174447,-187500.02235174447,-187500.02235174447,-187500.02235174447,1730244253.248943,1730244252.6809378,6000
1190.722130623118,-187500.02235174447,554.3009107471598,-187500.02235174447,-187500.02235174447,-187500.02235174447,-187500.02235174447,-187500.02235174447,1730244253.254052,1730244252.6809378,6000
1225.5014449955756,-187500.02235174447,588.2532105747713,-187500.02235174447,-187500.02235174447,-187500.02235174447,-187500.02235174447,-187500.02235174447,1730244253.257918,1730244252.6809378,6000
1174.561819381931,-187500.02235174447,673.6592261384995,-187500.02235174447,-187500.02235174447,-187500.02235174447,-187500.02235174447,-187500.02235174447,1730244253.2611215,1730244252.6809378,6000
1028.6049280887758,-187500.02235174447,681.4152814644912,-187500.02235174447,-187500.02235174447,-187500.02235174447,-187500.02235174447,-187500.02235174447,1730244253.2652187,1730244252.6809378,6000
1081.9585421035936,-187500.02235174447,525.4001051664478,-187500.02235174447,-187500.02235174447,-187500.02235174447,-187500.02235174447,-187500.02235174447,1730244253.2690089,1730244252.6809378,6000
1228.518930497042,-187500.02235174447,523.2096342098278,-187500.02235174447,-187500.02235174447,-187500.02235174447,-187500.02235174447,-187500.02235174447,1730244253.2731323,1730244252.6809378,6000
1147.0244702129926,-187500.02235174447,677.5707814181783,-187500.02235174447,-187500.02235174447,-187500.02235174447,-187500.02235174447,-187500.02235174447,1730244253.2790751,1730244252.6809378,6000
1054.6447103792084,-187500.02235174447,681.9740750758738,-187500.02235174447,-187500.02235174447,-187500.02235174447,-187500.02235174447,-187500.02235174447,1730244253.2819772,1730244252.6809378,6000
1069.0615855528815,-187500.02235174447,612.9518881978855,-187500.02235174447,-187500.02235174447,-187500.02235174447,-187500.02235174447,-187500.02235174447,1730244253.2860916,1730244252.6809378,6000
1229.7706281865392,-187500.02235174447,550.3223002341152,-187500.02235174447,-187500.02235174447,-187500.02235174447,-187500.02235174447,-187500.02235174447,1730244253.289044,1730244252.6809378,6000
1355.7450599366498,-187500.02235174447,540.8675123295203,-187500.02235174447,-187500.02235174447,-187500.02235174447,-187500.02235174447,-187500.02235174447,1730244253.2930908,1730244252.6809378,6000
1247.5626167729638,-187500.02235174447,589.102576864073,-187500.02235174447,-187500.02235174447,-187500.02235174447,-187500.02235174447,-187500.02235174447,1730244253.2970045,1730244252.6809378,6000
1120.560004777909,-187500.02235174447,644.2666821797708,-187500.02235174447,-187500.02235174447,-187500.02235174447,-187500.02235174447,-187500.02235174447,1730244253.301097,1730244252.6809378,6000
1092.6426759532303,-187500.02235174447,621.3337923686257,-187500.02235174447,-187500.02235174447,-187500.02235174447,-187500.02235174447,-187500.02235174447,1730244253.3051553,1730244252.6809378,6000
1113.2956878299342,-187500.02235174447,582.0394256161959,-187500.02235174447,-187500.02235174447,-187500.02235174447,-187500.02235174447,-187500.02235174447,1730244253.3091528,1730244252.6809378,6000
1154.6017115833415,-187500.02235174447,527.5458726341573,-187500.02235174447,-187500.02235174447,-187500.02235174447,-187500.02235174447,-187500.02235174447,1730244253.3141348,1730244252.6809378,6000
1234.19627358869,-187500.02235174447,555.8655328590313,-187500.02235174447,-187500.02235174447,-187500.02235174447,-187500.02235174447,-187500.02235174447,1730244253.317114,1730244252.6809378,6000
1165.464659388621,-187500.02235174447,661.2987114547147,-187500.02235174447,-187500.02235174447,-187500.02235174447,-187500.02235174447,-187500.02235174447,1730244253.3211443,1730244252.6809378,6000
1100.622248723775,-187500.02235174447,663.5338859002454,-187500.02235174447,-187500.02235174447,-187500.02235174447,-187500.02235174447,-187500.02235174447,1730244253.3250391,1730244252.6809378,6000
1157.9544732516376,-187500.02235174447,648.357051415092,-187500.02235174447,-187500.02235174447,-187500.02235174447,-187500.02235174447,-187500.02235174447,1730244253.3291533,1730244252.6809378,6000
1095.2131265655908,-187500.02235174447,597.3503705680813,-187500.02235174447,-187500.02235174447,-187500.02235174447,-187500.02235174447,-187500.02235174447,1730244253.3330543,1730244252.6809378,6000
1098.4988330005208,-187500.02235174447,593.9305536664193,-187500.02235174447,-187500.02235174447,-187500.02235174447,-187500.02235174447,-187500.02235174447,1730244253.3371167,1730244252.6809378,6000
1160.9272552641935,-187500.02235174447,661.6563393659997,-187500.02235174447,-187500.02235174447,-187500.02235174447,-187500.02235174447,-187500.02235174447,1730244253.3410635,1730244252.6809378,6000
1147.426801613188,-187500.02235174447,628.1287226830391,-187500.02235174447,-187500.02235174447,-187500.02235174447,-187500.02235174447,-187500.02235174447,1730244253.344194,1730244252.6809378,6000
1217.2536512915674,-187500.02235174447,527.4117621674254,-187500.02235174447,-187500.02235174447,-187500.02235174447,-187500.02235174447,-187500.02235174447,1730244253.3491042,1730244252.6809378,6000
1206.8377383753943,-187500.02235174447,540.9345675628862,-187500.02235174447,-187500.02235174447,-187500.02235174447,-187500.02235174447,-187500.02235174447,1730244253.353201,1730244252.6809378,6000
1239.3818783023214,-187500.02235174447,578.9325331369082,-187500.02235174447,-187500.02235174447,-187500.02235174447,-187500.02235174447,-187500.02235174447,1730244253.357021,1730244252.6809378,6000
1178.495726406065,-187500.02235174447,613.9800684428297,-187500.02235174447,-187500.02235174447,-187500.02235174447,-187500.02235174447,-187500.02235174447,1730244253.3612237,1730244252.6809378,6000
1136.8320747413725,-187500.02235174447,630.453304106391,-187500.02235174447,-187500.02235174447,-187500.02235174447,-187500.02235174447,-187500.02235174447,1730244253.365041,1730244252.6809378,6000
1311.555661148508,-187500.02235174447,537.4476954278583,-187500.02235174447,-187500.02235174447,-187500.02235174447,-187500.02235174447,-187500.02235174447,1730244253.3692691,1730244252.6809378,6000
1187.5034794215535,-187500.02235174447,617.8692719780531,-187500.02235174447,-187500.02235174447,-187500.02235174447,-187500.02235174447,-187500.02235174447,1730244253.3720765,1730244252.6809378,6000
994.9655526835386,-187500.02235174447,715.2334708253707,-187500.02235174447,-187500.02235174447,-187500.02235174447,-187500.02235174447,-187500.02235174447,1730244253.377287,1730244252.6809378,6000
1078.0693385683703,-187500.02235174447,598.0879781351064,-187500.02235174447,-187500.02235174447,-187500.02235174447,-187500.02235174447,-187500.02235174447,1730244253.3812664,1730244252.6809378,6000
1119.107141388314,-187500.02235174447,562.101669562062,-187500.02235174447,-187500.02235174447,-187500.02235174447,-187500.02235174447,-187500.02235174447,1730244253.3852668,1730244252.6809378,6000
1167.5657233674197,-187500.02235174447,625.6700307929553,-187500.02235174447,-187500.02235174447,-187500.02235174447,-187500.02235174447,-187500.02235174447,1730244253.3891933,1730244252.6809378,6000
1099.3929027787333,-187500.02235174447,659.7340893428433,-187500.02235174447,-187500.02235174447,-187500.02235174447,-187500.02235174447,-187500.02235174447,1730244253.393232,1730244252.6809378,6000
1083.366702004278,-187500.02235174447,595.2269548448271,-187500.02235174447,-187500.02235174447,-187500.02235174447,-187500.02235174447,-187500.02235174447,1730244253.3971484,1730244252.6809378,6000
1118.2130716101017,-187500.02235174447,592.9470769103857,-187500.02235174447,-187500.02235174447,-187500.02235174447,-187500.02235174447,-187500.02235174447,1730244253.4004047,1730244252.6809378,6000
1230.9999741315812,-187500.02235174447,610.5155480522571,-187500.02235174447,-187500.02235174447,-187500.02235174447,-187500.02235174447,-187500.02235174447,1730244253.4042196,1730244252.6809378,6000
1298.3681319198768,-187500.02235174447,674.7768133612649,-187500.02235174447,-187500.02235174447,-187500.02235174447,-187500.02235174447,-187500.02235174447,1730244253.409351,1730244252.6809378,6000
1111.5969552513309,-187500.02235174447,652.4027171615026,-187500.02235174447,-187500.02235174447,-187500.02235174447,-187500.02235174447,-187500.02235174447,1730244253.4133244,1730244252.6809378,6000
1139.916615476205,-187500.02235174447,535.5254454047019,-187500.02235174447,-187500.02235174447,-187500.02235174447,-187500.02235174447,-187500.02235174447,1730244253.4173756,1730244252.6809378,6000
1171.9913687695705,-187500.02235174447,537.7382681057774,-187500.02235174447,-187500.02235174447,-187500.02235174447,-187500.02235174447,-187500.02235174447,1730244253.4214067,1730244252.6809378,6000
1217.6783344362182,-187500.02235174447,669.5018016698125,-187500.02235174447,-187500.02235174447,-187500.02235174447,-187500.02235174447,-187500.02235174447,1730244253.4253523,1730244252.6809378,6000
1175.0982612488583,-187500.02235174447,660.806973076698,-187500.02235174447,-187500.02235174447,-187500.02235174447,-187500.02235174447,-187500.02235174447,1730244253.4283464,1730244252.6809378,6000
1129.0536676709255,-187500.02235174447,549.2494165002604,-187500.02235174447,-187500.02235174447,-187500.02235174447,-187500.02235174447,-187500.02235174447,1730244253.4321847,1730244252.6809378,6000
1157.2839209179783,-187500.02235174447,571.1764778109167,-187500.02235174447,-187500.02235174447,-187500.02235174447,-187500.02235174447,-187500.02235174447,1730244253.4374297,1730244252.6809378,6000
1198.2099650156458,-187500.02235174447,658.3035776977036,-187500.02235174447,-187500.02235174447,-187500.02235174447,-187500.02235174447,-187500.02235174447,1730244253.4412532,1730244252.6809378,6000
1208.0670843204362,-187500.02235174447,636.6670890649664,-187500.02235174447,-187500.02235174447,-187500.02235174447,-187500.02235174447,-187500.02235174447,1730244253.445428,1730244252.6809378,6000
1122.45990305661,-187500.02235174447,568.4272132429139,-187500.02235174447,-187500.02235174447,-187500.02235174447,-187500.02235174447,-187500.02235174447,1730244253.4492023,1730244252.6809378,6000
1090.0945770853257,-187500.02235174447,609.9344026964192,-187500.02235174447,-187500.02235174447,-187500.02235174447,-187500.02235174447,-187500.02235174447,1730244253.4524229,1730244252.6809378,6000
1144.0963916893472,-187500.02235174447,698.1120345726055,-187500.02235174447,-187500.02235174447,-187500.02235174447,-187500.02235174447,-187500.02235174447,1730244253.4564202,1730244252.6809378,6000
1245.2827388385224,-187500.02235174447,585.392187284492,-187500.02235174447,-187500.02235174447,-187500.02235174447,-187500.02235174447,-187500.02235174447,1730244253.4602916,1730244252.6809378,6000
1293.6742655842622,-187500.02235174447,532.10562850304,-187500.02235174447,-187500.02235174447,-187500.02235174447,-187500.02235174447,-187500.02235174447,1730244253.4652328,1730244252.6809378,6000
1135.602728796331,-187500.02235174447,672.9663220603851,-187500.02235174447,-187500.02235174447,-187500.02235174447,-187500.02235174447,-187500.02235174447,1730244253.4692528,1730244252.6809378,6000
957.6157876987204,-187500.02235174447,719.7485232053427,-187500.02235174447,-187500.02235174447,-187500.02235174447,-187500.02235174447,-187500.02235174447,1730244253.473288,1730244252.6809378,6000
1047.6039108757868,-187500.02235174447,662.3045399552036,-187500.02235174447,-187500.02235174447,-187500.02235174447,-187500.02235174447,-187500.02235174447,1730244253.4772823,1730244252.6809378,6000
1162.5812843538863,-187500.02235174447,539.0793727730958,-187500.02235174447,-187500.02235174447,-187500.02235174447,-187500.02235174447,-187500.02235174447,1730244253.4803078,1730244252.6809378,6000
1260.2807593680334,-187500.02235174447,534.6984308598555,-187500.02235174447,-187500.02235174447,-187500.02235174447,-187500.02235174447,-187500.02235174447,1730244253.4844017,1730244252.6809378,6000
1172.751328081051,-187500.02235174447,615.5223388102459,-187500.02235174447,-187500.02235174447,-187500.02235174447,-187500.02235174447,-187500.02235174447,1730244253.4883113,1730244252.6809378,6000
1102.5668504913867,-187500.02235174447,654.0790979956506,-187500.02235174447,-187500.02235174447,-187500.02235174447,-187500.02235174447,-187500.02235174447,1730244253.495054,1730244252.6809378,6000
1174.2935984484673,-187500.02235174447,646.8371327921311,-187500.02235174447,-187500.02235174447,-187500.02235174447,-187500.02235174447,-187500.02235174447,1730244253.4973917,1730244252.6809378,6000
1225.3002792954778,-187500.02235174447,596.6574664899667,-187500.02235174447,-187500.02235174447,-187500.02235174447,-187500.02235174447,-187500.02235174447,1730244253.50168,1730244252.6809378,6000
1190.655075389752,-187500.02235174447,646.5242083697568,-187500.02235174447,-187500.02235174447,-187500.02235174447,-187500.02235174447,-187500.02235174447,1730244253.5047276,1730244252.6809378,6000
1195.7959766144725,-187500.02235174447,681.9964268203291,-187500.02235174447,-187500.02235174447,-187500.02235174447,-187500.02235174447,-187500.02235174447,1730244253.508557,1730244252.6809378,6000
1094.2743532984678,-187500.02235174447,644.289033924226,-187500.02235174447,-187500.02235174447,-187500.02235174447,-187500.02235174447,-187500.02235174447,1730244253.5129676,1730244252.6809378,6000
1091.7486061750185,-187500.02235174447,597.0150944012516,-187500.02235174447,-187500.02235174447,-187500.02235174447,-187500.02235174447,-187500.02235174447,1730244253.5163755,1730244252.6809378,6000
1101.851594668817,-187500.02235174447,593.6399809885003,-187500.02235174447,-187500.02235174447,-187500.02235174447,-187500.02235174447,-187500.02235174447,1730244253.520435,1730244252.6809378,6000
1190.4986131785647,-187500.02235174447,633.6272518190447,-187500.02235174447,-187500.02235174447,-187500.02235174447,-187500.02235174447,-187500.02235174447,1730244253.52542,1730244252.6809378,6000
1199.841642360883,-187500.02235174447,692.0547118252173,-187500.02235174447,-187500.02235174447,-187500.02235174447,-187500.02235174447,-187500.02235174447,1730244253.5295112,1730244252.6809378,6000
1175.589999626875,-187500.02235174447,622.4737313358464,-187500.02235174447,-187500.02235174447,-187500.02235174447,-187500.02235174447,-187500.02235174447,1730244253.5323265,1730244252.6809378,6000
1112.3569145628112,-187500.02235174447,611.1190451525504,-187500.02235174447,-187500.02235174447,-187500.02235174447,-187500.02235174447,-187500.02235174447,1730244253.5365212,1730244252.6809378,6000
1069.106289041792,-187500.02235174447,644.1772752019496,-187500.02235174447,-187500.02235174447,-187500.02235174447,-187500.02235174447,-187500.02235174447,1730244253.540421,1730244252.6809378,6000
1149.7960865254506,-187500.02235174447,610.0908649076063,-187500.02235174447,-187500.02235174447,-187500.02235174447,-187500.02235174447,-187500.02235174447,1730244253.5445583,1730244252.6809378,6000
1247.070878394947,-187500.02235174447,563.3757189960145,-187500.02235174447,-187500.02235174447,-187500.02235174447,-187500.02235174447,-187500.02235174447,1730244253.548355,1730244252.6809378,6000
1115.4191035531885,-187500.02235174447,626.0276587042403,-187500.02235174447,-187500.02235174447,-187500.02235174447,-187500.02235174447,-187500.02235174447,1730244253.5535717,1730244252.6809378,6000
1049.6826231101302,-187500.02235174447,693.6863891704547,-187500.02235174447,-187500.02235174447,-187500.02235174447,-187500.02235174447,-187500.02235174447,1730244253.5573795,1730244252.6809378,6000
1171.0749472469029,-187500.02235174447,639.1034292105949,-187500.02235174447,-187500.02235174447,-187500.02235174447,-187500.02235174447,-187500.02235174447,1730244253.5605502,1730244252.6809378,6000
1148.8126097694171,-187500.02235174447,675.0450342947286,-187500.02235174447,-187500.02235174447,-187500.02235174447,-187500.02235174447,-187500.02235174447,1730244253.5645957,1730244252.6809378,6000
1147.203284168635,-187500.02235174447,612.5048533087794,-187500.02235174447,-187500.02235174447,-187500.02235174447,-187500.02235174447,-187500.02235174447,1730244253.568497,1730244252.6809378,6000
1082.115004314781,-187500.02235174447,595.4281205449248,-187500.02235174447,-187500.02235174447,-187500.02235174447,-187500.02235174447,-187500.02235174447,1730244253.5725224,1730244252.6809378,6000
1168.3033309344448,-187500.02235174447,614.5165103097571,-187500.02235174447,-187500.02235174447,-187500.02235174447,-187500.02235174447,-187500.02235174447,1730244253.5766168,1730244252.6809378,6000
1180.1274037513024,-187500.02235174447,649.7205078268657,-187500.02235174447,-187500.02235174447,-187500.02235174447,-187500.02235174447,-187500.02235174447,1730244253.5815127,1730244252.6809378,6000
1076.4153094786775,-187500.02235174447,662.6398161220332,-187500.02235174447,-187500.02235174447,-187500.02235174447,-187500.02235174447,-187500.02235174447,1730244253.5848536,1730244252.6809378,6000
1038.3502886712895,-187500.02235174447,685.483298955357,-187500.02235174447,-187500.02235174447,-187500.02235174447,-187500.02235174447,-187500.02235174447,1730244253.5887012,1730244252.6809378,6000
1118.7718652214844,-187500.02235174447,694.3122380152033,-187500.02235174447,-187500.02235174447,-187500.02235174447,-187500.02235174447,-187500.02235174447,1730244253.5928175,1730244252.6809378,6000
1166.939874522671,-187500.02235174447,624.0160017032625,-187500.02235174447,-187500.02235174447,-187500.02235174447,-187500.02235174447,-187500.02235174447,1730244253.5967302,1730244252.6809378,6000
1142.040031199459,-187500.02235174447,576.5408964801903,-187500.02235174447,-187500.02235174447,-187500.02235174447,-187500.02235174447,-187500.02235174447,1730244253.6012125,1730244252.6809378,6000
1125.8126647249062,-187500.02235174447,627.7710947717542,-187500.02235174447,-187500.02235174447,-187500.02235174447,-187500.02235174447,-187500.02235174447,1730244253.604817,1730244252.6809378,6000
1160.6813860751852,-187500.02235174447,659.0858887536393,-187500.02235174447,-187500.02235174447,-187500.02235174447,-187500.02235174447,-187500.02235174447,1730244253.6100688,1730244252.6809378,6000
1120.6270600112748,-187500.02235174447,651.9556822723964,-187500.02235174447,-187500.02235174447,-187500.02235174447,-187500.02235174447,-187500.02235174447,1730244253.613082,1730244252.6809378,6000
1112.0216383959817,-187500.02235174447,632.9566994853855,-187500.02235174447,-187500.02235174447,-187500.02235174447,-187500.02235174447,-187500.02235174447,1730244253.6155477,1730244252.6809378,6000
1103.0362371249482,-187500.02235174447,636.6223855760558,-187500.02235174447,-187500.02235174447,-187500.02235174447,-187500.02235174447,-187500.02235174447,1730244253.6207323,1730244252.6809378,6000
1136.362688107811,-187500.02235174447,666.2160952348823,-187500.02235174447,-187500.02235174447,-187500.02235174447,-187500.02235174447,-187500.02235174447,1730244253.6245449,1730244252.6809378,6000
1135.3568596073223,-187500.02235174447,653.5203043842679,-187500.02235174447,-187500.02235174447,-187500.02235174447,-187500.02235174447,-187500.02235174447,1730244253.628713,1730244252.6809378,6000
1138.2178828976016,-187500.02235174447,580.0948238485842,-187500.02235174447,-187500.02235174447,-187500.02235174447,-187500.02235174447,-187500.02235174447,1730244253.632646,1730244252.6809378,6000
1169.622083857308,-187500.02235174447,579.6254372150228,-187500.02235174447,-187500.02235174447,-187500.02235174447,-187500.02235174447,-187500.02235174447,1730244253.6382003,1730244252.6809378,6000
1134.8874729737609,-187500.02235174447,671.6028656486113,-187500.02235174447,-187500.02235174447,-187500.02235174447,-187500.02235174447,-187500.02235174447,1730244253.6406229,1730244252.6809378,6000
1069.3298064863452,-187500.02235174447,681.3035227422146,-187500.02235174447,-187500.02235174447,-187500.02235174447,-187500.02235174447,-187500.02235174447,1730244253.6440516,1730244252.6809378,6000
1093.69320794263,-187500.02235174447,575.1327365795061,-187500.02235174447,-187500.02235174447,-187500.02235174447,-187500.02235174447,-187500.02235174447,1730244253.6485577,1730244252.6809378,6000
1123.0186966679928,-187500.02235174447,611.6331352750225,-187500.02235174447,-187500.02235174447,-187500.02235174447,-187500.02235174447,-187500.02235174447,1730244253.6531396,1730244252.6809378,6000
1122.6834205011633,-187500.02235174447,673.3686534605806,-187500.02235174447,-187500.02235174447,-187500.02235174447,-187500.02235174447,-187500.02235174447,1730244253.6566024,1730244252.6809378,6000
1148.3208713914005,-187500.02235174447,668.7865458472427,-187500.02235174447,-187500.02235174447,-187500.02235174447,-187500.02235174447,-187500.02235174447,1730244253.660874,1730244252.6809378,6000
1170.4714501466096,-187500.02235174447,587.2250303298272,-187500.02235174447,-187500.02235174447,-187500.02235174447,-187500.02235174447,-187500.02235174447,1730244253.6650133,1730244252.6809378,6000
1069.396861719711,-187500.02235174447,672.8098598491979,-187500.02235174447,-187500.02235174447,-187500.02235174447,-187500.02235174447,-187500.02235174447,1730244253.6686983,1730244252.6809378,6000
1034.0364019914152,-187500.02235174447,664.159734744994,-187500.02235174447,-187500.02235174447,-187500.02235174447,-187500.02235174447,-187500.02235174447,1730244253.6736522,1730244252.6809378,6000
1101.337504546345,-187500.02235174447,646.5689118586674,-187500.02235174447,-187500.02235174447,-187500.02235174447,-187500.02235174447,-187500.02235174447,1730244253.677138,1730244252.6809378,6000
1112.1333971182582,-187500.02235174447,608.906222451475,-187500.02235174447,-187500.02235174447,-187500.02235174447,-187500.02235174447,-187500.02235174447,1730244253.6812716,1730244252.6809378,6000
1090.161632318691,-187500.02235174447,616.55051905519,-187500.02235174447,-187500.02235174447,-187500.02235174447,-187500.02235174447,-187500.02235174447,1730244253.6852567,1730244252.6809378,6000
1114.6367924972526,-187500.02235174447,638.4775803658463,-187500.02235174447,-187500.02235174447,-187500.02235174447,-187500.02235174447,-187500.02235174447,1730244253.6887536,1730244252.6809378,6000
1144.7669440230063,-187500.02235174447,664.6514731230108,-187500.02235174447,-187500.02235174447,-187500.02235174447,-187500.02235174447,-187500.02235174447,1730244253.6929157,1730244252.6809378,6000
1094.3861120207443,-187500.02235174447,645.9207112694635,-187500.02235174447,-187500.02235174447,-187500.02235174447,-187500.02235174447,-187500.02235174447,1730244253.6968582,1730244252.6809378,6000
1108.98180115006,-187500.02235174447,613.5106818092682,-187500.02235174447,-187500.02235174447,-187500.02235174447,-187500.02235174447,-187500.02235174447,1730244253.6996384,1730244252.6809378,6000
1103.5726789918756,-187500.02235174447,609.5320712962236,-187500.02235174447,-187500.02235174447,-187500.02235174447,-187500.02235174447,-187500.02235174447,1730244253.7041953,1730244252.6809378,6000
1194.298409735967,-187500.02235174447,636.4435716204133,-187500.02235174447,-187500.02235174447,-187500.02235174447,-187500.02235174447,-187500.02235174447,1730244253.7087443,1730244252.6809378,6000
1165.03997624397,-187500.02235174447,657.8341910641421,-187500.02235174447,-187500.02235174447,-187500.02235174447,-187500.02235174447,-187500.02235174447,1730244253.713261,1730244252.6809378,6000
1083.1208328152698,-187500.02235174447,645.004289746796,-187500.02235174447,-187500.02235174447,-187500.02235174447,-187500.02235174447,-187500.02235174447,1730244253.7166772,1730244252.6809378,6000
1076.527068200954,-187500.02235174447,662.7068713553991,-187500.02235174447,-187500.02235174447,-187500.02235174447,-187500.02235174447,-187500.02235174447,1730244253.7202125,1730244252.6809378,6000
1073.8001553774066,-187500.02235174447,674.0839092831504,-187500.02235174447,-187500.02235174447,-187500.02235174447,-187500.02235174447,-187500.02235174447,1730244253.7237022,1730244252.6809378,6000
1115.0838273863587,-187500.02235174447,684.321008243681,-187500.02235174447,-187500.02235174447,-187500.02235174447,-187500.02235174447,-187500.02235174447,1730244253.7277772,1730244252.6809378,6000
1166.6716535892074,-187500.02235174447,603.7653212267544,-187500.02235174447,-187500.02235174447,-187500.02235174447,-187500.02235174447,-187500.02235174447,1730244253.7317026,1730244252.6809378,6000
1142.040031199459,-187500.02235174447,545.0472885426627,-187500.02235174447,-187500.02235174447,-187500.02235174447,-187500.02235174447,-187500.02235174447,1730244253.7370255,1730244252.6809378,6000
1169.1303454792912,-187500.02235174447,615.0753039211397,-187500.02235174447,-187500.02235174447,-187500.02235174447,-187500.02235174447,-187500.02235174447,1730244253.740737,1730244252.6809378,6000
1047.6709661091527,-187500.02235174447,745.7436020068649,-187500.02235174447,-187500.02235174447,-187500.02235174447,-187500.02235174447,-187500.02235174447,1730244253.745247,1730244252.6809378,6000
1038.6408613492083,-187500.02235174447,664.4950109118237,-187500.02235174447,-187500.02235174447,-187500.02235174447,-187500.02235174447,-187500.02235174447,1730244253.747836,1730244252.6809378,6000
1107.8865656717498,-187500.02235174447,596.679818234422,-187500.02235174447,-187500.02235174447,-187500.02235174447,-187500.02235174447,-187500.02235174447,1730244253.751905,1730244252.6809378,6000
1152.4112406267216,-187500.02235174447,651.4415921499243,-187500.02235174447,-187500.02235174447,-187500.02235174447,-187500.02235174447,-187500.02235174447,1730244253.756225,1730244252.6809378,6000
1134.9098247182162,-187500.02235174447,686.5114792003011,-187500.02235174447,-187500.02235174447,-187500.02235174447,-187500.02235174447,-187500.02235174447,1730244253.760355,1730244252.6809378,6000
1085.7583386609958,-187500.02235174447,659.0411852647287,-187500.02235174447,-187500.02235174447,-187500.02235174447,-187500.02235174447,-187500.02235174447,1730244253.765022,1730244252.6809378,6000
1064.121850028259,-187500.02235174447,632.3532023850921,-187500.02235174447,-187500.02235174447,-187500.02235174447,-187500.02235174447,-187500.02235174447,1730244253.7689097,1730244252.6809378,6000
1105.6737429706743,-187500.02235174447,619.7691702567543,-187500.02235174447,-187500.02235174447,-187500.02235174447,-187500.02235174447,-187500.02235174447,1730244253.773018,1730244252.6809378,6000
1172.393700169766,-187500.02235174447,656.8283625636534,-187500.02235174447,-187500.02235174447,-187500.02235174447,-187500.02235174447,-187500.02235174447,1730244253.7761548,1730244252.6809378,6000
1142.84469399985,-187500.02235174447,618.9421557119078,-187500.02235174447,-187500.02235174447,-187500.02235174447,-187500.02235174447,-187500.02235174447,1730244253.7798476,1730244252.6809378,6000
1147.5385603354646,-187500.02235174447,595.0928443780953,-187500.02235174447,-187500.02235174447,-187500.02235174447,-187500.02235174447,-187500.02235174447,1730244253.7838802,1730244252.6809378,6000
1092.5756207198644,-187500.02235174447,657.2530457083042,-187500.02235174447,-187500.02235174447,-187500.02235174447,-187500.02235174447,-187500.02235174447,1730244253.7900655,1730244252.6809378,6000
1057.818658091862,-187500.02235174447,663.2656649667817,-187500.02235174447,-187500.02235174447,-187500.02235174447,-187500.02235174447,-187500.02235174447,1730244253.7929473,1730244252.6809378,6000
1128.5172258039984,-187500.02235174447,660.806973076698,-187500.02235174447,-187500.02235174447,-187500.02235174447,-187500.02235174447,-187500.02235174447,1730244253.7971995,1730244252.6809378,6000
1149.818438269906,-187500.02235174447,623.0772284361396,-187500.02235174447,-187500.02235174447,-187500.02235174447,-187500.02235174447,-187500.02235174447,1730244253.8013391,1730244252.6809378,6000
1068.2792744969458,-187500.02235174447,630.3862488730251,-187500.02235174447,-187500.02235174447,-187500.02235174447,-187500.02235174447,-187500.02235174447,1730244253.8042252,1730244252.6809378,6000
1071.5426291874203,-187500.02235174447,665.3443772011253,-187500.02235174447,-187500.02235174447,-187500.02235174447,-187500.02235174447,-187500.02235174447,1730244253.8077977,1730244252.6809378,6000
1091.8603648972946,-187500.02235174447,679.1577552745051,-187500.02235174447,-187500.02235174447,-187500.02235174447,-187500.02235174447,-187500.02235174447,1730244253.8122032,1730244252.6809378,6000
1126.5726240363863,-187500.02235174447,616.1928911439051,-187500.02235174447,-187500.02235174447,-187500.02235174447,-187500.02235174447,-187500.02235174447,1730244253.8158188,1730244252.6809378,6000
1155.3393191503667,-187500.02235174447,616.2375946328157,-187500.02235174447,-187500.02235174447,-187500.02235174447,-187500.02235174447,-187500.02235174447,1730244253.8211591,1730244252.6809378,6000
1108.2218418385794,-187500.02235174447,653.5650078731785,-187500.02235174447,-187500.02235174447,-187500.02235174447,-187500.02235174447,-187500.02235174447,1730244253.8248646,1730244252.6809378,6000
1108.467711027588,-187500.02235174447,683.3151797431922,-187500.02235174447,-187500.02235174447,-187500.02235174447,-187500.02235174447,-187500.02235174447,1730244253.8282197,1730244252.6809378,6000
1109.8088156949063,-187500.02235174447,611.8343009751202,-187500.02235174447,-187500.02235174447,-187500.02235174447,-187500.02235174447,-187500.02235174447,1730244253.8318288,1730244252.6809378,6000
1138.620214297797,-187500.02235174447,608.4815393068242,-187500.02235174447,-187500.02235174447,-187500.02235174447,-187500.02235174447,-187500.02235174447,1730244253.8361988,1730244252.6809378,6000
1081.623265936764,-187500.02235174447,677.5931331626336,-187500.02235174447,-187500.02235174447,-187500.02235174447,-187500.02235174447,-187500.02235174447,1730244253.840068,1730244252.6809378,6000
1103.7961964364288,-187500.02235174447,659.8458480651198,-187500.02235174447,-187500.02235174447,-187500.02235174447,-187500.02235174447,-187500.02235174447,1730244253.8440585,1730244252.6809378,6000
1113.4074465522108,-187500.02235174447,602.9606584263634,-187500.02235174447,-187500.02235174447,-187500.02235174447,-187500.02235174447,-187500.02235174447,1730244253.8480349,1730244252.6809378,6000
1136.2285776410793,-187500.02235174447,592.2094693433606,-187500.02235174447,-187500.02235174447,-187500.02235174447,-187500.02235174447,-187500.02235174447,1730244253.8532093,1730244252.6809378,6000
1154.557008094431,-187500.02235174447,678.934237829952,-187500.02235174447,-187500.02235174447,-187500.02235174447,-187500.02235174447,-187500.02235174447,1730244253.8563273,1730244252.6809378,6000
1106.4113505376995,-187500.02235174447,697.352075261125,-187500.02235174447,-187500.02235174447,-187500.02235174447,-187500.02235174447,-187500.02235174447,1730244253.8601809,1730244252.6809378,6000
1029.0296112334263,-187500.02235174447,626.9440802269078,-187500.02235174447,-187500.02235174447,-187500.02235174447,-187500.02235174447,-187500.02235174447,1730244253.8644724,1730244252.6809378,6000
1067.9887018190268,-187500.02235174447,608.1462631399945,-187500.02235174447,-187500.02235174447,-187500.02235174447,-187500.02235174447,-187500.02235174447,1730244253.868097,1730244252.6809378,6000
1140.073077687392,-187500.02235174447,638.9469669994077,-187500.02235174447,-187500.02235174447,-187500.02235174447,-187500.02235174447,-187500.02235174447,1730244253.8721893,1730244252.6809378,6000
1140.4530573431323,-187500.02235174447,675.223848250371,-187500.02235174447,-187500.02235174447,-187500.02235174447,-187500.02235174447,-187500.02235174447,1730244253.8766077,1730244252.6809378,6000
1094.654332954208,-187500.02235174447,669.7029673699102,-187500.02235174447,-187500.02235174447,-187500.02235174447,-187500.02235174447,-187500.02235174447,1730244253.8812,1730244252.6809378,6000
1051.0237277774488,-187500.02235174447,637.0917722096173,-187500.02235174447,-187500.02235174447,-187500.02235174447,-187500.02235174447,-187500.02235174447,1730244253.8842132,1730244252.6809378,6000
1102.45509176911,-187500.02235174447,605.26288810526,-187500.02235174447,-187500.02235174447,-187500.02235174447,-187500.02235174447,-187500.02235174447,1730244253.88807,1730244252.6809378,6000
1125.723257747085,-187500.02235174447,634.1189901970614,-187500.02235174447,-187500.02235174447,-187500.02235174447,-187500.02235174447,-187500.02235174447,1730244253.8919375,1730244252.6809378,6000
1112.2451558405348,-187500.02235174447,653.2744351952596,-187500.02235174447,-187500.02235174447,-187500.02235174447,-187500.02235174447,-187500.02235174447,1730244253.8965063,1730244252.6809378,6000
1155.495781361554,-187500.02235174447,606.7381032393102,-187500.02235174447,-187500.02235174447,-187500.02235174447,-187500.02235174447,-187500.02235174447,1730244253.9000268,1730244252.6809378,6000
1146.040993456959,-187500.02235174447,652.1791997169495,-187500.02235174447,-187500.02235174447,-187500.02235174447,-187500.02235174447,-187500.02235174447,1730244253.9041994,1730244252.6809378,6000
1079.4104432356887,-187500.02235174447,689.9089443575078,-187500.02235174447,-187500.02235174447,-187500.02235174447,-187500.02235174447,-187500.02235174447,1730244253.9092228,1730244252.6809378,6000
1116.559042520409,-187500.02235174447,661.7904498327315,-187500.02235174447,-187500.02235174447,-187500.02235174447,-187500.02235174447,-187500.02235174447,1730244253.912513,1730244252.6809378,6000
1074.269542010968,-187500.02235174447,609.2862021072152,-187500.02235174447,-187500.02235174447,-187500.02235174447,-187500.02235174447,-187500.02235174447,1730244253.915064,1730244252.6809378,6000
1068.368681474767,-187500.02235174447,608.7050567513772,-187500.02235174447,-187500.02235174447,-187500.02235174447,-187500.02235174447,-187500.02235174447,1730244253.9201896,1730244252.6809378,6000
1118.4812925435654,-187500.02235174447,658.9070747979969,-187500.02235174447,-187500.02235174447,-187500.02235174447,-187500.02235174447,-187500.02235174447,1730244253.9239783,1730244252.6809378,6000
1148.9914237250596,-187500.02235174447,668.1383452580387,-187500.02235174447,-187500.02235174447,-187500.02235174447,-187500.02235174447,-187500.02235174447,1730244253.9281497,1730244252.6809378,6000
1088.172327062169,-187500.02235174447,605.1064258940728,-187500.02235174447,-187500.02235174447,-187500.02235174447,-187500.02235174447,-187500.02235174447,1730244253.9329937,1730244252.6809378,6000
1080.3939199917222,-187500.02235174447,573.9033906344641,-187500.02235174447,-187500.02235174447,-187500.02235174447,-187500.02235174447,-187500.02235174447,1730244253.9365237,1730244252.6809378,6000
1106.2548883265124,-187500.02235174447,660.0693655096728,-187500.02235174447,-187500.02235174447,-187500.02235174447,-187500.02235174447,-187500.02235174447,1730244253.9391823,1730244252.6809378,6000
1101.426911524166,-187500.02235174447,731.706706488932,-187500.02235174447,-187500.02235174447,-187500.02235174447,-187500.02235174447,-187500.02235174447,1730244253.9442115,1730244252.6809378,6000
1058.2433412365128,-187500.02235174447,651.2851299387372,-187500.02235174447,-187500.02235174447,-187500.02235174447,-187500.02235174447,-187500.02235174447,1730244253.948128,1730244252.6809378,6000
1081.2879897699345,-187500.02235174447,594.1540711109724,-187500.02235174447,-187500.02235174447,-187500.02235174447,-187500.02235174447,-187500.02235174447,1730244253.95218,1730244252.6809378,6000
1117.6766297431743,-187500.02235174447,647.9100165259858,-187500.02235174447,-187500.02235174447,-187500.02235174447,-187500.02235174447,-187500.02235174447,1730244253.9580245,1730244252.6809378,6000
1120.202376866624,-187500.02235174447,682.6222756650777,-187500.02235174447,-187500.02235174447,-187500.02235174447,-187500.02235174447,-187500.02235174447,1730244253.9610968,1730244252.6809378,6000
1136.5862055523642,-187500.02235174447,629.6262895615447,-187500.02235174447,-187500.02235174447,-187500.02235174447,-187500.02235174447,-187500.02235174447,1730244253.964311,1730244252.6809378,6000
1135.692135774152,-187500.02235174447,592.6118007435562,-187500.02235174447,-187500.02235174447,-187500.02235174447,-187500.02235174447,-187500.02235174447,1730244253.9672484,1730244252.6809378,6000
1151.3607086373222,-187500.02235174447,639.9751472443518,-187500.02235174447,-187500.02235174447,-187500.02235174447,-187500.02235174447,-187500.02235174447,1730244253.971242,1730244252.6809378,6000
1160.6366825862744,-187500.02235174447,704.5046334868233,-187500.02235174447,-187500.02235174447,-187500.02235174447,-187500.02235174447,-187500.02235174447,1730244253.9762535,1730244252.6809378,6000
1084.0372543379372,-187500.02235174447,663.7126998558879,-187500.02235174447,-187500.02235174447,-187500.02235174447,-187500.02235174447,-187500.02235174447,1730244253.98025,1730244252.6809378,6000
1064.7029953840963,-187500.02235174447,608.392132329003,-187500.02235174447,-187500.02235174447,-187500.02235174447,-187500.02235174447,-187500.02235174447,1730244253.9842534,1730244252.6809378,6000
1074.2471902665127,-187500.02235174447,652.581531117145,-187500.02235174447,-187500.02235174447,-187500.02235174447,-187500.02235174447,-187500.02235174447,1730244253.9882045,1730244252.6809378,6000
1128.740743248551,-187500.02235174447,686.869107111586,-187500.02235174447,-187500.02235174447,-187500.02235174447,-187500.02235174447,-187500.02235174447,1730244253.9922087,1730244252.6809378,6000
1088.172327062169,-187500.02235174447,664.9196940564746,-187500.02235174447,-187500.02235174447,-187500.02235174447,-187500.02235174447,-187500.02235174447,1730244253.995281,1730244252.6809378,6000
1089.5357834739427,-187500.02235174447,614.002420187285,-187500.02235174447,-187500.02235174447,-187500.02235174447,-187500.02235174447,-187500.02235174447,1730244253.9991465,1730244252.6809378,6000
1119.040086154948,-187500.02235174447,649.7205078268657,-187500.02235174447,-187500.02235174447,-187500.02235174447,-187500.02235174447,-187500.02235174447,1730244254.0042655,1730244252.6809378,6000
1131.400600838733,-187500.02235174447,668.9206563139745,-187500.02235174447,-187500.02235174447,-187500.02235174447,-187500.02235174447,-187500.02235174447,1730244254.0081315,1730244252.6809378,6000
1087.0323880949484,-187500.02235174447,670.8652580815861,-187500.02235174447,-187500.02235174447,-187500.02235174447,-187500.02235174447,-187500.02235174447,1730244254.0122993,1730244252.6809378,6000
1089.1781555626578,-187500.02235174447,593.908201921964,-187500.02235174447,-187500.02235174447,-187500.02235174447,-187500.02235174447,-187500.02235174447,1730244254.016128,1730244252.6809378,6000
1110.009981395004,-187500.02235174447,578.9772366258188,-187500.02235174447,-187500.02235174447,-187500.02235174447,-187500.02235174447,-187500.02235174447,1730244254.019322,1730244252.6809378,6000
1115.8884901867498,-187500.02235174447,689.1713367904827,-187500.02235174447,-187500.02235174447,-187500.02235174447,-187500.02235174447,-187500.02235174447,1730244254.0230932,1730244252.6809378,6000
1104.9584871481047,-187500.02235174447,659.1305922425499,-187500.02235174447,-187500.02235174447,-187500.02235174447,-187500.02235174447,-187500.02235174447,1730244254.027158,1730244252.6809378,6000
1091.8603648972946,-187500.02235174447,599.6078967580672,-187500.02235174447,-187500.02235174447,-187500.02235174447,-187500.02235174447,-187500.02235174447,1730244254.03129,1730244252.6809378,6000
1110.009981395004,-187500.02235174447,637.1811791874385,-187500.02235174447,-187500.02235174447,-187500.02235174447,-187500.02235174447,-187500.02235174447,1730244254.036265,1730244252.6809378,6000
1146.4433248571545,-187500.02235174447,663.8691620670751,-187500.02235174447,-187500.02235174447,-187500.02235174447,-187500.02235174447,-187500.02235174447,1730244254.040177,1730244252.6809378,6000
1053.437716178622,-187500.02235174447,670.6864441259437,-187500.02235174447,-187500.02235174447,-187500.02235174447,-187500.02235174447,-187500.02235174447,1730244254.0442665,1730244252.6809378,6000
1048.2297597205354,-187500.02235174447,633.0684582076619,-187500.02235174447,-187500.02235174447,-187500.02235174447,-187500.02235174447,-187500.02235174447,1730244254.0472484,1730244252.6809378,6000
1076.4823647120434,-187500.02235174447,605.7546264832768,-187500.02235174447,-187500.02235174447,-187500.02235174447,-187500.02235174447,-187500.02235174447,1730244254.0513368,1730244252.6809378,6000
1103.080940613859,-187500.02235174447,652.8497520506087,-187500.02235174447,-187500.02235174447,-187500.02235174447,-187500.02235174447,-187500.02235174447,1730244254.0553448,1730244252.6809378,6000
1151.204246426135,-187500.02235174447,685.8409268666419,-187500.02235174447,-187500.02235174447,-187500.02235174447,-187500.02235174447,-187500.02235174447,1730244254.0593867,1730244252.6809378,6000
1152.455944115632,-187500.02235174447,647.4406298924243,-187500.02235174447,-187500.02235174447,-187500.02235174447,-187500.02235174447,-187500.02235174447,1730244254.0645456,1730244252.6809378,6000
1056.0528702798929,-187500.02235174447,637.292937909715,-187500.02235174447,-187500.02235174447,-187500.02235174447,-187500.02235174447,-187500.02235174447,1730244254.0683234,1730244252.6809378,6000
1085.5348212164429,-187500.02235174447,646.7253740698545,-187500.02235174447,-187500.02235174447,-187500.02235174447,-187500.02235174447,-187500.02235174447,1730244254.0716708,1730244252.6809378,6000
1130.1936066381463,-187500.02235174447,670.7982028482203,-187500.02235174447,-187500.02235174447,-187500.02235174447,-187500.02235174447,-187500.02235174447,1730244254.076435,1730244252.6809378,6000
1189.6268951448078,-187500.02235174447,629.6039378170893,-187500.02235174447,-187500.02235174447,-187500.02235174447,-187500.02235174447,-187500.02235174447,1730244254.0805807,1730244252.6809378,6000
1148.1644091802132,-187500.02235174447,604.2347078603158,-187500.02235174447,-187500.02235174447,-187500.02235174447,-187500.02235174447,-187500.02235174447,1730244254.0832703,1730244252.6809378,6000
1080.2151060360798,-187500.02235174447,653.1403247285277,-187500.02235174447,-187500.02235174447,-187500.02235174447,-187500.02235174447,-187500.02235174447,1730244254.0873663,1730244252.6809378,6000
1124.5162635464983,-187500.02235174447,691.2053455359156,-187500.02235174447,-187500.02235174447,-187500.02235174447,-187500.02235174447,-187500.02235174447,1730244254.092513,1730244252.6809378,6000
1075.6329984227418,-187500.02235174447,664.450307422913,-187500.02235174447,-187500.02235174447,-187500.02235174447,-187500.02235174447,-187500.02235174447,1730244254.0968068,1730244252.6809378,6000
1037.7467915709965,-187500.02235174447,601.3066293366707,-187500.02235174447,-187500.02235174447,-187500.02235174447,-187500.02235174447,-187500.02235174447,1730244254.0992634,1730244252.6809378,6000
1072.4143472211776,-187500.02235174447,633.5601965856787,-187500.02235174447,-187500.02235174447,-187500.02235174447,-187500.02235174447,-187500.02235174447,1730244254.1035855,1730244252.6809378,6000
1096.0401411104372,-187500.02235174447,709.9808108783735,-187500.02235174447,-187500.02235174447,-187500.02235174447,-187500.02235174447,-187500.02235174447,1730244254.1072812,1730244252.6809378,6000
1095.079016098859,-187500.02235174447,692.5911536921446,-187500.02235174447,-187500.02235174447,-187500.02235174447,-187500.02235174447,-187500.02235174447,1730244254.1115828,1730244252.6809378,6000
1091.525088730465,-187500.02235174447,622.8313592471313,-187500.02235174447,-187500.02235174447,-187500.02235174447,-187500.02235174447,-187500.02235174447,1730244254.1153495,1730244252.6809378,6000
1115.8884901867498,-187500.02235174447,590.7342542093104,-187500.02235174447,-187500.02235174447,-187500.02235174447,-187500.02235174447,-187500.02235174447,1730244254.1205325,1730244252.6809378,6000
1126.8631967143056,-187500.02235174447,655.2190369628712,-187500.02235174447,-187500.02235174447,-187500.02235174447,-187500.02235174447,-187500.02235174447,1730244254.1254108,1730244252.6809378,6000
1122.7504757345291,-187500.02235174447,683.2704762542816,-187500.02235174447,-187500.02235174447,-187500.02235174447,-187500.02235174447,-187500.02235174447,1730244254.129696,1730244252.6809378,6000
1103.9303069031605,-187500.02235174447,657.387156175036,-187500.02235174447,-187500.02235174447,-187500.02235174447,-187500.02235174447,-187500.02235174447,1730244254.1323593,1730244252.6809378,6000
1106.4784057710656,-187500.02235174447,634.3648593860697,-187500.02235174447,-187500.02235174447,-187500.02235174447,-187500.02235174447,-187500.02235174447,1730244254.1355247,1730244252.6809378,6000
1125.879719958272,-187500.02235174447,656.7836590747427,-187500.02235174447,-187500.02235174447,-187500.02235174447,-187500.02235174447,-187500.02235174447,1730244254.1397429,1730244252.6809378,6000
1125.0527054134257,-187500.02235174447,669.0100632917957,-187500.02235174447,-187500.02235174447,-187500.02235174447,-187500.02235174447,-187500.02235174447,1730244254.1436188,1730244252.6809378,6000
1136.4744468300876,-187500.02235174447,642.8138187901758,-187500.02235174447,-187500.02235174447,-187500.02235174447,-187500.02235174447,-187500.02235174447,1730244254.1476216,1730244252.6809378,6000
1091.7933096639288,-187500.02235174447,630.2968418952039,-187500.02235174447,-187500.02235174447,-187500.02235174447,-187500.02235174447,-187500.02235174447,1730244254.1528676,1730244252.6809378,6000
1071.49792569851,-187500.02235174447,711.8136539237087,-187500.02235174447,-187500.02235174447,-187500.02235174447,-187500.02235174447,-187500.02235174447,1730244254.1557908,1730244252.6809378,6000
1055.2482074795018,-187500.02235174447,714.674677213988,-187500.02235174447,-187500.02235174447,-187500.02235174447,-187500.02235174447,-187500.02235174447,1730244254.1600344,1730244252.6809378,6000
1110.3899610507442,-187500.02235174447,630.520359339757,-187500.02235174447,-187500.02235174447,-187500.02235174447,-187500.02235174447,-187500.02235174447,1730244254.1639972,1730244252.6809378,6000
1126.6173275252972,-187500.02235174447,597.6409432460002,-187500.02235174447,-187500.02235174447,-187500.02235174447,-187500.02235174447,-187500.02235174447,1730244254.1676629,1730244252.6809378,6000
1103.3268098028673,-187500.02235174447,642.7467635568099,-187500.02235174447,-187500.02235174447,-187500.02235174447,-187500.02235174447,-187500.02235174447,1730244254.171872,1730244252.6809378,6000
1090.4522049966104,-187500.02235174447,712.8194824241975,-187500.02235174447,-187500.02235174447,-187500.02235174447,-187500.02235174447,-187500.02235174447,1730244254.1757336,1730244252.6809378,6000
1085.713635172085,-187500.02235174447,700.2354502958597,-187500.02235174447,-187500.02235174447,-187500.02235174447,-187500.02235174447,-187500.02235174447,1730244254.179835,1730244252.6809378,6000
1072.5708094323647,-187500.02235174447,627.4358186049245,-187500.02235174447,-187500.02235174447,-187500.02235174447,-187500.02235174447,-187500.02235174447,1730244254.182468,1730244252.6809378,6000
1095.6825131991525,-187500.02235174447,619.7021150233883,-187500.02235174447,-187500.02235174447,-187500.02235174447,-187500.02235174447,-187500.02235174447,1730244254.1874187,1730244252.6809378,6000
1181.8037845854503,-187500.02235174447,662.4386504219354,-187500.02235174447,-187500.02235174447,-187500.02235174447,-187500.02235174447,-187500.02235174447,1730244254.1914594,1730244252.6809378,6000
1137.815551497406,-187500.02235174447,671.9381418154409,-187500.02235174447,-187500.02235174447,-187500.02235174447,-187500.02235174447,-187500.02235174447,1730244254.1958473,1730244252.6809378,6000
1077.2646757679793,-187500.02235174447,618.875100478542,-187500.02235174447,-187500.02235174447,-187500.02235174447,-187500.02235174447,-187500.02235174447,1730244254.1994066,1730244252.6809378,6000
1067.49696344101,-187500.02235174447,635.9741849868518,-187500.02235174447,-187500.02235174447,-187500.02235174447,-187500.02235174447,-187500.02235174447,1730244254.2051718,1730244252.6809378,6000
1109.9205744171827,-187500.02235174447,684.4327669659575,-187500.02235174447,-187500.02235174447,-187500.02235174447,-187500.02235174447,-187500.02235174447,1730244254.2075331,1730244252.6809378,6000
1147.717374291107,-187500.02235174447,673.5251156717677,-187500.02235174447,-187500.02235174447,-187500.02235174447,-187500.02235174447,-187500.02235174447,1730244254.2106843,1730244252.6809378,6000
1081.1538793032023,-187500.02235174447,624.0383534477179,-187500.02235174447,-187500.02235174447,-187500.02235174447,-187500.02235174447,-187500.02235174447,1730244254.2154691,1730244252.6809378,6000
1113.7427227190403,-187500.02235174447,617.131664411028,-187500.02235174447,-187500.02235174447,-187500.02235174447,-187500.02235174447,-187500.02235174447,1730244254.219462,1730244252.6809378,6000
1109.0488563834258,-187500.02235174447,668.6300836360555,-187500.02235174447,-187500.02235174447,-187500.02235174447,-187500.02235174447,-187500.02235174447,1730244254.2235427,1730244252.6809378,6000
1109.7641122059956,-187500.02235174447,685.1703745329827,-187500.02235174447,-187500.02235174447,-187500.02235174447,-187500.02235174447,-187500.02235174447,1730244254.2281048,1730244252.6809378,6000
1077.3764344902556,-187500.02235174447,658.2141707198824,-187500.02235174447,-187500.02235174447,-187500.02235174447,-187500.02235174447,-187500.02235174447,1730244254.2315187,1730244252.6809378,6000
1072.6378646657306,-187500.02235174447,607.9003939509862,-187500.02235174447,-187500.02235174447,-187500.02235174447,-187500.02235174447,-187500.02235174447,1730244254.2354572,1730244252.6809378,6000
1116.8943186872386,-187500.02235174447,656.5601416301896,-187500.02235174447,-187500.02235174447,-187500.02235174447,-187500.02235174447,-187500.02235174447,1730244254.2385204,1730244252.6809378,6000
1096.8895073997387,-187500.02235174447,686.9138106004966,-187500.02235174447,-187500.02235174447,-187500.02235174447,-187500.02235174447,-187500.02235174447,1730244254.2437477,1730244252.6809378,6000
1080.3939199917222,-187500.02235174447,641.0480309782066,-187500.02235174447,-187500.02235174447,-187500.02235174447,-187500.02235174447,-187500.02235174447,1730244254.247933,1730244252.6809378,6000
1074.6942251556188,-187500.02235174447,643.2385019348267,-187500.02235174447,-187500.02235174447,-187500.02235174447,-187500.02235174447,-187500.02235174447,1730244254.251609,1730244252.6809378,6000
1092.97795212006,-187500.02235174447,653.743821828821,-187500.02235174447,-187500.02235174447,-187500.02235174447,-187500.02235174447,-187500.02235174447,1730244254.256004,1730244252.6809378,6000
1124.9856501800598,-187500.02235174447,677.32491222917,-187500.02235174447,-187500.02235174447,-187500.02235174447,-187500.02235174447,-187500.02235174447,1730244254.260132,1730244252.6809378,6000
1129.6348130267636,-187500.02235174447,658.6612056089886,-187500.02235174447,-187500.02235174447,-187500.02235174447,-187500.02235174447,-187500.02235174447,1730244254.264083,1730244252.6809378,6000
1106.7689784489846,-187500.02235174447,626.5417488267123,-187500.02235174447,-187500.02235174447,-187500.02235174447,-187500.02235174447,-187500.02235174447,1730244254.266549,1730244252.6809378,6000
1122.325792589878,-187500.02235174447,644.5796066021451,-187500.02235174447,-187500.02235174447,-187500.02235174447,-187500.02235174447,-187500.02235174447,1730244254.2707987,1730244252.6809378,6000
1153.3053104049338,-187500.02235174447,680.4094529640023,-187500.02235174447,-187500.02235174447,-187500.02235174447,-187500.02235174447,-187500.02235174447,1730244254.2759087,1730244252.6809378,6000
1030.9071577676723,-187500.02235174447,696.2344880383597,-187500.02235174447,-187500.02235174447,-187500.02235174447,-187500.02235174447,-187500.02235174447,1730244254.279827,1730244252.6809378,6000
1016.3561721272674,-187500.02235174447,609.0626846626622,-187500.02235174447,-187500.02235174447,-187500.02235174447,-187500.02235174447,-187500.02235174447,1730244254.28365,1730244252.6809378,6000
1136.362688107811,-187500.02235174447,603.1394723820058,-187500.02235174447,-187500.02235174447,-187500.02235174447,-187500.02235174447,-187500.02235174447,1730244254.2879431,1730244252.6809378,6000
1181.2896944629783,-187500.02235174447,645.4289728914467,-187500.02235174447,-187500.02235174447,-187500.02235174447,-187500.02235174447,-187500.02235174447,1730244254.2905605,1730244252.6809378,6000
1117.6095745098085,-187500.02235174447,710.6737149564881,-187500.02235174447,-187500.02235174447,-187500.02235174447,-187500.02235174447,-187500.02235174447,1730244254.2951913,1730244252.6809378,6000
1062.8925040832169,-187500.02235174447,654.1238014845612,-187500.02235174447,-187500.02235174447,-187500.02235174447,-187500.02235174447,-187500.02235174447,1730244254.2985637,1730244252.6809378,6000
1045.502846896988,-187500.02235174447,633.3143273966704,-187500.02235174447,-187500.02235174447,-187500.02235174447,-187500.02235174447,-187500.02235174447,1730244254.3041036,1730244252.6809378,6000
1075.4094809781886,-187500.02235174447,693.3958164925357,-187500.02235174447,-187500.02235174447,-187500.02235174447,-187500.02235174447,-187500.02235174447,1730244254.3076515,1730244252.6809378,6000
1076.3259025008565,-187500.02235174447,661.6339876215444,-187500.02235174447,-187500.02235174447,-187500.02235174447,-187500.02235174447,-187500.02235174447,1730244254.3119793,1730244252.6809378,6000
1083.210239793091,-187500.02235174447,615.3435248546034,-187500.02235174447,-187500.02235174447,-187500.02235174447,-187500.02235174447,-187500.02235174447,1730244254.3150344,1730244252.6809378,6000
1110.3229058173783,-187500.02235174447,613.8236062316425,-187500.02235174447,-187500.02235174447,-187500.02235174447,-187500.02235174447,-187500.02235174447,1730244254.3185823,1730244252.6809378,6000
1127.55610079242,-187500.02235174447,693.3511130036251,-187500.02235174447,-187500.02235174447,-187500.02235174447,-187500.02235174447,-187500.02235174447,1730244254.3228369,1730244252.6809378,6000
1100.6669522126856,-187500.02235174447,700.3025055292255,-187500.02235174447,-187500.02235174447,-187500.02235174447,-187500.02235174447,-187500.02235174447,1730244254.3268688,1730244252.6809378,6000
1083.3443502598227,-187500.02235174447,619.4785975788352,-187500.02235174447,-187500.02235174447,-187500.02235174447,-187500.02235174447,-187500.02235174447,1730244254.3316803,1730244252.6809378,6000
1129.9253857046826,-187500.02235174447,597.7750537127321,-187500.02235174447,-187500.02235174447,-187500.02235174447,-187500.02235174447,-187500.02235174447,1730244254.335783,1730244252.6809378,6000
1146.6668423017077,-187500.02235174447,663.3997754335136,-187500.02235174447,-187500.02235174447,-187500.02235174447,-187500.02235174447,-187500.02235174447,1730244254.3399503,1730244252.6809378,6000
1101.5833737353532,-187500.02235174447,697.0167990942955,-187500.02235174447,-187500.02235174447,-187500.02235174447,-187500.02235174447,-187500.02235174447,1730244254.3433,1730244252.6809378,6000
1148.522037091498,-187500.02235174447,640.8245135336534,-187500.02235174447,-187500.02235174447,-187500.02235174447,-187500.02235174447,-187500.02235174447,1730244254.3471563,1730244252.6809378,6000
1100.018751623482,-187500.02235174447,608.0568561621733,-187500.02235174447,-187500.02235174447,-187500.02235174447,-187500.02235174447,-187500.02235174447,1730244254.3513603,1730244252.6809378,6000
1011.6846575361084,-187500.02235174447,678.3977959630247,-187500.02235174447,-187500.02235174447,-187500.02235174447,-187500.02235174447,-187500.02235174447,1730244254.3553162,1730244252.6809378,6000
1065.0829750398368,-187500.02235174447,701.7777206632759,-187500.02235174447,-187500.02235174447,-187500.02235174447,-187500.02235174447,-187500.02235174447,1730244254.360161,1730244252.6809378,6000
1097.2918387999343,-187500.02235174447,639.9080920109859,-187500.02235174447,-187500.02235174447,-187500.02235174447,-187500.02235174447,-187500.02235174447,1730244254.3640175,1730244252.6809378,6000
1075.2977222559125,-187500.02235174447,603.742969482299,-187500.02235174447,-187500.02235174447,-187500.02235174447,-187500.02235174447,-187500.02235174447,1730244254.3678253,1730244252.6809378,6000
1086.4735944835656,-187500.02235174447,630.5650628286676,-187500.02235174447,-187500.02235174447,-187500.02235174447,-187500.02235174447,-187500.02235174447,1730244254.3709843,1730244252.6809378,6000
1147.6726708021963,-187500.02235174447,665.1432115010276,-187500.02235174447,-187500.02235174447,-187500.02235174447,-187500.02235174447,-187500.02235174447,1730244254.3747816,1730244252.6809378,6000
1138.687269531163,-187500.02235174447,666.8866475685415,-187500.02235174447,-187500.02235174447,-187500.02235174447,-187500.02235174447,-187500.02235174447,1730244254.378848,1730244252.6809378,6000
1055.1364487572253,-187500.02235174447,648.9605485153853,-187500.02235174447,-187500.02235174447,-187500.02235174447,-187500.02235174447,-187500.02235174447,1730244254.3826933,1730244252.6809378,6000
1079.1645740466804,-187500.02235174447,646.0995252251059,-187500.02235174447,-187500.02235174447,-187500.02235174447,-187500.02235174447,-187500.02235174447,1730244254.3877256,1730244252.6809378,6000
1130.908862460716,-187500.02235174447,669.9935400478292,-187500.02235174447,-187500.02235174447,-187500.02235174447,-187500.02235174447,-187500.02235174447,1730244254.391738,1730244252.6809378,6000
1119.4424175551435,-187500.02235174447,653.9896910178294,-187500.02235174447,-187500.02235174447,-187500.02235174447,-187500.02235174447,-187500.02235174447,1730244254.396224,1730244252.6809378,6000
1074.135431544236,-187500.02235174447,625.2676993927598,-187500.02235174447,-187500.02235174447,-187500.02235174447,-187500.02235174447,-187500.02235174447,1730244254.3987088,1730244252.6809378,6000
1055.7622976019738,-187500.02235174447,606.425178816936,-187500.02235174447,-187500.02235174447,-187500.02235174447,-187500.02235174447,-187500.02235174447,1730244254.40304,1730244252.6809378,6000
1101.5386702464427,-187500.02235174447,681.8399646091419,-187500.02235174447,-187500.02235174447,-187500.02235174447,-187500.02235174447,-187500.02235174447,1730244254.406685,1730244252.6809378,6000
1108.26654532749,-187500.02235174447,715.2334708253707,-187500.02235174447,-187500.02235174447,-187500.02235174447,-187500.02235174447,-187500.02235174447,1730244254.4109595,1730244252.6809378,6000
1097.8953359002276,-187500.02235174447,643.6184815905668,-187500.02235174447,-187500.02235174447,-187500.02235174447,-187500.02235174447,-187500.02235174447,1730244254.4147828,1730244252.6809378,6000
1104.26558306999,-187500.02235174447,616.6622777774666,-187500.02235174447,-187500.02235174447,-187500.02235174447,-187500.02235174447,-187500.02235174447,1730244254.4188752,1730244252.6809378,6000
1129.0760194153809,-187500.02235174447,668.4959731693236,-187500.02235174447,-187500.02235174447,-187500.02235174447,-187500.02235174447,-187500.02235174447,1730244254.4229033,1730244252.6809378,6000
1090.3851497632445,-187500.02235174447,657.4765631528572,-187500.02235174447,-187500.02235174447,-187500.02235174447,-187500.02235174447,-187500.02235174447,1730244254.4269388,1730244252.6809378,6000
1077.041158323426,-187500.02235174447,625.8488447485978,-187500.02235174447,-187500.02235174447,-187500.02235174447,-187500.02235174447,-187500.02235174447,1730244254.4317803,1730244252.6809378,6000
1076.8176408788731,-187500.02235174447,637.8740832655529,-187500.02235174447,-187500.02235174447,-187500.02235174447,-187500.02235174447,-187500.02235174447,1730244254.4358876,1730244252.6809378,6000
1072.459050710088,-187500.02235174447,662.4162986774801,-187500.02235174447,-187500.02235174447,-187500.02235174447,-187500.02235174447,-187500.02235174447,1730244254.438877,1730244252.6809378,6000
1099.7281789455628,-187500.02235174447,703.7670259197981,-187500.02235174447,-187500.02235174447,-187500.02235174447,-187500.02235174447,-187500.02235174447,1730244254.4429393,1730244252.6809378,6000
1132.205263639124,-187500.02235174447,649.1840659599384,-187500.02235174447,-187500.02235174447,-187500.02235174447,-187500.02235174447,-187500.02235174447,1730244254.446827,1730244252.6809378,6000
1135.602728796331,-187500.02235174447,595.4281205449248,-187500.02235174447,-187500.02235174447,-187500.02235174447,-187500.02235174447,-187500.02235174447,1730244254.4509697,1730244252.6809378,6000
1132.160560150213,-187500.02235174447,637.9858419878295,-187500.02235174447,-187500.02235174447,-187500.02235174447,-187500.02235174447,-187500.02235174447,1730244254.4549427,1730244252.6809378,6000
1087.6805886841523,-187500.02235174447,710.7631219343093,-187500.02235174447,-187500.02235174447,-187500.02235174447,-187500.02235174447,-187500.02235174447,1730244254.460184,1730244252.6809378,6000
1051.7389836000186,-187500.02235174447,667.7360138578432,-187500.02235174447,-187500.02235174447,-187500.02235174447,-187500.02235174447,-187500.02235174447,1730244254.463166,1730244252.6809378,6000
1097.0236178664709,-187500.02235174447,590.2872193202043,-187500.02235174447,-187500.02235174447,-187500.02235174447,-187500.02235174447,-187500.02235174447,1730244254.466926,1730244252.6809378,6000
1148.0973539468473,-187500.02235174447,637.4494001209022,-187500.02235174447,-187500.02235174447,-187500.02235174447,-187500.02235174447,-187500.02235174447,1730244254.4708607,1730244252.6809378,6000
1128.1595978927137,-187500.02235174447,715.836967925664,-187500.02235174447,-187500.02235174447,-187500.02235174447,-187500.02235174447,-187500.02235174447,1730244254.4748957,1730244252.6809378,6000
1099.6164202232862,-187500.02235174447,668.6300836360555,-187500.02235174447,-187500.02235174447,-187500.02235174447,-187500.02235174447,-187500.02235174447,1730244254.478997,1730244252.6809378,6000
1071.8779053542503,-187500.02235174447,620.193853401405,-187500.02235174447,-187500.02235174447,-187500.02235174447,-187500.02235174447,-187500.02235174447,1730244254.482823,1730244252.6809378,6000
1075.6777019116523,-187500.02235174447,651.3074816831925,-187500.02235174447,-187500.02235174447,-187500.02235174447,-187500.02235174447,-187500.02235174447,1730244254.4877896,1730244252.6809378,6000
1098.4988330005208,-187500.02235174447,681.0129500642956,-187500.02235174447,-187500.02235174447,-187500.02235174447,-187500.02235174447,-187500.02235174447,1730244254.4907997,1730244252.6809378,6000
1101.5163185019874,-187500.02235174447,673.905095327508,-187500.02235174447,-187500.02235174447,-187500.02235174447,-187500.02235174447,-187500.02235174447,1730244254.4938188,1730244252.6809378,6000
1095.9954376215264,-187500.02235174447,610.4484928188912,-187500.02235174447,-187500.02235174447,-187500.02235174447,-187500.02235174447,-187500.02235174447,1730244254.4988143,1730244252.6809378,6000
1084.7972136494177,-187500.02235174447,627.324059882648,-187500.02235174447,-187500.02235174447,-187500.02235174447,-187500.02235174447,-187500.02235174447,1730244254.502802,1730244252.6809378,6000
1102.8127196803953,-187500.02235174447,671.580513904156,-187500.02235174447,-187500.02235174447,-187500.02235174447,-187500.02235174447,-187500.02235174447,1730244254.5068288,1730244252.6809378,6000
1110.054684883915,-187500.02235174447,669.7253191143656,-187500.02235174447,-187500.02235174447,-187500.02235174447,-187500.02235174447,-187500.02235174447,1730244254.510836,1730244252.6809378,6000
1150.3101766479226,-187500.02235174447,635.1918739309161,-187500.02235174447,-187500.02235174447,-187500.02235174447,-187500.02235174447,-187500.02235174447,1730244254.51482,1730244252.6809378,6000
1127.17612113668,-187500.02235174447,624.1054086810838,-187500.02235174447,-187500.02235174447,-187500.02235174447,-187500.02235174447,-187500.02235174447,1730244254.5188525,1730244252.6809378,6000
1074.135431544236,-187500.02235174447,684.4774704548681,-187500.02235174447,-187500.02235174447,-187500.02235174447,-187500.02235174447,-187500.02235174447,1730244254.521882,1730244252.6809378,6000
1087.814699150884,-187500.02235174447,695.9886188493513,-187500.02235174447,-187500.02235174447,-187500.02235174447,-187500.02235174447,-187500.02235174447,1730244254.526855,1730244252.6809378,6000
1100.331676045856,-187500.02235174447,617.8022167446873,-187500.02235174447,-187500.02235174447,-187500.02235174447,-187500.02235174447,-187500.02235174447,1730244254.5308387,1730244252.6809378,6000
1099.012923122993,-187500.02235174447,601.843071203598,-187500.02235174447,-187500.02235174447,-187500.02235174447,-187500.02235174447,-187500.02235174447,1730244254.53487,1730244252.6809378,6000
1097.1577283332024,-187500.02235174447,658.7282608423544,-187500.02235174447,-187500.02235174447,-187500.02235174447,-187500.02235174447,-187500.02235174447,1730244254.5388706,1730244252.6809378,6000
1102.07511211337,-187500.02235174447,684.5668774326894,-187500.02235174447,-187500.02235174447,-187500.02235174447,-187500.02235174447,-187500.02235174447,1730244254.5428696,1730244252.6809378,6000
1117.788388465451,-187500.02235174447,656.3142724411813,-187500.02235174447,-187500.02235174447,-187500.02235174447,-187500.02235174447,-187500.02235174447,1730244254.546883,1730244252.6809378,6000
1102.1868708356465,-187500.02235174447,631.1238564400502,-187500.02235174447,-187500.02235174447,-187500.02235174447,-187500.02235174447,-187500.02235174447,1730244254.5498712,1730244252.6809378,6000
1072.168478032169,-187500.02235174447,649.5640456156785,-187500.02235174447,-187500.02235174447,-187500.02235174447,-187500.02235174447,-187500.02235174447,1730244254.5548928,1730244252.6809378,6000
1108.0653796273923,-187500.02235174447,685.2597815108039,-187500.02235174447,-187500.02235174447,-187500.02235174447,-187500.02235174447,-187500.02235174447,1730244254.5590618,1730244252.6809378,6000
1105.427873781666,-187500.02235174447,676.0061593063068,-187500.02235174447,-187500.02235174447,-187500.02235174447,-187500.02235174447,-187500.02235174447,1730244254.5629008,1730244252.6809378,6000
1066.5358384294318,-187500.02235174447,633.3366791411256,-187500.02235174447,-187500.02235174447,-187500.02235174447,-187500.02235174447,-187500.02235174447,1730244254.5669372,1730244252.6809378,6000
1060.791440104418,-187500.02235174447,638.164655943472,-187500.02235174447,-187500.02235174447,-187500.02235174447,-187500.02235174447,-187500.02235174447,1730244254.5709467,1730244252.6809378,6000
1112.7368942185517,-187500.02235174447,673.5474674162231,-187500.02235174447,-187500.02235174447,-187500.02235174447,-187500.02235174447,-187500.02235174447,1730244254.5750668,1730244252.6809378,6000
1123.1528071347243,-187500.02235174447,658.6612056089886,-187500.02235174447,-187500.02235174447,-187500.02235174447,-187500.02235174447,-187500.02235174447,1730244254.578297,1730244252.6809378,6000
1098.431777767155,-187500.02235174447,629.6262895615447,-187500.02235174447,-187500.02235174447,-187500.02235174447,-187500.02235174447,-187500.02235174447,1730244254.5819695,1730244252.6809378,6000
1105.1373011037472,-187500.02235174447,637.8517315210977,-187500.02235174447,-187500.02235174447,-187500.02235174447,-187500.02235174447,-187500.02235174447,1730244254.587041,1730244252.6809378,6000
1127.2655281145012,-187500.02235174447,692.1664705474938,-187500.02235174447,-187500.02235174447,-187500.02235174447,-187500.02235174447,-187500.02235174447,1730244254.5910113,1730244252.6809378,6000
1118.6601064992078,-187500.02235174447,687.8525838676195,-187500.02235174447,-187500.02235174447,-187500.02235174447,-187500.02235174447,-187500.02235174447,1730244254.5951464,1730244252.6809378,6000
1140.8106852544172,-187500.02235174447,601.7983677146874,-187500.02235174447,-187500.02235174447,-187500.02235174447,-187500.02235174447,-187500.02235174447,1730244254.5980194,1730244252.6809378,6000
1160.0555372304366,-187500.02235174447,609.3979608294918,-187500.02235174447,-187500.02235174447,-187500.02235174447,-187500.02235174447,-187500.02235174447,1730244254.6022787,1730244252.6809378,6000
1115.5308622754649,-187500.02235174447,682.6669791539883,-187500.02235174447,-187500.02235174447,-187500.02235174447,-187500.02235174447,-187500.02235174447,1730244254.6062722,1730244252.6809378,6000
1068.9051233416944,-187500.02235174447,697.8438136391418,-187500.02235174447,-187500.02235174447,-187500.02235174447,-187500.02235174447,-187500.02235174447,1730244254.6105983,1730244252.6809378,6000
1064.9935680620156,-187500.02235174447,659.2199992203712,-187500.02235174447,-187500.02235174447,-187500.02235174447,-187500.02235174447,-187500.02235174447,1730244254.6151185,1730244252.6809378,6000
1062.3113587273788,-187500.02235174447,627.5922808161117,-187500.02235174447,-187500.02235174447,-187500.02235174447,-187500.02235174447,-187500.02235174447,1730244254.6190672,1730244252.6809378,6000
1109.272373827979,-187500.02235174447,646.9935950033182,-187500.02235174447,-187500.02235174447,-187500.02235174447,-187500.02235174447,-187500.02235174447,1730244254.6230297,1730244252.6809378,6000
1118.593051265842,-187500.02235174447,661.7904498327315,-187500.02235174447,-187500.02235174447,-187500.02235174447,-187500.02235174447,-187500.02235174447,1730244254.6267202,1730244252.6809378,6000
1080.6174374362752,-187500.02235174447,663.5562376447008,-187500.02235174447,-187500.02235174447,-187500.02235174447,-187500.02235174447,-187500.02235174447,1730244254.6305168,1730244252.6809378,6000
1085.3560072608004,-187500.02235174447,638.902263510497,-187500.02235174447,-187500.02235174447,-187500.02235174447,-187500.02235174447,-187500.02235174447,1730244254.634336,1730244252.6809378,6000
1075.5435914449206,-187500.02235174447,667.6242551355666,-187500.02235174447,-187500.02235174447,-187500.02235174447,-187500.02235174447,-187500.02235174447,1730244254.638252,1730244252.6809378,6000
1095.88367889925,-187500.02235174447,679.7836041192537,-187500.02235174447,-187500.02235174447,-187500.02235174447,-187500.02235174447,-187500.02235174447,1730244254.643191,1730244252.6809378,6000
1122.1469786342357,-187500.02235174447,644.7137170688769,-187500.02235174447,-187500.02235174447,-187500.02235174447,-187500.02235174447,-187500.02235174447,1730244254.647164,1730244252.6809378,6000
1139.4695805870988,-187500.02235174447,621.8925859800084,-187500.02235174447,-187500.02235174447,-187500.02235174447,-187500.02235174447,-187500.02235174447,1730244254.651686,1730244252.6809378,6000
1124.8291879688727,-187500.02235174447,656.8954177970193,-187500.02235174447,-187500.02235174447,-187500.02235174447,-187500.02235174447,-187500.02235174447,1730244254.6544151,1730244252.6809378,6000
1088.172327062169,-187500.02235174447,716.3957615370466,-187500.02235174447,-187500.02235174447,-187500.02235174447,-187500.02235174447,-187500.02235174447,1730244254.658091,1730244252.6809378,6000
1098.0517981114149,-187500.02235174447,697.1732613054826,-187500.02235174447,-187500.02235174447,-187500.02235174447,-187500.02235174447,-187500.02235174447,1730244254.6626718,1730244252.6809378,6000
1095.6378097102415,-187500.02235174447,630.1627314284721,-187500.02235174447,-187500.02235174447,-187500.02235174447,-187500.02235174447,-187500.02235174447,1730244254.6661458,1730244252.6809378,6000
1125.4773885580764,-187500.02235174447,614.002420187285,-187500.02235174447,-187500.02235174447,-187500.02235174447,-187500.02235174447,-187500.02235174447,1730244254.671258,1730244252.6809378,6000
1166.6716535892074,-187500.02235174447,679.0683482966839,-187500.02235174447,-187500.02235174447,-187500.02235174447,-187500.02235174447,-187500.02235174447,1730244254.6753497,1730244252.6809378,6000
1156.5686650954087,-187500.02235174447,681.5940954201336,-187500.02235174447,-187500.02235174447,-187500.02235174447,-187500.02235174447,-187500.02235174447,1730244254.6791909,1730244252.6809378,6000
1082.6737979261634,-187500.02235174447,620.3279638681369,-187500.02235174447,-187500.02235174447,-187500.02235174447,-187500.02235174447,-187500.02235174447,1730244254.6821308,1730244252.6809378,6000
1041.7924573174068,-187500.02235174447,616.1034841660838,-187500.02235174447,-187500.02235174447,-187500.02235174447,-187500.02235174447,-187500.02235174447,1730244254.6862876,1730244252.6809378,6000
1082.5173357149763,-187500.02235174447,671.6252173930666,-187500.02235174447,-187500.02235174447,-187500.02235174447,-187500.02235174447,-187500.02235174447,1730244254.6901753,1730244252.6809378,6000
1112.0886936293475,-187500.02235174447,692.8593746256083,-187500.02235174447,-187500.02235174447,-187500.02235174447,-187500.02235174447,-187500.02235174447,1730244254.6945364,1730244252.6809378,6000
1077.152917045703,-187500.02235174447,626.9664319713631,-187500.02235174447,-187500.02235174447,-187500.02235174447,-187500.02235174447,-187500.02235174447,1730244254.699212,1730244252.6809378,6000
1087.591181706331,-187500.02235174447,591.0024751427741,-187500.02235174447,-187500.02235174447,-187500.02235174447,-187500.02235174447,-187500.02235174447,1730244254.7033012,1730244252.6809378,6000
1097.0236178664709,-187500.02235174447,681.0129500642956,-187500.02235174447,-187500.02235174447,-187500.02235174447,-187500.02235174447,-187500.02235174447,1730244254.7064576,1730244252.6809378,6000
1103.6173824807863,-187500.02235174447,696.7709299052871,-187500.02235174447,-187500.02235174447,-187500.02235174447,-187500.02235174447,-187500.02235174447,1730244254.7106788,1730244252.6809378,6000
1096.7777486774623,-187500.02235174447,622.0266964467403,-187500.02235174447,-187500.02235174447,-187500.02235174447,-187500.02235174447,-187500.02235174447,1730244254.7143643,1730244252.6809378,6000
1111.9545831626158,-187500.02235174447,622.4737313358464,-187500.02235174447,-187500.02235174447,-187500.02235174447,-187500.02235174447,-187500.02235174447,1730244254.718382,1730244252.6809378,6000
1151.2265981705905,-187500.02235174447,650.2345979493377,-187500.02235174447,-187500.02235174447,-187500.02235174447,-187500.02235174447,-187500.02235174447,1730244254.722818,1730244252.6809378,6000
1145.973938223593,-187500.02235174447,673.8603918385974,-187500.02235174447,-187500.02235174447,-187500.02235174447,-187500.02235174447,-187500.02235174447,1730244254.7267733,1730244252.6809378,6000
1070.4697454535658,-187500.02235174447,677.4366709514464,-187500.02235174447,-187500.02235174447,-187500.02235174447,-187500.02235174447,-187500.02235174447,1730244254.731243,1730244252.6809378,6000
1043.9605765295717,-187500.02235174447,636.3094611536815,-187500.02235174447,-187500.02235174447,-187500.02235174447,-187500.02235174447,-187500.02235174447,1730244254.7344432,1730244252.6809378,6000
1090.4745567410655,-187500.02235174447,655.5319613852455,-187500.02235174447,-187500.02235174447,-187500.02235174447,-187500.02235174447,-187500.02235174447,1730244254.7383928,1730244252.6809378,6000
1132.428781083677,-187500.02235174447,694.3345897596586,-187500.02235174447,-187500.02235174447,-187500.02235174447,-187500.02235174447,-187500.02235174447,1730244254.7429264,1730244252.6809378,6000
1110.45701628411,-187500.02235174447,644.8031240466981,-187500.02235174447,-187500.02235174447,-187500.02235174447,-187500.02235174447,-187500.02235174447,1730244254.7467823,1730244252.6809378,6000
1095.816623665884,-187500.02235174447,614.0247719317404,-187500.02235174447,-187500.02235174447,-187500.02235174447,-187500.02235174447,-187500.02235174447,1730244254.7502298,1730244252.6809378,6000
1108.8923941722387,-187500.02235174447,630.5650628286676,-187500.02235174447,-187500.02235174447,-187500.02235174447,-187500.02235174447,-187500.02235174447,1730244254.7544732,1730244252.6809378,6000
1082.8302601373507,-187500.02235174447,672.6310458935554,-187500.02235174447,-187500.02235174447,-187500.02235174447,-187500.02235174447,-187500.02235174447,1730244254.759961,1730244252.6809378,6000
1078.2258007795574,-187500.02235174447,656.582493374645,-187500.02235174447,-187500.02235174447,-187500.02235174447,-187500.02235174447,-187500.02235174447,1730244254.7627103,1730244252.6809378,6000
1072.168478032169,-187500.02235174447,599.3396758246035,-187500.02235174447,-187500.02235174447,-187500.02235174447,-187500.02235174447,-187500.02235174447,1730244254.7662537,1730244252.6809378,6000
1110.747588962029,-187500.02235174447,617.9139754669637,-187500.02235174447,-187500.02235174447,-187500.02235174447,-187500.02235174447,-187500.02235174447,1730244254.7704463,1730244252.6809378,6000
1153.75234529404,-187500.02235174447,677.0566912957063,-187500.02235174447,-187500.02235174447,-187500.02235174447,-187500.02235174447,-187500.02235174447,1730244254.7742915,1730244252.6809378,6000
1100.8904696572388,-187500.02235174447,671.0440720372286,-187500.02235174447,-187500.02235174447,-187500.02235174447,-187500.02235174447,-187500.02235174447,1730244254.7784648,1730244252.6809378,6000
1056.6116638912754,-187500.02235174447,641.5397693562234,-187500.02235174447,-187500.02235174447,-187500.02235174447,-187500.02235174447,-187500.02235174447,1730244254.7823348,1730244252.6809378,6000
1105.6960947151297,-187500.02235174447,637.7176210543658,-187500.02235174447,-187500.02235174447,-187500.02235174447,-187500.02235174447,-187500.02235174447,1730244254.7874403,1730244252.6809378,6000
1146.264510901512,-187500.02235174447,673.32394997167,-187500.02235174447,-187500.02235174447,-187500.02235174447,-187500.02235174447,-187500.02235174447,1730244254.7903671,1730244252.6809378,6000
1057.30456796939,-187500.02235174447,676.8555255956085,-187500.02235174447,-187500.02235174447,-187500.02235174447,-187500.02235174447,-187500.02235174447,1730244254.794658,1730244252.6809378,6000
1049.8390853213175,-187500.02235174447,617.5339958112236,-187500.02235174447,-187500.02235174447,-187500.02235174447,-187500.02235174447,-187500.02235174447,1730244254.7982728,1730244252.6809378,6000
1109.3841325502551,-187500.02235174447,623.0772284361396,-187500.02235174447,-187500.02235174447,-187500.02235174447,-187500.02235174447,-187500.02235174447,1730244254.8027632,1730244252.6809378,6000
1118.2130716101017,-187500.02235174447,670.3288162146588,-187500.02235174447,-187500.02235174447,-187500.02235174447,-187500.02235174447,-187500.02235174447,1730244254.8063133,1730244252.6809378,6000
1093.2908765424345,-187500.02235174447,701.2636305408038,-187500.02235174447,-187500.02235174447,-187500.02235174447,-187500.02235174447,-187500.02235174447,1730244254.810614,1730244252.6809378,6000
1072.9954925770155,-187500.02235174447,638.2317111768378,-187500.02235174447,-187500.02235174447,-187500.02235174447,-187500.02235174447,-187500.02235174447,1730244254.8155465,1730244252.6809378,6000
1114.9273651751716,-187500.02235174447,586.3980157849808,-187500.02235174447,-187500.02235174447,-187500.02235174447,-187500.02235174447,-187500.02235174447,1730244254.8184454,1730244252.6809378,6000
1133.9710514510932,-187500.02235174447,639.2375396773267,-187500.02235174447,-187500.02235174447,-187500.02235174447,-187500.02235174447,-187500.02235174447,1730244254.8218648,1730244252.6809378,6000
1085.713635172085,-187500.02235174447,707.4550637549238,-187500.02235174447,-187500.02235174447,-187500.02235174447,-187500.02235174447,-187500.02235174447,1730244254.826825,1730244252.6809378,6000
1075.4094809781886,-187500.02235174447,668.5183249137789,-187500.02235174447,-187500.02235174447,-187500.02235174447,-187500.02235174447,-187500.02235174447,1730244254.8305895,1730244252.6809378,6000
1111.7310657180626,-187500.02235174447,635.0801152086395,-187500.02235174447,-187500.02235174447,-187500.02235174447,-187500.02235174447,-187500.02235174447,1730244254.8349252,1730244252.6809378,6000
1147.3373946353668,-187500.02235174447,613.9130132094638,-187500.02235174447,-187500.02235174447,-187500.02235174447,-187500.02235174447,-187500.02235174447,1730244254.838586,1730244252.6809378,6000
1094.6990364431188,-187500.02235174447,676.9449325734297,-187500.02235174447,-187500.02235174447,-187500.02235174447,-187500.02235174447,-187500.02235174447,1730244254.8415108,1730244252.6809378,6000
1081.466803725577,-187500.02235174447,677.3919674625358,-187500.02235174447,-187500.02235174447,-187500.02235174447,-187500.02235174447,-187500.02235174447,1730244254.8459215,1730244252.6809378,6000
1039.3784689162335,-187500.02235174447,615.4329318324246,-187500.02235174447,-187500.02235174447,-187500.02235174447,-187500.02235174447,-187500.02235174447,1730244254.8494394,1730244252.6809378,6000
1055.3599662017782,-187500.02235174447,635.84007452012,-187500.02235174447,-187500.02235174447,-187500.02235174447,-187500.02235174447,-187500.02235174447,1730244254.8546605,1730244252.6809378,6000
1080.952713603105,-187500.02235174447,675.7826418617537,-187500.02235174447,-187500.02235174447,-187500.02235174447,-187500.02235174447,-187500.02235174447,1730244254.8585064,1730244252.6809378,6000
1119.1294931327693,-187500.02235174447,671.5134586707901,-187500.02235174447,-187500.02235174447,-187500.02235174447,-187500.02235174447,-187500.02235174447,1730244254.862634,1730244252.6809378,6000
1115.4414552976436,-187500.02235174447,626.7652662712653,-187500.02235174447,-187500.02235174447,-187500.02235174447,-187500.02235174447,-187500.02235174447,1730244254.8665466,1730244252.6809378,6000
1070.335634986834,-187500.02235174447,630.2744901507485,-187500.02235174447,-187500.02235174447,-187500.02235174447,-187500.02235174447,-187500.02235174447,1730244254.870594,1730244252.6809378,6000
1088.820527651373,-187500.02235174447,685.0809675551615,-187500.02235174447,-187500.02235174447,-187500.02235174447,-187500.02235174447,-187500.02235174447,1730244254.8733952,1730244252.6809378,6000
1105.047894125926,-187500.02235174447,680.901191342019,-187500.02235174447,-187500.02235174447,-187500.02235174447,-187500.02235174447,-187500.02235174447,1730244254.8773804,1730244252.6809378,6000
1095.079016098859,-187500.02235174447,635.4824466088351,-187500.02235174447,-187500.02235174447,-187500.02235174447,-187500.02235174447,-187500.02235174447,1730244254.882413,1730244252.6809378,6000
1110.0323331394593,-187500.02235174447,613.9577166983744,-187500.02235174447,-187500.02235174447,-187500.02235174447,-187500.02235174447,-187500.02235174447,1730244254.8866084,1730244252.6809378,6000
1136.5862055523642,-187500.02235174447,665.4114324344913,-187500.02235174447,-187500.02235174447,-187500.02235174447,-187500.02235174447,-187500.02235174447,1730244254.890494,1730244252.6809378,6000
1125.0303536689703,-187500.02235174447,687.7184734008877,-187500.02235174447,-187500.02235174447,-187500.02235174447,-187500.02235174447,-187500.02235174447,1730244254.8946629,1730244252.6809378,6000
1121.297612344934,-187500.02235174447,644.1549234574942,-187500.02235174447,-187500.02235174447,-187500.02235174447,-187500.02235174447,-187500.02235174447,1730244254.8975573,1730244252.6809378,6000
1140.8106852544172,-187500.02235174447,621.2443853908045,-187500.02235174447,-187500.02235174447,-187500.02235174447,-187500.02235174447,-187500.02235174447,1730244254.901631,1730244252.6809378,6000
1113.0274668964703,-187500.02235174447,668.6300836360555,-187500.02235174447,-187500.02235174447,-187500.02235174447,-187500.02235174447,-187500.02235174447,1730244254.9055972,1730244252.6809378,6000
1086.2947805279232,-187500.02235174447,675.6708831394772,-187500.02235174447,-187500.02235174447,-187500.02235174447,-187500.02235174447,-187500.02235174447,1730244254.9095967,1730244252.6809378,6000
1102.45509176911,-187500.02235174447,645.518379869268,-187500.02235174447,-187500.02235174447,-187500.02235174447,-187500.02235174447,-187500.02235174447,1730244254.9145122,1730244252.6809378,6000
1072.950789088105,-187500.02235174447,622.4737313358464,-187500.02235174447,-187500.02235174447,-187500.02235174447,-187500.02235174447,-187500.02235174447,1730244254.9186034,1730244252.6809378,6000
1075.2530187670015,-187500.02235174447,662.8633335665862,-187500.02235174447,-187500.02235174447,-187500.02235174447,-187500.02235174447,-187500.02235174447,1730244254.92263,1730244252.6809378,6000
1098.4988330005208,-187500.02235174447,690.0877583131503,-187500.02235174447,-187500.02235174447,-187500.02235174447,-187500.02235174447,-187500.02235174447,1730244254.9255934,1730244252.6809378,6000
1052.1860184891248,-187500.02235174447,642.4785426233462,-187500.02235174447,-187500.02235174447,-187500.02235174447,-187500.02235174447,-187500.02235174447,1730244254.9295964,1730244252.6809378,6000
1048.3415184428118,-187500.02235174447,628.6204610610558,-187500.02235174447,-187500.02235174447,-187500.02235174447,-187500.02235174447,-187500.02235174447,1730244254.9336357,1730244252.6809378,6000
1094.5202224874763,-187500.02235174447,650.8604467940863,-187500.02235174447,-187500.02235174447,-187500.02235174447,-187500.02235174447,-187500.02235174447,1730244254.9380188,1730244252.6809378,6000
1118.101312887825,-187500.02235174447,687.740825145343,-187500.02235174447,-187500.02235174447,-187500.02235174447,-187500.02235174447,-187500.02235174447,1730244254.9428384,1730244252.6809378,6000
1105.427873781666,-187500.02235174447,660.8293248211534,-187500.02235174447,-187500.02235174447,-187500.02235174447,-187500.02235174447,-187500.02235174447,1730244254.9470465,1730244252.6809378,6000
1108.1324348607582,-187500.02235174447,598.4903095353019,-187500.02235174447,-187500.02235174447,-187500.02235174447,-187500.02235174447,-187500.02235174447,1730244254.9496093,1730244252.6809378,6000
1134.1498654067357,-187500.02235174447,636.9353099984301,-187500.02235174447,-187500.02235174447,-187500.02235174447,-187500.02235174447,-187500.02235174447,1730244254.9539723,1730244252.6809378,6000
1125.3656298358,-187500.02235174447,706.6056974656221,-187500.02235174447,-187500.02235174447,-187500.02235174447,-187500.02235174447,-187500.02235174447,1730244254.9576807,1730244252.6809378,6000
1130.6853450161632,-187500.02235174447,695.1169008155944,-187500.02235174447,-187500.02235174447,-187500.02235174447,-187500.02235174447,-187500.02235174447,1730244254.961714,1730244252.6809378,6000
1096.397769021722,-187500.02235174447,644.7584205577875,-187500.02235174447,-187500.02235174447,-187500.02235174447,-187500.02235174447,-187500.02235174447,1730244254.9656508,1730244252.6809378,6000
1089.8934113852276,-187500.02235174447,640.8468652781088,-187500.02235174447,-187500.02235174447,-187500.02235174447,-187500.02235174447,-187500.02235174447,1730244254.9710748,1730244252.6809378,6000
1137.5026270750318,-187500.02235174447,654.7943538182204,-187500.02235174447,-187500.02235174447,-187500.02235174447,-187500.02235174447,-187500.02235174447,1730244254.9748373,1730244252.6809378,6000
1085.400710749711,-187500.02235174447,665.3890806900359,-187500.02235174447,-187500.02235174447,-187500.02235174447,-187500.02235174447,-187500.02235174447,1730244254.9778385,1730244252.6809378,6000
1047.5815591313317,-187500.02235174447,640.6233478335557,-187500.02235174447,-187500.02235174447,-187500.02235174447,-187500.02235174447,-187500.02235174447,1730244254.981609,1730244252.6809378,6000
1075.431832722644,-187500.02235174447,605.7993299721874,-187500.02235174447,-187500.02235174447,-187500.02235174447,-187500.02235174447,-187500.02235174447,1730244254.986091,1730244252.6809378,6000
1157.5521418514422,-187500.02235174447,655.6437201075221,-187500.02235174447,-187500.02235174447,-187500.02235174447,-187500.02235174447,-187500.02235174447,1730244254.9896443,1730244252.6809378,6000
1089.334617773845,-187500.02235174447,725.2694040858036,-187500.02235174447,-187500.02235174447,-187500.02235174447,-187500.02235174447,-187500.02235174447,1730244254.9937308,1730244252.6809378,6000
1074.0683763108702,-187500.02235174447,663.8691620670751,-187500.02235174447,-187500.02235174447,-187500.02235174447,-187500.02235174447,-187500.02235174447,1730244254.9986732,1730244252.6809378,6000
1102.6339057247528,-187500.02235174447,594.3105333221595,-187500.02235174447,-187500.02235174447,-187500.02235174447,-187500.02235174447,-187500.02235174447,1730244255.0031917,1730244252.6809378,6000
1108.8029871944177,-187500.02235174447,654.3696706735695,-187500.02235174447,-187500.02235174447,-187500.02235174447,-187500.02235174447,-187500.02235174447,1730244255.0060856,1730244252.6809378,6000
1096.6436382107304,-187500.02235174447,703.7223224308875,-187500.02235174447,-187500.02235174447,-187500.02235174447,-187500.02235174447,-187500.02235174447,1730244255.0101469,1730244252.6809378,6000
1106.210184837602,-187500.02235174447,651.12866772755,-187500.02235174447,-187500.02235174447,-187500.02235174447,-187500.02235174447,-187500.02235174447,1730244255.014197,1730244252.6809378,6000
1065.2617889954793,-187500.02235174447,644.93723451343,-187500.02235174447,-187500.02235174447,-187500.02235174447,-187500.02235174447,-187500.02235174447,1730244255.0178528,1730244252.6809378,6000
1094.6990364431188,-187500.02235174447,669.5912086476337,-187500.02235174447,-187500.02235174447,-187500.02235174447,-187500.02235174447,-187500.02235174447,1730244255.0222142,1730244252.6809378,6000
1151.7406882930622,-187500.02235174447,680.2976942417257,-187500.02235174447,-187500.02235174447,-187500.02235174447,-187500.02235174447,-187500.02235174447,1730244255.0271623,1730244252.6809378,6000
1123.8680629572943,-187500.02235174447,651.2851299387372,-187500.02235174447,-187500.02235174447,-187500.02235174447,-187500.02235174447,-187500.02235174447,1730244255.030902,1730244252.6809378,6000
1073.6436931662197,-187500.02235174447,605.3746468275365,-187500.02235174447,-187500.02235174447,-187500.02235174447,-187500.02235174447,-187500.02235174447,1730244255.0339484,1730244252.6809378,6000
1086.0936148278254,-187500.02235174447,642.098562967606,-187500.02235174447,-187500.02235174447,-187500.02235174447,-187500.02235174447,-187500.02235174447,1730244255.0383034,1730244252.6809378,6000
1084.6631031826855,-187500.02235174447,694.0663688261949,-187500.02235174447,-187500.02235174447,-187500.02235174447,-187500.02235174447,-187500.02235174447,1730244255.0417387,1730244252.6809378,6000
1103.438568525144,-187500.02235174447,648.289996181726,-187500.02235174447,-187500.02235174447,-187500.02235174447,-187500.02235174447,-187500.02235174447,1730244255.0461316,1730244252.6809378,6000
1153.5958830828529,-187500.02235174447,614.874138221042,-187500.02235174447,-187500.02235174447,-187500.02235174447,-187500.02235174447,-187500.02235174447,1730244255.0498362,1730244252.6809378,6000
1197.6958748931736,-187500.02235174447,624.9547749703855,-187500.02235174447,-187500.02235174447,-187500.02235174447,-187500.02235174447,-187500.02235174447,1730244255.0551732,1730244252.6809378,6000
1128.785446737462,-187500.02235174447,683.7622146322983,-187500.02235174447,-187500.02235174447,-187500.02235174447,-187500.02235174447,-187500.02235174447,1730244255.057753,1730244252.6809378,6000
1035.8692450367505,-187500.02235174447,685.9526855889185,-187500.02235174447,-187500.02235174447,-187500.02235174447,-187500.02235174447,-187500.02235174447,1730244255.0609703,1730244252.6809378,6000
1035.82454154784,-187500.02235174447,637.2482344208044,-187500.02235174447,-187500.02235174447,-187500.02235174447,-187500.02235174447,-187500.02235174447,1730244255.0657127,1730244252.6809378,6000
1084.8642688827836,-187500.02235174447,650.8604467940863,-187500.02235174447,-187500.02235174447,-187500.02235174447,-187500.02235174447,-187500.02235174447,1730244255.0700836,1730244252.6809378,6000
1098.0517981114149,-187500.02235174447,691.6300286805664,-187500.02235174447,-187500.02235174447,-187500.02235174447,-187500.02235174447,-187500.02235174447,1730244255.0738173,1730244252.6809378,6000
1125.8126647249062,-187500.02235174447,670.1723540034717,-187500.02235174447,-187500.02235174447,-187500.02235174447,-187500.02235174447,-187500.02235174447,1730244255.0783243,1730244252.6809378,6000
1145.236330656568,-187500.02235174447,608.6603532624666,-187500.02235174447,-187500.02235174447,-187500.02235174447,-187500.02235174447,-187500.02235174447,1730244255.0817475,1730244252.6809378,6000
