Fp1,Fp2,C3,C4,P7,P8,O1,O2,time_board,time_marker,marker
-6861.069126256601,-90352.09898377644,3941.193692826473,-187500.02235174447,-187500.02235174447,-187500.02235174447,-187500.02235174447,-187500.02235174447,1730989344.2799532,1730989344.2778196,6000
-6853.469533141796,-90305.04856169804,3936.924509635509,-187500.02235174447,-187500.02235174447,-187500.02235174447,-187500.02235174447,-187500.02235174447,1730989344.2851837,1730989344.2778196,6000
-6875.977739808291,-90288.24004986764,3926.620355441613,-187500.02235174447,-187500.02235174447,-187500.02235174447,-187500.02235174447,-187500.02235174447,1730989344.2881925,1730989344.2778196,6000
-6891.869830116014,-90306.25555589862,3932.722381677912,-187500.02235174447,-187500.02235174447,-187500.02235174447,-187500.02235174447,-187500.02235174447,1730989344.2920728,1730989344.2778196,6000
-6886.594818424562,-90329.16609396532,3944.814675428233,-187500.02235174447,-187500.02235174447,-187500.02235174447,-187500.02235174447,-187500.02235174447,1730989344.2959688,1730989344.2778196,6000
-6890.171097537411,-90364.70536764924,3943.54062599428,-187500.02235174447,-187500.02235174447,-187500.02235174447,-187500.02235174447,-187500.02235174447,1730989344.3000815,1730989344.2778196,6000
-6888.338254492075,-90259.96509313169,3926.39683799706,-187500.02235174447,-187500.02235174447,-187500.02235174447,-187500.02235174447,-187500.02235174447,1730989344.304004,1730989344.2778196,6000
-6876.961216564324,-90267.56468624648,3931.560090966236,-187500.02235174447,-187500.02235174447,-187500.02235174447,-187500.02235174447,-187500.02235174447,1730989344.3080769,1730989344.2778196,6000
-6847.50161737223,-90383.79375741408,3950.1790940975065,-187500.02235174447,-187500.02235174447,-187500.02235174447,-187500.02235174447,-187500.02235174447,1730989344.3120832,1730989344.2778196,6000
-6849.379163906475,-90407.10662688097,3943.786495183289,-187500.02235174447,-187500.02235174447,-187500.02235174447,-187500.02235174447,-187500.02235174447,1730989344.31717,1730989344.2778196,6000
-6894.261466772731,-90309.51891058907,3924.161663551529,-187500.02235174447,-187500.02235174447,-187500.02235174447,-187500.02235174447,-187500.02235174447,1730989344.3201256,1730989344.2778196,6000
-6884.136126534478,-90271.18566884824,3923.245242028861,-187500.02235174447,-187500.02235174447,-187500.02235174447,-187500.02235174447,-187500.02235174447,1730989344.323984,1730989344.2778196,6000
-6865.40536468093,-90341.7277743492,3939.427905014504,-187500.02235174447,-187500.02235174447,-187500.02235174447,-187500.02235174447,-187500.02235174447,1730989344.3282087,1730989344.2778196,6000
-6885.477231201796,-90372.26025727512,3948.502713263359,-187500.02235174447,-187500.02235174447,-187500.02235174447,-187500.02235174447,-187500.02235174447,1730989344.3320808,1730989344.2778196,6000
-6892.048644071656,-90292.79980573652,3936.008088112842,-187500.02235174447,-187500.02235174447,-187500.02235174447,-187500.02235174447,-187500.02235174447,1730989344.336014,1730989344.2778196,6000
-6882.571504422606,-90249.2586075376,3922.865262373122,-187500.02235174447,-187500.02235174447,-187500.02235174447,-187500.02235174447,-187500.02235174447,1730989344.3411312,1730989344.2778196,6000
-6882.83972535607,-90354.334158222,3934.3093555342384,-187500.02235174447,-187500.02235174447,-187500.02235174447,-187500.02235174447,-187500.02235174447,1730989344.3440692,1730989344.2778196,6000
-6885.141955034967,-90409.72178098225,3940.813713170733,-187500.02235174447,-187500.02235174447,-187500.02235174447,-187500.02235174447,-187500.02235174447,1730989344.3472636,1730989344.2778196,6000
-6884.73962363477,-90364.01246357114,3930.353096765649,-187500.02235174447,-187500.02235174447,-187500.02235174447,-187500.02235174447,-187500.02235174447,1730989344.3522725,1730989344.2778196,6000
-6874.703690374338,-90303.84156749744,3925.949803107954,-187500.02235174447,-187500.02235174447,-187500.02235174447,-187500.02235174447,-187500.02235174447,1730989344.3561003,1730989344.2778196,6000
-6865.919454803402,-90371.72381540822,3934.041134600775,-187500.02235174447,-187500.02235174447,-187500.02235174447,-187500.02235174447,-187500.02235174447,1730989344.3600452,1730989344.2778196,6000
-6866.858228070525,-90437.70616504028,3937.34919278016,-187500.02235174447,-187500.02235174447,-187500.02235174447,-187500.02235174447,-187500.02235174447,1730989344.3642151,1730989344.2778196,6000
-6879.576370665595,-90417.85781596396,3924.519291462814,-187500.02235174447,-187500.02235174447,-187500.02235174447,-187500.02235174447,-187500.02235174447,1730989344.369071,1730989344.2778196,6000
-6879.263446243221,-90349.28266397509,3918.5737274377034,-187500.02235174447,-187500.02235174447,-187500.02235174447,-187500.02235174447,-187500.02235174447,1730989344.3722613,1730989344.2778196,6000
-6865.1818472363775,-90375.50126022116,3937.662117202535,-187500.02235174447,-187500.02235174447,-187500.02235174447,-187500.02235174447,-187500.02235174447,1730989344.375264,1730989344.2778196,6000
-6868.154629248933,-90407.57601351452,3947.072201618219,-187500.02235174447,-187500.02235174447,-187500.02235174447,-187500.02235174447,-187500.02235174447,1730989344.38017,1730989344.2778196,6000
-6877.654120642438,-90331.55773062202,3939.1149805921295,-187500.02235174447,-187500.02235174447,-187500.02235174447,-187500.02235174447,-187500.02235174447,1730989344.3841672,1730989344.2778196,6000
-6873.295530473653,-90291.12342490238,3924.385180996082,-187500.02235174447,-187500.02235174447,-187500.02235174447,-187500.02235174447,-187500.02235174447,1730989344.3881204,1730989344.2778196,6000
-6867.193504237355,-90357.15047802337,3922.82055888421,-187500.02235174447,-187500.02235174447,-187500.02235174447,-187500.02235174447,-187500.02235174447,1730989344.3922026,1730989344.2778196,6000
-6866.50060015924,-90427.13378991291,3937.192730568973,-187500.02235174447,-187500.02235174447,-187500.02235174447,-187500.02235174447,-187500.02235174447,1730989344.3961325,1730989344.2778196,6000
-6870.948597305846,-90442.91412149835,3935.1140183346297,-187500.02235174447,-187500.02235174447,-187500.02235174447,-187500.02235174447,-187500.02235174447,1730989344.4001129,1730989344.2778196,6000
-6875.061318285623,-90322.7734950511,3916.96440183692,-187500.02235174447,-187500.02235174447,-187500.02235174447,-187500.02235174447,-187500.02235174447,1730989344.4031422,1730989344.2778196,6000
-6867.886408315469,-90289.9611341907,3913.946916335454,-187500.02235174447,-187500.02235174447,-187500.02235174447,-187500.02235174447,-187500.02235174447,1730989344.4071362,1730989344.2778196,6000
-6866.701765859338,-90398.1435773544,3929.839006643177,-187500.02235174447,-187500.02235174447,-187500.02235174447,-187500.02235174447,-187500.02235174447,1730989344.412135,1730989344.2778196,6000
-6873.273178729199,-90432.96759521576,3933.750561922856,-187500.02235174447,-187500.02235174447,-187500.02235174447,-187500.02235174447,-187500.02235174447,1730989344.4161353,1730989344.2778196,6000
-6877.4529549423405,-90319.8677682719,3920.183053038485,-187500.02235174447,-187500.02235174447,-187500.02235174447,-187500.02235174447,-187500.02235174447,1730989344.4201622,1730989344.2778196,6000
-6876.31301597512,-90272.4597182822,3913.589288424169,-187500.02235174447,-187500.02235174447,-187500.02235174447,-187500.02235174447,-187500.02235174447,1730989344.4231524,1730989344.2778196,6000
-6873.854324085036,-90371.96968459722,3926.3744862526046,-187500.02235174447,-187500.02235174447,-187500.02235174447,-187500.02235174447,-187500.02235174447,1730989344.4272408,1730989344.2778196,6000
-6867.752297848738,-90424.45158057829,3931.738904921878,-187500.02235174447,-187500.02235174447,-187500.02235174447,-187500.02235174447,-187500.02235174447,1730989344.4311411,1730989344.2778196,6000
-6865.919454803402,-90321.38768689486,3917.098512303652,-187500.02235174447,-187500.02235174447,-187500.02235174447,-187500.02235174447,-187500.02235174447,1730989344.4351687,1730989344.2778196,6000
-6868.109925760023,-90307.03786695456,3915.8915181030657,-187500.02235174447,-187500.02235174447,-187500.02235174447,-187500.02235174447,-187500.02235174447,1730989344.4401677,1730989344.2778196,6000
-6878.279969487187,-90411.8899001944,3929.9507653654537,-187500.02235174447,-187500.02235174447,-187500.02235174447,-187500.02235174447,-187500.02235174447,1730989344.4451773,1730989344.2778196,6000
-6875.865981086014,-90417.76840898614,3935.717515434923,-187500.02235174447,-187500.02235174447,-187500.02235174447,-187500.02235174447,-187500.02235174447,1730989344.4481504,1730989344.2778196,6000
-6880.31397823262,-90361.59847516996,3920.8983088610544,-187500.02235174447,-187500.02235174447,-187500.02235174447,-187500.02235174447,-187500.02235174447,1730989344.4511824,1730989344.2778196,6000
-6885.276065501698,-90338.75499233665,3902.189898751962,-187500.02235174447,-187500.02235174447,-187500.02235174447,-187500.02235174447,-187500.02235174447,1730989344.4561925,1730989344.2778196,6000
-6882.660911400428,-90412.67221125032,3913.477529701892,-187500.02235174447,-187500.02235174447,-187500.02235174447,-187500.02235174447,-187500.02235174447,1730989344.4601903,1730989344.2778196,6000
-6879.106984032033,-90440.9471679863,3933.2811752892944,-187500.02235174447,-187500.02235174447,-187500.02235174447,-187500.02235174447,-187500.02235174447,1730989344.463196,1730989344.2778196,6000
-6885.745452135259,-90376.30592302156,3923.513462962325,-187500.02235174447,-187500.02235174447,-187500.02235174447,-187500.02235174447,-187500.02235174447,1730989344.4672115,1730989344.2778196,6000
-6881.185696266377,-90302.65692504132,3912.6952186459566,-187500.02235174447,-187500.02235174447,-187500.02235174447,-187500.02235174447,-187500.02235174447,1730989344.4712172,1730989344.2778196,6000
-6868.489905415762,-90336.18454172427,3921.121826305608,-187500.02235174447,-187500.02235174447,-187500.02235174447,-187500.02235174447,-187500.02235174447,1730989344.4752483,1730989344.2778196,6000
-6864.31012920262,-90402.3904088009,3938.578538725202,-187500.02235174447,-187500.02235174447,-187500.02235174447,-187500.02235174447,-187500.02235174447,1730989344.480274,1730989344.2778196,6000
-6880.31397823262,-90448.9490925013,3934.0858380896857,-187500.02235174447,-187500.02235174447,-187500.02235174447,-187500.02235174447,-187500.02235174447,1730989344.4842906,1730989344.2778196,6000
-6891.623960927005,-90378.51874572264,3911.48822444537,-187500.02235174447,-187500.02235174447,-187500.02235174447,-187500.02235174447,-187500.02235174447,1730989344.488335,1730989344.2778196,6000
-6884.896085845958,-90394.56729824154,3909.476567444393,-187500.02235174447,-187500.02235174447,-187500.02235174447,-187500.02235174447,-187500.02235174447,1730989344.4913375,1730989344.2778196,6000
-6877.385899708975,-90440.63424356392,3921.658268172535,-187500.02235174447,-187500.02235174447,-187500.02235174447,-187500.02235174447,-187500.02235174447,1730989344.4952452,1730989344.2778196,6000
-6877.989396809268,-90420.42826657632,3925.391009496571,-187500.02235174447,-187500.02235174447,-187500.02235174447,-187500.02235174447,-187500.02235174447,1730989344.4993243,1730989344.2778196,6000
-6876.424774697397,-90336.98920452468,3914.7068756469343,-187500.02235174447,-187500.02235174447,-187500.02235174447,-187500.02235174447,-187500.02235174447,1730989344.5032897,1730989344.2778196,6000
-6874.658986885427,-90361.59847516996,3912.3152389902166,-187500.02235174447,-187500.02235174447,-187500.02235174447,-187500.02235174447,-187500.02235174447,1730989344.5072792,1730989344.2778196,6000
-6869.272216471698,-90443.18234243184,3918.551375693247,-187500.02235174447,-187500.02235174447,-187500.02235174447,-187500.02235174447,-187500.02235174447,1730989344.51228,1730989344.2778196,6000
-6879.732832876782,-90449.08320296805,3916.8973466035545,-187500.02235174447,-187500.02235174447,-187500.02235174447,-187500.02235174447,-187500.02235174447,1730989344.5163493,1730989344.2778196,6000
-6890.215801026321,-90346.1757714958,3912.091721545664,-187500.02235174447,-187500.02235174447,-187500.02235174447,-187500.02235174447,-187500.02235174447,1730989344.5193703,1730989344.2778196,6000
-6873.697861873849,-90323.75697180712,3914.930393091488,-187500.02235174447,-187500.02235174447,-187500.02235174447,-187500.02235174447,-187500.02235174447,1730989344.5232944,1730989344.2778196,6000
-6875.374242707997,-90423.71397301124,3928.050867086753,-187500.02235174447,-187500.02235174447,-187500.02235174447,-187500.02235174447,-187500.02235174447,1730989344.527374,1730989344.2778196,6000
-6885.477231201796,-90471.36789218996,3941.171341082018,-187500.02235174447,-187500.02235174447,-187500.02235174447,-187500.02235174447,-187500.02235174447,1730989344.531336,1730989344.2778196,6000
-6888.561771936628,-90428.81017074706,3924.541643207269,-187500.02235174447,-187500.02235174447,-187500.02235174447,-187500.02235174447,-187500.02235174447,1730989344.5353277,1730989344.2778196,6000
-6892.853306872047,-90397.31656280954,3902.927506318988,-187500.02235174447,-187500.02235174447,-187500.02235174447,-187500.02235174447,-187500.02235174447,1730989344.540392,1730989344.2778196,6000
-6885.946617835358,-90393.6955802078,3914.5951169246578,-187500.02235174447,-187500.02235174447,-187500.02235174447,-187500.02235174447,-187500.02235174447,1730989344.5443575,1730989344.2778196,6000
-6873.429640940385,-90486.96940981978,3934.734038678889,-187500.02235174447,-187500.02235174447,-187500.02235174447,-187500.02235174447,-187500.02235174447,1730989344.5475376,1730989344.2778196,6000
-6881.766841622215,-90447.42917387834,3918.841948371166,-187500.02235174447,-187500.02235174447,-187500.02235174447,-187500.02235174447,-187500.02235174447,1730989344.5515091,1730989344.2778196,6000
-6889.969931837312,-90373.22138228672,3909.8118436112222,-187500.02235174447,-187500.02235174447,-187500.02235174447,-187500.02235174447,-187500.02235174447,1730989344.5555055,1730989344.2778196,6000
-6877.899989831447,-90442.24356916473,3919.691314660468,-187500.02235174447,-187500.02235174447,-187500.02235174447,-187500.02235174447,-187500.02235174447,1730989344.5594144,1730989344.2778196,6000
-6878.056452042634,-90476.7099591148,3929.771951409811,-187500.02235174447,-187500.02235174447,-187500.02235174447,-187500.02235174447,-187500.02235174447,1730989344.5634325,1730989344.2778196,6000
-6882.213876511321,-90418.21544387523,3929.324916520705,-187500.02235174447,-187500.02235174447,-187500.02235174447,-187500.02235174447,-187500.02235174447,1730989344.5684192,1730989344.2778196,6000
-6877.02827179769,-90358.35747222394,3921.188881538973,-187500.02235174447,-187500.02235174447,-187500.02235174447,-187500.02235174447,-187500.02235174447,1730989344.5724473,1730989344.2778196,6000
-6870.658024627927,-90439.27078715216,3925.592175196669,-187500.02235174447,-187500.02235174447,-187500.02235174447,-187500.02235174447,-187500.02235174447,1730989344.5754263,1730989344.2778196,6000
-6876.581236908583,-90527.1131428615,3934.331707278694,-187500.02235174447,-187500.02235174447,-187500.02235174447,-187500.02235174447,-187500.02235174447,1730989344.5795364,1730989344.2778196,6000
-6871.663853128416,-90514.48440724426,3929.034343842786,-187500.02235174447,-187500.02235174447,-187500.02235174447,-187500.02235174447,-187500.02235174447,1730989344.5835204,1730989344.2778196,6000
-6862.589044879562,-90401.42928378932,3912.874032601599,-187500.02235174447,-187500.02235174447,-187500.02235174447,-187500.02235174447,-187500.02235174447,1730989344.5875287,1730989344.2778196,6000
-6876.827106097592,-90421.7470194992,3909.767140122312,-187500.02235174447,-187500.02235174447,-187500.02235174447,-187500.02235174447,-187500.02235174447,1730989344.5914788,1730989344.2778196,6000
-6889.120565548011,-90489.9645435768,3926.8215211417114,-187500.02235174447,-187500.02235174447,-187500.02235174447,-187500.02235174447,-187500.02235174447,1730989344.5965548,1730989344.2778196,6000
-6864.801867580637,-90471.0102642787,3940.1208090926175,-187500.02235174447,-187500.02235174447,-187500.02235174447,-187500.02235174447,-187500.02235174447,1730989344.5995398,1730989344.2778196,6000
-6872.98260605128,-90411.2416996052,3918.417265226515,-187500.02235174447,-187500.02235174447,-187500.02235174447,-187500.02235174447,-187500.02235174447,1730989344.6034455,1730989344.2778196,6000
-6885.723100390805,-90417.20961537476,3910.39298896706,-187500.02235174447,-187500.02235174447,-187500.02235174447,-187500.02235174447,-187500.02235174447,1730989344.6074333,1730989344.2778196,6000
-6867.037042026168,-90478.94513356032,3925.234547285384,-187500.02235174447,-187500.02235174447,-187500.02235174447,-187500.02235174447,-187500.02235174447,1730989344.6114788,1730989344.2778196,6000
-6907.091368090078,-90483.75075861822,3927.022686841809,-187500.02235174447,-187500.02235174447,-187500.02235174447,-187500.02235174447,-187500.02235174447,1730989344.6154847,1730989344.2778196,6000
-6922.134092108499,-90366.53821069458,3933.370582267116,-187500.02235174447,-187500.02235174447,-187500.02235174447,-187500.02235174447,-187500.02235174447,1730989344.6195,1730989344.2778196,6000
-6902.464556987829,-90396.24367907568,3931.6271461996016,-187500.02235174447,-187500.02235174447,-187500.02235174447,-187500.02235174447,-187500.02235174447,1730989344.6245606,1730989344.2778196,6000
-6892.763899894226,-90465.28821769814,3931.224814799406,-187500.02235174447,-187500.02235174447,-187500.02235174447,-187500.02235174447,-187500.02235174447,1730989344.6275065,1730989344.2778196,6000
-6884.091423045567,-90498.18998553634,3943.6300329721016,-187500.02235174447,-187500.02235174447,-187500.02235174447,-187500.02235174447,-187500.02235174447,1730989344.6305883,1730989344.2778196,6000
-6886.84068761357,-90422.1493508994,3931.068352588219,-187500.02235174447,-187500.02235174447,-187500.02235174447,-187500.02235174447,-187500.02235174447,1730989344.6355054,1730989344.2778196,6000
-6883.800850367648,-90361.30790249204,3919.5795559381913,-187500.02235174447,-187500.02235174447,-187500.02235174447,-187500.02235174447,-187500.02235174447,1730989344.6395493,1730989344.2778196,6000
-6874.189600251866,-90432.31939462655,3928.7884746537775,-187500.02235174447,-187500.02235174447,-187500.02235174447,-187500.02235174447,-187500.02235174447,1730989344.6436524,1730989344.2778196,6000
-6876.380071208486,-90548.12378264948,3941.216044570928,-187500.02235174447,-187500.02235174447,-187500.02235174447,-187500.02235174447,-187500.02235174447,1730989344.647668,1730989344.2778196,6000
-6881.02923405519,-90561.31131187812,3927.6261839421018,-187500.02235174447,-187500.02235174447,-187500.02235174447,-187500.02235174447,-187500.02235174447,1730989344.6525793,1730989344.2778196,6000
-6887.175963780399,-90453.64295883692,3904.2462592418506,-187500.02235174447,-187500.02235174447,-187500.02235174447,-187500.02235174447,-187500.02235174447,1730989344.6556711,1730989344.2778196,6000
-6880.984530566279,-90380.30688527905,3921.837082128178,-187500.02235174447,-187500.02235174447,-187500.02235174447,-187500.02235174447,-187500.02235174447,1730989344.6586716,1730989344.2778196,6000
-6860.59973962304,-90489.91984008788,3945.373469039616,-187500.02235174447,-187500.02235174447,-187500.02235174447,-187500.02235174447,-187500.02235174447,1730989344.6637506,1730989344.2778196,6000
-6846.764009805204,-90498.2570407697,3937.192730568973,-187500.02235174447,-187500.02235174447,-187500.02235174447,-187500.02235174447,-187500.02235174447,1730989344.6677735,1730989344.2778196,6000
-6872.98260605128,-90425.47976082323,3913.969268079909,-187500.02235174447,-187500.02235174447,-187500.02235174447,-187500.02235174447,-187500.02235174447,1730989344.671684,1730989344.2778196,6000
-6888.360606236531,-90436.67798479531,3918.171396037507,-187500.02235174447,-187500.02235174447,-187500.02235174447,-187500.02235174447,-187500.02235174447,1730989344.6756551,1730989344.2778196,6000
-6872.088536273067,-90454.76054605968,3934.7787421678,-187500.02235174447,-187500.02235174447,-187500.02235174447,-187500.02235174447,-187500.02235174447,1730989344.6795533,1730989344.2778196,6000
-6881.36451022202,-90472.68664511284,3932.744733422367,-187500.02235174447,-187500.02235174447,-187500.02235174447,-187500.02235174447,-187500.02235174447,1730989344.6835704,1730989344.2778196,6000
-6890.282856259687,-90407.08427513653,3924.385180996082,-187500.02235174447,-187500.02235174447,-187500.02235174447,-187500.02235174447,-187500.02235174447,1730989344.686595,1730989344.2778196,6000
-6879.799888110148,-90469.602104378,3928.319088020216,-187500.02235174447,-187500.02235174447,-187500.02235174447,-187500.02235174447,-187500.02235174447,1730989344.6915765,1730989344.2778196,6000
-6869.428678682885,-90510.95283162032,3940.947823637465,-187500.02235174447,-187500.02235174447,-187500.02235174447,-187500.02235174447,-187500.02235174447,1730989344.6955965,1730989344.2778196,6000
-6861.672623356894,-90505.5660612066,3937.7738759248114,-187500.02235174447,-187500.02235174447,-187500.02235174447,-187500.02235174447,-187500.02235174447,1730989344.6995568,1730989344.2778196,6000
-6858.163399477411,-90433.3028713826,3924.161663551529,-187500.02235174447,-187500.02235174447,-187500.02235174447,-187500.02235174447,-187500.02235174447,1730989344.703651,1730989344.2778196,6000
-6871.082707772578,-90444.47874361023,3919.937183849476,-187500.02235174447,-187500.02235174447,-187500.02235174447,-187500.02235174447,-187500.02235174447,1730989344.7076204,1730989344.2778196,6000
-6882.482097444785,-90550.96245419532,3927.49207347537,-187500.02235174447,-187500.02235174447,-187500.02235174447,-187500.02235174447,-187500.02235174447,1730989344.711624,1730989344.2778196,6000
-6891.445146971363,-90561.69129153386,3928.542605464769,-187500.02235174447,-187500.02235174447,-187500.02235174447,-187500.02235174447,-187500.02235174447,1730989344.7146275,1730989344.2778196,6000
-6887.399481224952,-90476.32997945906,3921.479454216893,-187500.02235174447,-187500.02235174447,-187500.02235174447,-187500.02235174447,-187500.02235174447,1730989344.718643,1730989344.2778196,6000
-6873.206123495833,-90437.88497899592,3919.49014896037,-187500.02235174447,-187500.02235174447,-187500.02235174447,-187500.02235174447,-187500.02235174447,1730989344.72364,1730989344.2778196,6000
-6861.069126256601,-90477.00053179271,3938.422076514015,-187500.02235174447,-187500.02235174447,-187500.02235174447,-187500.02235174447,-187500.02235174447,1730989344.727654,1730989344.2778196,6000
-6857.917530288402,-90503.867328628,3947.675698718512,-187500.02235174447,-187500.02235174447,-187500.02235174447,-187500.02235174447,-187500.02235174447,1730989344.731674,1730989344.2778196,6000
-6863.21489372431,-90415.53323454062,3931.023649099309,-187500.02235174447,-187500.02235174447,-187500.02235174447,-187500.02235174447,-187500.02235174447,1730989344.734671,1730989344.2778196,6000
-6871.865018828514,-90389.15817608337,3921.4347507279817,-187500.02235174447,-187500.02235174447,-187500.02235174447,-187500.02235174447,-187500.02235174447,1730989344.7386527,1730989344.2778196,6000
-6865.472419914297,-90464.93058978685,3933.2588235448393,-187500.02235174447,-187500.02235174447,-187500.02235174447,-187500.02235174447,-187500.02235174447,1730989344.742668,1730989344.2778196,6000
-6866.478248414785,-90529.39302079596,3942.4677422604254,-187500.02235174447,-187500.02235174447,-187500.02235174447,-187500.02235174447,-187500.02235174447,1730989344.7466764,1730989344.2778196,6000
-6881.923303833402,-90468.28335145516,3936.835102657688,-187500.02235174447,-187500.02235174447,-187500.02235174447,-187500.02235174447,-187500.02235174447,1730989344.751696,1730989344.2778196,6000
-6887.622998669505,-90406.2349088472,3917.836119870677,-187500.02235174447,-187500.02235174447,-187500.02235174447,-187500.02235174447,-187500.02235174447,1730989344.7556927,1730989344.2778196,6000
-6869.182809493877,-90488.04229355363,3906.168509265007,-187500.02235174447,-187500.02235174447,-187500.02235174447,-187500.02235174447,-187500.02235174447,1730989344.759689,1730989344.2778196,6000
-6845.244091182243,-90496.7147704023,3915.0645035582193,-187500.02235174447,-187500.02235174447,-187500.02235174447,-187500.02235174447,-187500.02235174447,1730989344.7626777,1730989344.2778196,6000
-6810.956515187802,-90434.24164464972,3929.01199209833,-187500.02235174447,-187500.02235174447,-187500.02235174447,-187500.02235174447,-187500.02235174447,1730989344.7667243,1730989344.2778196,6000
-6830.536643330651,-90461.22020020726,3903.8215760972,-187500.02235174447,-187500.02235174447,-187500.02235174447,-187500.02235174447,-187500.02235174447,1730989344.7707229,1730989344.2778196,6000
-6890.081690559589,-90508.47178798578,3900.6923318734566,-187500.02235174447,-187500.02235174447,-187500.02235174447,-187500.02235174447,-187500.02235174447,1730989344.774736,1730989344.2778196,6000
-6879.822239854603,-90480.57681090556,3981.158611912562,-187500.02235174447,-187500.02235174447,-187500.02235174447,-187500.02235174447,-187500.02235174447,1730989344.7797165,1730989344.2778196,6000
-6856.710536087816,-90504.69434317284,4037.350897473204,-187500.02235174447,-187500.02235174447,-187500.02235174447,-187500.02235174447,-187500.02235174447,1730989344.7837722,1730989344.2778196,6000
-6850.966137762802,-90418.70718225327,4035.026316049852,-187500.02235174447,-187500.02235174447,-187500.02235174447,-187500.02235174447,-187500.02235174447,1730989344.787681,1730989344.2778196,6000
-6917.9543158953575,-90449.93256925732,3969.379242584616,-187500.02235174447,-187500.02235174447,-187500.02235174447,-187500.02235174447,-187500.02235174447,1730989344.79079,1730989344.2778196,6000
-6822.735884515749,-90553.89053271896,3942.713611449434,-187500.02235174447,-187500.02235174447,-187500.02235174447,-187500.02235174447,-187500.02235174447,1730989344.7949247,1730989344.2778196,6000
-6809.235430864744,-90549.71075650582,3943.16064633854,-187500.02235174447,-187500.02235174447,-187500.02235174447,-187500.02235174447,-187500.02235174447,1730989344.79882,1730989344.2778196,6000
-6795.377349302453,-90438.2426069072,3912.3152389902166,-187500.02235174447,-187500.02235174447,-187500.02235174447,-187500.02235174447,-187500.02235174447,1730989344.8027835,1730989344.2778196,6000
-6652.773219677594,-90407.33014432552,3949.35207955266,-187500.02235174447,-187500.02235174447,-187500.02235174447,-187500.02235174447,-187500.02235174447,1730989344.806909,1730989344.2778196,6000
-6794.371520801964,-90525.48146551628,4054.0700023257737,-187500.02235174447,-187500.02235174447,-187500.02235174447,-187500.02235174447,-187500.02235174447,1730989344.8118272,1730989344.2778196,6000
-6968.491610108807,-90572.44248061688,4317.1947380536485,-187500.02235174447,-187500.02235174447,-187500.02235174447,-187500.02235174447,-187500.02235174447,1730989344.8157735,1730989344.2778196,6000
-7131.636992888092,-90522.93336664836,4173.987111328496,-187500.02235174447,-187500.02235174447,-187500.02235174447,-187500.02235174447,-187500.02235174447,1730989344.8188305,1730989344.2778196,6000
-6980.472145136851,-90420.00358343168,3943.048887616264,-187500.02235174447,-187500.02235174447,-187500.02235174447,-187500.02235174447,-187500.02235174447,1730989344.8228085,1730989344.2778196,6000
-6651.700335943739,-90491.64092441094,3932.767085166822,-187500.02235174447,-187500.02235174447,-187500.02235174447,-187500.02235174447,-187500.02235174447,1730989344.8269196,1730989344.2778196,6000
-6577.537247841031,-90586.50172787928,3774.382623956517,-187500.02235174447,-187500.02235174447,-187500.02235174447,-187500.02235174447,-187500.02235174447,1730989344.8309076,1730989344.2778196,6000
-7011.71988388537,-90566.34045438057,3747.851103288067,-187500.02235174447,-187500.02235174447,-187500.02235174447,-187500.02235174447,-187500.02235174447,1730989344.8349044,1730989344.2778196,6000
-6990.999816775301,-90432.40880160435,3885.202572965929,-187500.02235174447,-187500.02235174447,-187500.02235174447,-187500.02235174447,-187500.02235174447,1730989344.8399425,1730989344.2778196,6000
-6789.498840510708,-90441.84123776451,3873.9596455049095,-187500.02235174447,-187500.02235174447,-187500.02235174447,-187500.02235174447,-187500.02235174447,1730989344.8438847,1730989344.2778196,6000
-6708.0490837155685,-90487.57290692008,3816.582717488136,-187500.02235174447,-187500.02235174447,-187500.02235174447,-187500.02235174447,-187500.02235174447,1730989344.8471136,1730989344.2778196,6000
-6829.575518319073,-90530.95764290782,3747.493475376782,-187500.02235174447,-187500.02235174447,-187500.02235174447,-187500.02235174447,-187500.02235174447,1730989344.8508282,1730989344.2778196,6000
-6748.706906879772,-90426.41853409036,3883.257971198317,-187500.02235174447,-187500.02235174447,-187500.02235174447,-187500.02235174447,-187500.02235174447,1730989344.8548503,1730989344.2778196,6000
-6910.354722780553,-90453.28533092565,4132.971660253008,-187500.02235174447,-187500.02235174447,-187500.02235174447,-187500.02235174447,-187500.02235174447,1730989344.8588789,1730989344.2778196,6000
-6964.423592617941,-90530.622366741,4112.028075698385,-187500.02235174447,-187500.02235174447,-187500.02235174447,-187500.02235174447,-187500.02235174447,1730989344.8628774,1730989344.2778196,6000
-6708.272601160122,-90495.79834887965,3823.668220480469,-187500.02235174447,-187500.02235174447,-187500.02235174447,-187500.02235174447,-187500.02235174447,1730989344.8678732,1730989344.2778196,6000
-6670.699318730751,-90487.32703773108,3744.207768941852,-187500.02235174447,-187500.02235174447,-187500.02235174447,-187500.02235174447,-187500.02235174447,1730989344.8709364,1730989344.2778196,6000
-6708.339656393488,-90478.16282250438,3896.646666127046,-187500.02235174447,-187500.02235174447,-187500.02235174447,-187500.02235174447,-187500.02235174447,1730989344.8750231,1730989344.2778196,6000
-6806.128538385456,-90456.9957205052,3981.113908423652,-187500.02235174447,-187500.02235174447,-187500.02235174447,-187500.02235174447,-187500.02235174447,1730989344.8790088,1730989344.2778196,6000
-6985.4565841503845,-90551.61065478453,3930.666021188024,-187500.02235174447,-187500.02235174447,-187500.02235174447,-187500.02235174447,-187500.02235174447,1730989344.8831136,1730989344.2778196,6000
-6646.067696341002,-90472.12785150146,4029.863063080676,-187500.02235174447,-187500.02235174447,-187500.02235174447,-187500.02235174447,-187500.02235174447,1730989344.887087,1730989344.2778196,6000
-6682.545743292063,-90442.98117673172,3987.864135249154,-187500.02235174447,-187500.02235174447,-187500.02235174447,-187500.02235174447,-187500.02235174447,1730989344.8909764,1730989344.2778196,6000
-7078.573951551194,-90596.1353297395,3889.0247212677855,-187500.02235174447,-187500.02235174447,-187500.02235174447,-187500.02235174447,-187500.02235174447,1730989344.8960922,1730989344.2778196,6000
-6844.126503959478,-90579.03624523118,3851.026755693764,-187500.02235174447,-187500.02235174447,-187500.02235174447,-187500.02235174447,-187500.02235174447,1730989344.8990233,1730989344.2778196,6000
-7010.937572829434,-90505.7672269067,3832.787732218234,-187500.02235174447,-187500.02235174447,-187500.02235174447,-187500.02235174447,-187500.02235174447,1730989344.901978,1730989344.2778196,6000
-6927.856138689058,-90463.36596767497,3744.2524724307623,-187500.02235174447,-187500.02235174447,-187500.02235174447,-187500.02235174447,-187500.02235174447,1730989344.9071772,1730989344.2778196,6000
-6869.562789149617,-90515.33377353357,3909.230698255384,-187500.02235174447,-187500.02235174447,-187500.02235174447,-187500.02235174447,-187500.02235174447,1730989344.9109445,1730989344.2778196,6000
-7029.780093405258,-90564.35114912404,4005.2761441798384,-187500.02235174447,-187500.02235174447,-187500.02235174447,-187500.02235174447,-187500.02235174447,1730989344.9150136,1730989344.2778196,6000
-7084.87714348759,-90498.12293030295,3765.956016296866,-187500.02235174447,-187500.02235174447,-187500.02235174447,-187500.02235174447,-187500.02235174447,1730989344.9189768,1730989344.2778196,6000
-6770.72337516825,-90372.14849855288,3913.119901790608,-187500.02235174447,-187500.02235174447,-187500.02235174447,-187500.02235174447,-187500.02235174447,1730989344.9240153,1730989344.2778196,6000
-6988.339959185119,-90513.45622699932,3752.679080090413,-187500.02235174447,-187500.02235174447,-187500.02235174447,-187500.02235174447,-187500.02235174447,1730989344.9271133,1730989344.2778196,6000
-6913.483967004296,-90572.80010852816,3878.4746978848816,-187500.02235174447,-187500.02235174447,-187500.02235174447,-187500.02235174447,-187500.02235174447,1730989344.9300864,1730989344.2778196,6000
-6899.916458119925,-90505.67781992888,4080.6909299720446,-187500.02235174447,-187500.02235174447,-187500.02235174447,-187500.02235174447,-187500.02235174447,1730989344.935179,1730989344.2778196,6000
-6763.660223920372,-90428.47489458024,3946.736925451389,-187500.02235174447,-187500.02235174447,-187500.02235174447,-187500.02235174447,-187500.02235174447,1730989344.9389813,1730989344.2778196,6000
-6731.317249693543,-90470.71969160077,3968.082841406208,-187500.02235174447,-187500.02235174447,-187500.02235174447,-187500.02235174447,-187500.02235174447,1730989344.9430747,1730989344.2778196,6000
-6934.315792836642,-90556.95272170934,3987.752376526878,-187500.02235174447,-187500.02235174447,-187500.02235174447,-187500.02235174447,-187500.02235174447,1730989344.9470963,1730989344.2778196,6000
-6819.271364125177,-90529.28126207368,3906.459081942926,-187500.02235174447,-187500.02235174447,-187500.02235174447,-187500.02235174447,-187500.02235174447,1730989344.9520674,1730989344.2778196,6000
-6476.663825114229,-90419.6906590093,3849.752706259812,-187500.02235174447,-187500.02235174447,-187500.02235174447,-187500.02235174447,-187500.02235174447,1730989344.9552004,1730989344.2778196,6000
-6801.34526507202,-90497.02769482466,3848.9256917149655,-187500.02235174447,-187500.02235174447,-187500.02235174447,-187500.02235174447,-187500.02235174447,1730989344.9580357,1730989344.2778196,6000
-6999.068796523667,-90564.39585261296,3893.651532370035,-187500.02235174447,-187500.02235174447,-187500.02235174447,-187500.02235174447,-187500.02235174447,1730989344.9631443,1730989344.2778196,6000
-6995.559572644183,-90536.83615169956,3960.125620380118,-187500.02235174447,-187500.02235174447,-187500.02235174447,-187500.02235174447,-187500.02235174447,1730989344.967128,1730989344.2778196,6000
-6879.710481132327,-90477.42521493736,3884.263799698806,-187500.02235174447,-187500.02235174447,-187500.02235174447,-187500.02235174447,-187500.02235174447,1730989344.97147,1730989344.2778196,6000
-6878.011748553723,-90541.30650059062,3885.269628199295,-187500.02235174447,-187500.02235174447,-187500.02235174447,-187500.02235174447,-187500.02235174447,1730989344.975118,1730989344.2778196,6000
-6782.256875307188,-90582.0313789882,4022.911670555076,-187500.02235174447,-187500.02235174447,-187500.02235174447,-187500.02235174447,-187500.02235174447,1730989344.979114,1730989344.2778196,6000
-6824.769893261182,-90559.85844848854,3989.674626550034,-187500.02235174447,-187500.02235174447,-187500.02235174447,-187500.02235174447,-187500.02235174447,1730989344.9831374,1730989344.2778196,6000
-6726.131644979912,-90477.04523528162,3889.359997434616,-187500.02235174447,-187500.02235174447,-187500.02235174447,-187500.02235174447,-187500.02235174447,1730989344.986066,1730989344.2778196,6000
-6935.053400403667,-90516.65252645644,3822.617688491069,-187500.02235174447,-187500.02235174447,-187500.02235174447,-187500.02235174447,-187500.02235174447,1730989344.9910853,1730989344.2778196,6000
-6855.838818054059,-90561.31131187812,3847.9869184478425,-187500.02235174447,-187500.02235174447,-187500.02235174447,-187500.02235174447,-187500.02235174447,1730989344.995087,1730989344.2778196,6000
-6911.718179192327,-90566.60867531404,3889.6729218569903,-187500.02235174447,-187500.02235174447,-187500.02235174447,-187500.02235174447,-187500.02235174447,1730989344.999082,1730989344.2778196,6000
-6870.523914161196,-90490.56804067708,3954.269463332828,-187500.02235174447,-187500.02235174447,-187500.02235174447,-187500.02235174447,-187500.02235174447,1730989345.0030744,1730989344.2778196,6000
-6768.309386767076,-90517.74776193472,3909.230698255384,-187500.02235174447,-187500.02235174447,-187500.02235174447,-187500.02235174447,-187500.02235174447,1730989345.0070975,1730989344.2778196,6000
-6823.741713016238,-90572.24131491676,3885.470793899392,-187500.02235174447,-187500.02235174447,-187500.02235174447,-187500.02235174447,-187500.02235174447,1730989345.010105,1730989344.2778196,6000
-6704.785729025094,-90563.9711694683,3904.358017964127,-187500.02235174447,-187500.02235174447,-187500.02235174447,-187500.02235174447,-187500.02235174447,1730989345.0141225,1730989344.2778196,6000
-6633.2154432792,-90486.4553196973,3929.459026987437,-187500.02235174447,-187500.02235174447,-187500.02235174447,-187500.02235174447,-187500.02235174447,1730989345.01812,1730989344.2778196,6000
-6988.719938840859,-90552.25885537372,3933.527044478303,-187500.02235174447,-187500.02235174447,-187500.02235174447,-187500.02235174447,-187500.02235174447,1730989345.0231223,1730989344.2778196,6000
-6779.641721205917,-90573.73888179527,3963.724251237423,-187500.02235174447,-187500.02235174447,-187500.02235174447,-187500.02235174447,-187500.02235174447,1730989345.027084,1730989344.2778196,6000
-6914.869775160525,-90589.67567559192,3866.158886690008,-187500.02235174447,-187500.02235174447,-187500.02235174447,-187500.02235174447,-187500.02235174447,1730989345.031099,1730989344.2778196,6000
-6843.187730692355,-90467.47868865477,3968.6863385065008,-187500.02235174447,-187500.02235174447,-187500.02235174447,-187500.02235174447,-187500.02235174447,1730989345.034132,1730989344.2778196,6000
-6751.634985403417,-90451.76541230267,3951.4978470203696,-187500.02235174447,-187500.02235174447,-187500.02235174447,-187500.02235174447,-187500.02235174447,1730989345.0381424,1730989344.2778196,6000
-6675.437888555275,-90537.08202088856,3962.919588437032,-187500.02235174447,-187500.02235174447,-187500.02235174447,-187500.02235174447,-187500.02235174447,1730989345.0421395,1730989344.2778196,6000
-6653.376716777888,-90559.03143394367,3915.8915181030657,-187500.02235174447,-187500.02235174447,-187500.02235174447,-187500.02235174447,-187500.02235174447,1730989345.0471551,1730989344.2778196,6000
-6891.758071393737,-90519.89352940244,3922.172358295007,-187500.02235174447,-187500.02235174447,-187500.02235174447,-187500.02235174447,-187500.02235174447,1730989345.051168,1730989344.2778196,6000
-7027.120235815077,-90509.23174729726,3853.328985372661,-187500.02235174447,-187500.02235174447,-187500.02235174447,-187500.02235174447,-187500.02235174447,1730989345.055158,1730989344.2778196,6000
-6754.205436015777,-90522.4639800148,3905.117977275608,-187500.02235174447,-187500.02235174447,-187500.02235174447,-187500.02235174447,-187500.02235174447,1730989345.0591905,1730989344.2778196,6000
-6792.181049845344,-90562.56300956765,3970.586236785202,-187500.02235174447,-187500.02235174447,-187500.02235174447,-187500.02235174447,-187500.02235174447,1730989345.0622065,1730989344.2778196,6000
-6799.1547941154,-90535.36093656551,3924.273422273806,-187500.02235174447,-187500.02235174447,-187500.02235174447,-187500.02235174447,-187500.02235174447,1730989345.066189,1730989344.2778196,6000
-6852.843684297048,-90514.73027643329,3933.6611549450345,-187500.02235174447,-187500.02235174447,-187500.02235174447,-187500.02235174447,-187500.02235174447,1730989345.0701733,1730989344.2778196,6000
-6815.359808845497,-90485.91887783038,3885.716663088401,-187500.02235174447,-187500.02235174447,-187500.02235174447,-187500.02235174447,-187500.02235174447,1730989345.07422,1730989344.2778196,6000
-6992.76560458727,-90622.10805679655,3778.2941792361953,-187500.02235174447,-187500.02235174447,-187500.02235174447,-187500.02235174447,-187500.02235174447,1730989345.0792024,1730989344.2778196,6000
-6741.084962020513,-90588.84866104709,3987.797080015788,-187500.02235174447,-187500.02235174447,-187500.02235174447,-187500.02235174447,-187500.02235174447,1730989345.0831983,1730989344.2778196,6000
-6803.0216459061685,-90490.16570927687,4010.12647272664,-187500.02235174447,-187500.02235174447,-187500.02235174447,-187500.02235174447,-187500.02235174447,1730989345.0872416,1730989344.2778196,6000
-6789.409433532886,-90499.6652006704,3949.1509138525626,-187500.02235174447,-187500.02235174447,-187500.02235174447,-187500.02235174447,-187500.02235174447,1730989345.0902245,1730989344.2778196,6000
-6725.684610090806,-90556.52803856468,4018.240155963917,-187500.02235174447,-187500.02235174447,-187500.02235174447,-187500.02235174447,-187500.02235174447,1730989345.0942442,1730989344.2778196,6000
-6775.305482781588,-90554.2258088858,3970.83210597421,-187500.02235174447,-187500.02235174447,-187500.02235174447,-187500.02235174447,-187500.02235174447,1730989345.098237,1730989344.2778196,6000
-6707.177365681811,-90452.27950242514,3940.701954448457,-187500.02235174447,-187500.02235174447,-187500.02235174447,-187500.02235174447,-187500.02235174447,1730989345.1022923,1730989344.2778196,6000
-6784.424994519352,-90504.38141875046,3941.3054515487497,-187500.02235174447,-187500.02235174447,-187500.02235174447,-187500.02235174447,-187500.02235174447,1730989345.1072965,1730989344.2778196,6000
-6862.521989646196,-90552.48237281828,3925.033381585286,-187500.02235174447,-187500.02235174447,-187500.02235174447,-187500.02235174447,-187500.02235174447,1730989345.1112757,1730989344.2778196,6000
-6896.31782726262,-90528.07426787307,4029.79600784731,-187500.02235174447,-187500.02235174447,-187500.02235174447,-187500.02235174447,-187500.02235174447,1730989345.1152687,1730989344.2778196,6000
-6786.414299775875,-90528.07426787307,3954.045945888274,-187500.02235174447,-187500.02235174447,-187500.02235174447,-187500.02235174447,-187500.02235174447,1730989345.118419,1730989344.2778196,6000
-6750.316232480554,-90503.4649972278,3897.965419049909,-187500.02235174447,-187500.02235174447,-187500.02235174447,-187500.02235174447,-187500.02235174447,1730989345.1224124,1730989344.2778196,6000
-6707.691455804284,-90485.87417434149,3898.837137083666,-187500.02235174447,-187500.02235174447,-187500.02235174447,-187500.02235174447,-187500.02235174447,1730989345.1264386,1730989344.2778196,6000
-6801.211154605288,-90626.37723998752,3880.19578220794,-187500.02235174447,-187500.02235174447,-187500.02235174447,-187500.02235174447,-187500.02235174447,1730989345.1304505,1730989344.2778196,6000
-6770.835133890526,-90608.62995489,3870.740994303346,-187500.02235174447,-187500.02235174447,-187500.02235174447,-187500.02235174447,-187500.02235174447,1730989345.135306,1730989344.2778196,6000
-6632.746056645639,-90471.12202300096,3910.907079089532,-187500.02235174447,-187500.02235174447,-187500.02235174447,-187500.02235174447,-187500.02235174447,1730989345.1394725,1730989344.2778196,6000
-7025.242689280831,-90561.35601536704,3844.589453290636,-187500.02235174447,-187500.02235174447,-187500.02235174447,-187500.02235174447,-187500.02235174447,1730989345.1423666,1730989344.2778196,6000
-6884.069071301112,-90587.90988777994,3946.424001029015,-187500.02235174447,-187500.02235174447,-187500.02235174447,-187500.02235174447,-187500.02235174447,1730989345.146376,1730989344.2778196,6000
-6773.517343225163,-90524.20741608232,4003.510356367869,-187500.02235174447,-187500.02235174447,-187500.02235174447,-187500.02235174447,-187500.02235174447,1730989345.1504347,1730989344.2778196,6000
-6807.089663397034,-90504.42612223935,3959.0080331573527,-187500.02235174447,-187500.02235174447,-187500.02235174447,-187500.02235174447,-187500.02235174447,1730989345.1544485,1730989344.2778196,6000
-6760.866255863459,-90450.02197623516,4028.186682246528,-187500.02235174447,-187500.02235174447,-187500.02235174447,-187500.02235174447,-187500.02235174447,1730989345.158442,1730989344.2778196,6000
-6749.824494102538,-90516.67487820088,4084.200153851528,-187500.02235174447,-187500.02235174447,-187500.02235174447,-187500.02235174447,-187500.02235174447,1730989345.162469,1730989344.2778196,6000
-6752.931386581825,-90507.86829088548,3961.444373302981,-187500.02235174447,-187500.02235174447,-187500.02235174447,-187500.02235174447,-187500.02235174447,1730989345.1675596,1730989344.2778196,6000
-6666.050155884047,-90460.21437170678,3886.923657288988,-187500.02235174447,-187500.02235174447,-187500.02235174447,-187500.02235174447,-187500.02235174447,1730989345.1705563,1730989344.2778196,6000
-6876.871809586502,-90513.50093048824,3953.9565389104537,-187500.02235174447,-187500.02235174447,-187500.02235174447,-187500.02235174447,-187500.02235174447,1730989345.1745884,1730989344.2778196,6000
-6862.186713479366,-90550.80599198412,4011.60168786069,-187500.02235174447,-187500.02235174447,-187500.02235174447,-187500.02235174447,-187500.02235174447,1730989345.1785548,1730989344.2778196,6000
-6829.374352618976,-90527.67193647288,3921.859433872633,-187500.02235174447,-187500.02235174447,-187500.02235174447,-187500.02235174447,-187500.02235174447,1730989345.1824963,1730989344.2778196,6000
-6784.894381152914,-90462.91893278586,3856.234712151851,-187500.02235174447,-187500.02235174447,-187500.02235174447,-187500.02235174447,-187500.02235174447,1730989345.1864529,1730989344.2778196,6000
-6879.643425898961,-90498.34644774754,3899.15006150604,-187500.02235174447,-187500.02235174447,-187500.02235174447,-187500.02235174447,-187500.02235174447,1730989345.1905067,1730989344.2778196,6000
-6929.711333478848,-90560.9313322224,3761.17274298343,-187500.02235174447,-187500.02235174447,-187500.02235174447,-187500.02235174447,-187500.02235174447,1730989345.1954875,1730989344.2778196,6000
-6793.499802768208,-90541.19474186836,3919.5795559381913,-187500.02235174447,-187500.02235174447,-187500.02235174447,-187500.02235174447,-187500.02235174447,1730989345.1986456,1730989344.2778196,6000
-6675.057908899536,-90471.79257533462,4048.079734811752,-187500.02235174447,-187500.02235174447,-187500.02235174447,-187500.02235174447,-187500.02235174447,1730989345.2025435,1730989344.2778196,6000
-6578.878352508349,-90458.2027147058,4020.4306269205367,-187500.02235174447,-187500.02235174447,-187500.02235174447,-187500.02235174447,-187500.02235174447,1730989345.2066178,1730989344.2778196,6000
-6745.912938822858,-90534.75743946522,3967.278178605816,-187500.02235174447,-187500.02235174447,-187500.02235174447,-187500.02235174447,-187500.02235174447,1730989345.210543,1730989344.2778196,6000
-6871.194466494855,-90552.84000072956,3969.848629218177,-187500.02235174447,-187500.02235174447,-187500.02235174447,-187500.02235174447,-187500.02235174447,1730989345.2145567,1730989344.2778196,6000
-6828.770855518682,-90480.353293461,4036.8591590951874,-187500.02235174447,-187500.02235174447,-187500.02235174447,-187500.02235174447,-187500.02235174447,1730989345.2185593,1730989344.2778196,6000
-6795.824384191559,-90437.30383364008,3991.440414362004,-187500.02235174447,-187500.02235174447,-187500.02235174447,-187500.02235174447,-187500.02235174447,1730989345.2235584,1730989344.2778196,6000
-6676.331958333488,-90517.18896832336,3964.998300671375,-187500.02235174447,-187500.02235174447,-187500.02235174447,-187500.02235174447,-187500.02235174447,1730989345.227348,1730989344.2778196,6000
-6720.633115843906,-90579.03624523118,3934.801093912256,-187500.02235174447,-187500.02235174447,-187500.02235174447,-187500.02235174447,-187500.02235174447,1730989345.229528,1730989344.2778196,6000
-6830.82721600857,-90551.18597163988,3969.401594329071,-187500.02235174447,-187500.02235174447,-187500.02235174447,-187500.02235174447,-187500.02235174447,1730989345.2344396,1730989344.2778196,6000
-6915.585030983095,-90469.49034565572,3868.058784968709,-187500.02235174447,-187500.02235174447,-187500.02235174447,-187500.02235174447,-187500.02235174447,1730989345.238598,1730989344.2778196,6000
-6752.126723781434,-90476.93347655934,3894.590305637158,-187500.02235174447,-187500.02235174447,-187500.02235174447,-187500.02235174447,-187500.02235174447,1730989345.242682,1730989344.2778196,6000
-6586.634407834341,-90529.3706690515,4002.2363069339167,-187500.02235174447,-187500.02235174447,-187500.02235174447,-187500.02235174447,-187500.02235174447,1730989345.246592,1730989344.2778196,6000
-6827.675620040372,-90530.64471848543,3938.131503836096,-187500.02235174447,-187500.02235174447,-187500.02235174447,-187500.02235174447,-187500.02235174447,1730989345.2496648,1730989344.2778196,6000
-6906.51022273424,-90470.13854624493,3874.2949216717393,-187500.02235174447,-187500.02235174447,-187500.02235174447,-187500.02235174447,-187500.02235174447,1730989345.2535424,1730989344.2778196,6000
-6750.159770269367,-90491.48446219976,3876.6418548395454,-187500.02235174447,-187500.02235174447,-187500.02235174447,-187500.02235174447,-187500.02235174447,1730989345.2575824,1730989344.2778196,6000
-6796.539640014129,-90553.51055306324,3927.022686841809,-187500.02235174447,-187500.02235174447,-187500.02235174447,-187500.02235174447,-187500.02235174447,1730989345.2625856,1730989344.2778196,6000
-6849.669736584394,-90524.69915446034,3919.445445471459,-187500.02235174447,-187500.02235174447,-187500.02235174447,-187500.02235174447,-187500.02235174447,1730989345.2665958,1730989344.2778196,6000
-6743.320136466043,-90424.18335964484,4004.940868013009,-187500.02235174447,-187500.02235174447,-187500.02235174447,-187500.02235174447,-187500.02235174447,1730989345.270677,1730989344.2778196,6000
-6914.087464104589,-90503.4649972278,3953.263634832339,-187500.02235174447,-187500.02235174447,-187500.02235174447,-187500.02235174447,-187500.02235174447,1730989345.2745569,1730989344.2778196,6000
-6772.712680424772,-90561.46777408932,3960.304434335761,-187500.02235174447,-187500.02235174447,-187500.02235174447,-187500.02235174447,-187500.02235174447,1730989345.2785876,1730989344.2778196,6000
-6787.755404443194,-90567.83802125909,4016.6531821075896,-187500.02235174447,-187500.02235174447,-187500.02235174447,-187500.02235174447,-187500.02235174447,1730989345.2816656,1730989344.2778196,6000
-6936.908595193458,-90459.11913622846,3853.306633628206,-187500.02235174447,-187500.02235174447,-187500.02235174447,-187500.02235174447,-187500.02235174447,1730989345.2855792,1730989344.2778196,6000
-6794.05859637959,-90463.7012438418,3867.8129157797,-187500.02235174447,-187500.02235174447,-187500.02235174447,-187500.02235174447,-187500.02235174447,1730989345.2896688,1730989344.2778196,6000
-6702.259981901644,-90537.68551798888,4017.189623974517,-187500.02235174447,-187500.02235174447,-187500.02235174447,-187500.02235174447,-187500.02235174447,1730989345.2946808,1730989344.2778196,6000
-6617.658629138306,-90545.37451808147,3989.249943405384,-187500.02235174447,-187500.02235174447,-187500.02235174447,-187500.02235174447,-187500.02235174447,1730989345.2986813,1730989344.2778196,6000
-6638.065771826002,-90464.01416826416,3916.427959969993,-187500.02235174447,-187500.02235174447,-187500.02235174447,-187500.02235174447,-187500.02235174447,1730989345.302709,1730989344.2778196,6000
-6936.461560304351,-90513.8138549106,3904.760349364323,-187500.02235174447,-187500.02235174447,-187500.02235174447,-187500.02235174447,-187500.02235174447,1730989345.3065815,1730989344.2778196,6000
-6820.947744959324,-90521.59226198104,3926.888576375077,-187500.02235174447,-187500.02235174447,-187500.02235174447,-187500.02235174447,-187500.02235174447,1730989345.309572,1730989344.2778196,6000
-6781.541619484618,-90518.93240439089,3964.21598961544,-187500.02235174447,-187500.02235174447,-187500.02235174447,-187500.02235174447,-187500.02235174447,1730989345.3136373,1730989344.2778196,6000
-6816.767968746182,-90540.25596860122,3939.53966373678,-187500.02235174447,-187500.02235174447,-187500.02235174447,-187500.02235174447,-187500.02235174447,1730989345.318638,1730989344.2778196,6000
-6758.921654095848,-90454.73819431524,3868.8634477690994,-187500.02235174447,-187500.02235174447,-187500.02235174447,-187500.02235174447,-187500.02235174447,1730989345.3226757,1730989344.2778196,6000
-6639.429228237776,-90465.37762467597,4023.269298466361,-187500.02235174447,-187500.02235174447,-187500.02235174447,-187500.02235174447,-187500.02235174447,1730989345.326615,1730989344.2778196,6000
-6684.244475870666,-90559.0761374326,4029.79600784731,-187500.02235174447,-187500.02235174447,-187500.02235174447,-187500.02235174447,-187500.02235174447,1730989345.3306491,1730989344.2778196,6000
-6738.916842808348,-90541.35120407952,3983.6620072915566,-187500.02235174447,-187500.02235174447,-187500.02235174447,-187500.02235174447,-187500.02235174447,1730989345.333756,1730989344.2778196,6000
-6857.001108765735,-90458.8956187839,3932.5435677222695,-187500.02235174447,-187500.02235174447,-187500.02235174447,-187500.02235174447,-187500.02235174447,1730989345.3376608,1730989344.2778196,6000
-6846.071105727089,-90506.6612966849,3941.707782948946,-187500.02235174447,-187500.02235174447,-187500.02235174447,-187500.02235174447,-187500.02235174447,1730989345.34167,1730989344.2778196,6000
-6753.691345893306,-90547.87791346048,3976.1741728990287,-187500.02235174447,-187500.02235174447,-187500.02235174447,-187500.02235174447,-187500.02235174447,1730989345.3456855,1730989344.2778196,6000
-6821.327724615065,-90489.6069156655,3994.7261207969336,-187500.02235174447,-187500.02235174447,-187500.02235174447,-187500.02235174447,-187500.02235174447,1730989345.3507488,1730989344.2778196,6000
-6841.801922536126,-90469.08801425553,3914.192785524462,-187500.02235174447,-187500.02235174447,-187500.02235174447,-187500.02235174447,-187500.02235174447,1730989345.3547046,1730989344.2778196,6000
-6733.328906694521,-90473.24543872422,3868.997558235831,-187500.02235174447,-187500.02235174447,-187500.02235174447,-187500.02235174447,-187500.02235174447,1730989345.358712,1730989344.2778196,6000
-6722.1977379557775,-90499.6652006704,3972.754355997367,-187500.02235174447,-187500.02235174447,-187500.02235174447,-187500.02235174447,-187500.02235174447,1730989345.361749,1730989344.2778196,6000
-6813.772834989171,-90529.05774462911,4056.305176771305,-187500.02235174447,-187500.02235174447,-187500.02235174447,-187500.02235174447,-187500.02235174447,1730989345.3657053,1730989344.2778196,6000
-6724.90229903487,-90415.13090314042,3942.311280049239,-187500.02235174447,-187500.02235174447,-187500.02235174447,-187500.02235174447,-187500.02235174447,1730989345.3697195,1730989344.2778196,6000
-6775.305482781588,-90440.43307786384,3875.09958447213,-187500.02235174447,-187500.02235174447,-187500.02235174447,-187500.02235174447,-187500.02235174447,1730989345.3737147,1730989344.2778196,6000
-6925.218632843332,-90555.00811994172,3868.4164128799935,-187500.02235174447,-187500.02235174447,-187500.02235174447,-187500.02235174447,-187500.02235174447,1730989345.3787167,1730989344.2778196,6000
-6825.1498729169225,-90538.2219598558,3912.181128523485,-187500.02235174447,-187500.02235174447,-187500.02235174447,-187500.02235174447,-187500.02235174447,1730989345.3827293,1730989344.2778196,6000
-6675.683757744284,-90412.98513567272,4037.37324921766,-187500.02235174447,-187500.02235174447,-187500.02235174447,-187500.02235174447,-187500.02235174447,1730989345.3857384,1730989344.2778196,6000
-6655.03074586758,-90442.78001103165,3955.588216255691,-187500.02235174447,-187500.02235174447,-187500.02235174447,-187500.02235174447,-187500.02235174447,1730989345.3897543,1730989344.2778196,6000
-6795.287942324632,-90544.03341341416,3911.152948278541,-187500.02235174447,-187500.02235174447,-187500.02235174447,-187500.02235174447,-187500.02235174447,1730989345.3937347,1730989344.2778196,6000
-6742.940156810303,-90562.65241654545,3930.3307450211937,-187500.02235174447,-187500.02235174447,-187500.02235174447,-187500.02235174447,-187500.02235174447,1730989345.3977797,1730989344.2778196,6000
-6880.336329977075,-90490.50098544372,3951.073163875719,-187500.02235174447,-187500.02235174447,-187500.02235174447,-187500.02235174447,-187500.02235174447,1730989345.4017944,1730989344.2778196,6000
-6873.0496612846455,-90451.0054529912,3945.887559162088,-187500.02235174447,-187500.02235174447,-187500.02235174447,-187500.02235174447,-187500.02235174447,1730989345.4067748,1730989344.2778196,6000
-6712.89941226237,-90523.15688409292,3918.707837904434,-187500.02235174447,-187500.02235174447,-187500.02235174447,-187500.02235174447,-187500.02235174447,1730989345.4107788,1730989344.2778196,6000
-6790.549372500107,-90557.131535665,3928.497901975859,-187500.02235174447,-187500.02235174447,-187500.02235174447,-187500.02235174447,-187500.02235174447,1730989345.4137893,1730989344.2778196,6000
-6768.711718167272,-90487.03646505314,4027.806702590788,-187500.02235174447,-187500.02235174447,-187500.02235174447,-187500.02235174447,-187500.02235174447,1730989345.417788,1730989344.2778196,6000
-6741.531996909618,-90421.344688099,3948.279195818805,-187500.02235174447,-187500.02235174447,-187500.02235174447,-187500.02235174447,-187500.02235174447,1730989345.4218388,1730989344.2778196,6000
-6809.280134353654,-90515.04320085564,3895.909058560021,-187500.02235174447,-187500.02235174447,-187500.02235174447,-187500.02235174447,-187500.02235174447,1730989345.4258106,1730989344.2778196,6000
-6728.791502570093,-90547.65439601592,3972.508486808358,-187500.02235174447,-187500.02235174447,-187500.02235174447,-187500.02235174447,-187500.02235174447,1730989345.429868,1730989344.2778196,6000
-6760.374517485442,-90516.3172502896,3942.4677422604254,-187500.02235174447,-187500.02235174447,-187500.02235174447,-187500.02235174447,-187500.02235174447,1730989345.4338665,1730989344.2778196,6000
-6868.556960649128,-90418.03662991962,3867.544694846236,-187500.02235174447,-187500.02235174447,-187500.02235174447,-187500.02235174447,-187500.02235174447,1730989345.4388366,1730989344.2778196,6000
-6754.518360438152,-90490.52333718818,3941.573672482213,-187500.02235174447,-187500.02235174447,-187500.02235174447,-187500.02235174447,-187500.02235174447,1730989345.441964,1730989344.2778196,6000
-6679.237685112677,-90577.11399520804,4017.904879797087,-187500.02235174447,-187500.02235174447,-187500.02235174447,-187500.02235174447,-187500.02235174447,1730989345.446132,1730989344.2778196,6000
-6779.529962483641,-90508.67295368588,4003.823280790244,-187500.02235174447,-187500.02235174447,-187500.02235174447,-187500.02235174447,-187500.02235174447,1730989345.4499972,1730989344.2778196,6000
-6930.694810234882,-90465.98112177625,3870.293959414239,-187500.02235174447,-187500.02235174447,-187500.02235174447,-187500.02235174447,-187500.02235174447,1730989345.4539986,1730989344.2778196,6000
-6832.59300382054,-90515.87021540049,3930.7777799103,-187500.02235174447,-187500.02235174447,-187500.02235174447,-187500.02235174447,-187500.02235174447,1730989345.45802,1730989344.2778196,6000
-6809.436596564841,-90558.29382637666,4004.516184868358,-187500.02235174447,-187500.02235174447,-187500.02235174447,-187500.02235174447,-187500.02235174447,1730989345.4622147,1730989344.2778196,6000
-6847.434562138863,-90505.1637298064,4002.0798447227294,-187500.02235174447,-187500.02235174447,-187500.02235174447,-187500.02235174447,-187500.02235174447,1730989345.4669194,1730989344.2778196,6000
-6828.748503774226,-90469.02095902216,3850.758534760301,-187500.02235174447,-187500.02235174447,-187500.02235174447,-187500.02235174447,-187500.02235174447,1730989345.4700232,1730989344.2778196,6000
-6829.039076452145,-90435.35923187248,3776.46133619086,-187500.02235174447,-187500.02235174447,-187500.02235174447,-187500.02235174447,-187500.02235174447,1730989345.474192,1730989344.2778196,6000
-6858.476323899785,-90513.27741304367,3759.295196449185,-187500.02235174447,-187500.02235174447,-187500.02235174447,-187500.02235174447,-187500.02235174447,1730989345.4780064,1730989344.2778196,6000
-6656.662423212818,-90443.53997034312,4044.279938254349,-187500.02235174447,-187500.02235174447,-187500.02235174447,-187500.02235174447,-187500.02235174447,1730989345.48216,1730989344.2778196,6000
-6576.352605384899,-90403.50799602366,4006.326676169238,-187500.02235174447,-187500.02235174447,-187500.02235174447,-187500.02235174447,-187500.02235174447,1730989345.4861395,1730989344.2778196,6000
-6736.748723596183,-90448.30089191208,3944.479399261403,-187500.02235174447,-187500.02235174447,-187500.02235174447,-187500.02235174447,-187500.02235174447,1730989345.4902053,1730989344.2778196,6000
-6908.655990201949,-90493.09378780054,4024.364533944671,-187500.02235174447,-187500.02235174447,-187500.02235174447,-187500.02235174447,-187500.02235174447,1730989345.495021,1730989344.2778196,6000
-6808.877802953459,-90457.08512748303,4004.829109290733,-187500.02235174447,-187500.02235174447,-187500.02235174447,-187500.02235174447,-187500.02235174447,1730989345.4980185,1730989344.2778196,6000
-6770.835133890526,-90467.7022060993,3928.184977553484,-187500.02235174447,-187500.02235174447,-187500.02235174447,-187500.02235174447,-187500.02235174447,1730989345.50201,1730989344.2778196,6000
-6710.261906416644,-90418.05898166409,3937.282137546794,-187500.02235174447,-187500.02235174447,-187500.02235174447,-187500.02235174447,-187500.02235174447,1730989345.506175,1730989344.2778196,6000
-6624.677076897273,-90450.89369426892,3933.012954355831,-187500.02235174447,-187500.02235174447,-187500.02235174447,-187500.02235174447,-187500.02235174447,1730989345.510032,1730989344.2778196,6000
-6773.763212414171,-90525.50381726072,3939.964346881431,-187500.02235174447,-187500.02235174447,-187500.02235174447,-187500.02235174447,-187500.02235174447,1730989345.5139537,1730989344.2778196,6000
-6797.187840603333,-90452.79359254762,3938.4667800029256,-187500.02235174447,-187500.02235174447,-187500.02235174447,-187500.02235174447,-187500.02235174447,1730989345.5179634,1730989344.2778196,6000
-6793.388044045931,-90411.62167926092,3930.554262465747,-187500.02235174447,-187500.02235174447,-187500.02235174447,-187500.02235174447,-187500.02235174447,1730989345.5222335,1730989344.2778196,6000
-6801.4346720498415,-90493.13849128944,3913.231660512884,-187500.02235174447,-187500.02235174447,-187500.02235174447,-187500.02235174447,-187500.02235174447,1730989345.525224,1730989344.2778196,6000
-6776.244256048711,-90535.2715295877,3969.580408284713,-187500.02235174447,-187500.02235174447,-187500.02235174447,-187500.02235174447,-187500.02235174447,1730989345.530229,1730989344.2778196,6000
-6784.626160219451,-90477.64873238192,4042.3353364867376,-187500.02235174447,-187500.02235174447,-187500.02235174447,-187500.02235174447,-187500.02235174447,1730989345.534237,1730989344.2778196,6000
-6773.226770547244,-90429.81599924756,3898.121881261096,-187500.02235174447,-187500.02235174447,-187500.02235174447,-187500.02235174447,-187500.02235174447,1730989345.5383472,1730989344.2778196,6000
-6780.178163072845,-90423.2445863777,3903.642762141557,-187500.02235174447,-187500.02235174447,-187500.02235174447,-187500.02235174447,-187500.02235174447,1730989345.5422745,1730989344.2778196,6000
-6935.835711459603,-90554.04699493016,3817.0297523772415,-187500.02235174447,-187500.02235174447,-187500.02235174447,-187500.02235174447,-187500.02235174447,1730989345.5463812,1730989344.2778196,6000
-6819.696047269827,-90538.89251218946,3888.622389867591,-187500.02235174447,-187500.02235174447,-187500.02235174447,-187500.02235174447,-187500.02235174447,1730989345.5502567,1730989344.2778196,6000
-6841.69016381385,-90430.41949634784,3996.0225219753415,-187500.02235174447,-187500.02235174447,-187500.02235174447,-187500.02235174447,-187500.02235174447,1730989345.5531757,1730989344.2778196,6000
-6802.216983105777,-90415.6896967518,3947.3180708072273,-187500.02235174447,-187500.02235174447,-187500.02235174447,-187500.02235174447,-187500.02235174447,1730989345.5571845,1730989344.2778196,6000
-6682.523391547607,-90509.83524439756,4057.154543060606,-187500.02235174447,-187500.02235174447,-187500.02235174447,-187500.02235174447,-187500.02235174447,1730989345.5621223,1730989344.2778196,6000
-6668.330033818488,-90516.60782296752,3952.928358665509,-187500.02235174447,-187500.02235174447,-187500.02235174447,-187500.02235174447,-187500.02235174447,1730989345.566742,1730989344.2778196,6000
-6816.0527129236125,-90474.34067420253,3890.432881168471,-187500.02235174447,-187500.02235174447,-187500.02235174447,-187500.02235174447,-187500.02235174447,1730989345.5701053,1730989344.2778196,6000
-6932.214728857843,-90448.9043890124,3863.4990290998257,-187500.02235174447,-187500.02235174447,-187500.02235174447,-187500.02235174447,-187500.02235174447,1730989345.574102,1730989344.2778196,6000
-6770.678671679339,-90482.72257837329,3973.871943220132,-187500.02235174447,-187500.02235174447,-187500.02235174447,-187500.02235174447,-187500.02235174447,1730989345.5780492,1730989344.2778196,6000
-6671.861609442426,-90491.08213079956,3974.229571131417,-187500.02235174447,-187500.02235174447,-187500.02235174447,-187500.02235174447,-187500.02235174447,1730989345.5811412,1730989344.2778196,6000
-6813.124634399967,-90467.59044737702,3832.117179884575,-187500.02235174447,-187500.02235174447,-187500.02235174447,-187500.02235174447,-187500.02235174447,1730989345.5853767,1730989344.2778196,6000
-6840.4161143798965,-90460.7955170626,3796.287333522717,-187500.02235174447,-187500.02235174447,-187500.02235174447,-187500.02235174447,-187500.02235174447,1730989345.5901809,1730989344.2778196,6000
-6668.397089051854,-90397.1377488539,4044.905787099098,-187500.02235174447,-187500.02235174447,-187500.02235174447,-187500.02235174447,-187500.02235174447,1730989345.5941608,1730989344.2778196,6000
-6772.287997280121,-90500.5592704486,3998.83884177671,-187500.02235174447,-187500.02235174447,-187500.02235174447,-187500.02235174447,-187500.02235174447,1730989345.5981836,1730989344.2778196,6000
-6812.409378577398,-90513.88091014395,3892.57864863618,-187500.02235174447,-187500.02235174447,-187500.02235174447,-187500.02235174447,-187500.02235174447,1730989345.6021175,1730989344.2778196,6000
-6747.1422847679005,-90415.98026942973,3941.886596904588,-187500.02235174447,-187500.02235174447,-187500.02235174447,-187500.02235174447,-187500.02235174447,1730989345.605183,1730989344.2778196,6000
-6698.840164999982,-90462.69541534132,3987.752376526878,-187500.02235174447,-187500.02235174447,-187500.02235174447,-187500.02235174447,-187500.02235174447,1730989345.6092322,1730989344.2778196,6000
-6742.269604476644,-90501.47569197128,3962.941940181487,-187500.02235174447,-187500.02235174447,-187500.02235174447,-187500.02235174447,-187500.02235174447,1730989345.6132233,1730989344.2778196,6000
-6789.320026555065,-90493.4067122229,3961.0196901583295,-187500.02235174447,-187500.02235174447,-187500.02235174447,-187500.02235174447,-187500.02235174447,1730989345.6181872,1730989344.2778196,6000
-6818.042018180135,-90478.6545608824,3886.275456699784,-187500.02235174447,-187500.02235174447,-187500.02235174447,-187500.02235174447,-187500.02235174447,1730989345.622204,1730989344.2778196,6000
-6736.413447429353,-90478.90043007142,3932.320050277716,-187500.02235174447,-187500.02235174447,-187500.02235174447,-187500.02235174447,-187500.02235174447,1730989345.6264217,1730989344.2778196,6000
-6791.175221344855,-90496.49125295774,3965.8476669606766,-187500.02235174447,-187500.02235174447,-187500.02235174447,-187500.02235174447,-187500.02235174447,1730989345.629258,1730989344.2778196,6000
-6802.194631361322,-90436.36506037296,3950.581425497702,-187500.02235174447,-187500.02235174447,-187500.02235174447,-187500.02235174447,-187500.02235174447,1730989345.6332643,1730989344.2778196,6000
-6793.186878345833,-90470.8538020675,3913.7010471464455,-187500.02235174447,-187500.02235174447,-187500.02235174447,-187500.02235174447,-187500.02235174447,1730989345.637252,1730989344.2778196,6000
-6838.672678312383,-90456.593389105,3947.5862917406903,-187500.02235174447,-187500.02235174447,-187500.02235174447,-187500.02235174447,-187500.02235174447,1730989345.64125,1730989344.2778196,6000
-6856.665832598906,-90523.20158758185,3938.265614302828,-187500.02235174447,-187500.02235174447,-187500.02235174447,-187500.02235174447,-187500.02235174447,1730989345.645273,1730989344.2778196,6000
-6877.385899708975,-90533.55044526464,3776.1260600240303,-187500.02235174447,-187500.02235174447,-187500.02235174447,-187500.02235174447,-187500.02235174447,1730989345.6502745,1730989344.2778196,6000
-6807.424939563864,-90418.93069969784,3865.1754099339737,-187500.02235174447,-187500.02235174447,-187500.02235174447,-187500.02235174447,-187500.02235174447,1730989345.654282,1730989344.2778196,6000
-6776.646587448906,-90405.56435651355,3996.98364698692,-187500.02235174447,-187500.02235174447,-187500.02235174447,-187500.02235174447,-187500.02235174447,1730989345.657269,1730989344.2778196,6000
-6715.291048919088,-90522.57573873708,3948.770934196822,-187500.02235174447,-187500.02235174447,-187500.02235174447,-187500.02235174447,-187500.02235174447,1730989345.6613305,1730989344.2778196,6000
-6717.570926853529,-90548.68257626088,3886.7671950778,-187500.02235174447,-187500.02235174447,-187500.02235174447,-187500.02235174447,-187500.02235174447,1730989345.6651518,1730989344.2778196,6000
-6722.868290289437,-90435.96272897277,3936.1421985795737,-187500.02235174447,-187500.02235174447,-187500.02235174447,-187500.02235174447,-187500.02235174447,1730989345.669145,1730989344.2778196,6000
-6838.113884701001,-90418.61777527544,3931.8283118997,-187500.02235174447,-187500.02235174447,-187500.02235174447,-187500.02235174447,-187500.02235174447,1730989345.6732044,1730989344.2778196,6000
-6818.667867024883,-90489.07047379858,3935.046963101264,-187500.02235174447,-187500.02235174447,-187500.02235174447,-187500.02235174447,-187500.02235174447,1730989345.678212,1730989344.2778196,6000
-6821.35007635952,-90549.42018382793,3844.52239805727,-187500.02235174447,-187500.02235174447,-187500.02235174447,-187500.02235174447,-187500.02235174447,1730989345.682222,1730989344.2778196,6000
-6834.694067799338,-90476.77701434816,3876.820668795189,-187500.02235174447,-187500.02235174447,-187500.02235174447,-187500.02235174447,-187500.02235174447,1730989345.6852112,1730989344.2778196,6000
-6786.660168964883,-90462.74011883022,3904.603887153136,-187500.02235174447,-187500.02235174447,-187500.02235174447,-187500.02235174447,-187500.02235174447,1730989345.689221,1730989344.2778196,6000
-6729.216185714744,-90520.02763986918,3906.816709854211,-187500.02235174447,-187500.02235174447,-187500.02235174447,-187500.02235174447,-187500.02235174447,1730989345.6932335,1730989344.2778196,6000
-6774.277302536643,-90551.05186117314,3924.742808907367,-187500.02235174447,-187500.02235174447,-187500.02235174447,-187500.02235174447,-187500.02235174447,1730989345.6972375,1730989344.2778196,6000
-6613.635315136352,-90462.27073219666,3954.738849966389,-187500.02235174447,-187500.02235174447,-187500.02235174447,-187500.02235174447,-187500.02235174447,1730989345.7012444,1730989344.2778196,6000
-6796.182012102844,-90441.68477555332,3884.5096688878143,-187500.02235174447,-187500.02235174447,-187500.02235174447,-187500.02235174447,-187500.02235174447,1730989345.7062464,1730989344.2778196,6000
-6861.538512890162,-90534.2657010872,3865.197761678429,-187500.02235174447,-187500.02235174447,-187500.02235174447,-187500.02235174447,-187500.02235174447,1730989345.7102644,1730989344.2778196,6000
-6758.76519188466,-90559.85844848854,3895.2161544819055,-187500.02235174447,-187500.02235174447,-187500.02235174447,-187500.02235174447,-187500.02235174447,1730989345.7135298,1730989344.2778196,6000
-6716.430987886309,-90507.6671251854,3984.153745669573,-187500.02235174447,-187500.02235174447,-187500.02235174447,-187500.02235174447,-187500.02235174447,1730989345.7174606,1730989344.2778196,6000
-6784.626160219451,-90529.3259655626,3934.734038678889,-187500.02235174447,-187500.02235174447,-187500.02235174447,-187500.02235174447,-187500.02235174447,1730989345.7214684,1730989344.2778196,6000
-6776.110145581979,-90505.58841295104,3905.944991820454,-187500.02235174447,-187500.02235174447,-187500.02235174447,-187500.02235174447,-187500.02235174447,1730989345.725696,1730989344.2778196,6000
-6793.969189401769,-90563.41237585692,3904.045093541753,-187500.02235174447,-187500.02235174447,-187500.02235174447,-187500.02235174447,-187500.02235174447,1730989345.72958,1730989344.2778196,6000
-6797.523116770162,-90531.40467779692,3941.886596904588,-187500.02235174447,-187500.02235174447,-187500.02235174447,-187500.02235174447,-187500.02235174447,1730989345.7334943,1730989344.2778196,6000
-6849.960309262313,-90473.91599105787,3934.421114256515,-187500.02235174447,-187500.02235174447,-187500.02235174447,-187500.02235174447,-187500.02235174447,1730989345.738593,1730989344.2778196,6000
-6740.213243986756,-90510.50579673122,4004.806757546277,-187500.02235174447,-187500.02235174447,-187500.02235174447,-187500.02235174447,-187500.02235174447,1730989345.7417357,1730989344.2778196,6000
-6769.9187123678585,-90562.69712003435,3921.412398983527,-187500.02235174447,-187500.02235174447,-187500.02235174447,-187500.02235174447,-187500.02235174447,1730989345.7454093,1730989344.2778196,6000
-6821.797111248626,-90512.42804675436,3895.260857970817,-187500.02235174447,-187500.02235174447,-187500.02235174447,-187500.02235174447,-187500.02235174447,1730989345.749514,1730989344.2778196,6000
-6846.9875272497575,-90463.16480197488,3798.857784135078,-187500.02235174447,-187500.02235174447,-187500.02235174447,-187500.02235174447,-187500.02235174447,1730989345.7535174,1730989344.2778196,6000
-6806.463814552286,-90498.8158343811,3794.521545710748,-187500.02235174447,-187500.02235174447,-187500.02235174447,-187500.02235174447,-187500.02235174447,1730989345.757337,1730989344.2778196,6000
-6729.864386303948,-90496.98299133575,3974.83306823171,-187500.02235174447,-187500.02235174447,-187500.02235174447,-187500.02235174447,-187500.02235174447,1730989345.7626147,1730989344.2778196,6000
-6843.813579537104,-90531.24821558574,3893.383311436571,-187500.02235174447,-187500.02235174447,-187500.02235174447,-187500.02235174447,-187500.02235174447,1730989345.765582,1730989344.2778196,6000
-6860.331518689575,-90486.23180225276,3841.862540467088,-187500.02235174447,-187500.02235174447,-187500.02235174447,-187500.02235174447,-187500.02235174447,1730989345.7686076,1730989344.2778196,6000
-6754.965395327258,-90387.95118188276,3890.812860824211,-187500.02235174447,-187500.02235174447,-187500.02235174447,-187500.02235174447,-187500.02235174447,1730989345.7733858,1730989344.2778196,6000
-6697.052025443558,-90452.50301986968,3938.243262558373,-187500.02235174447,-187500.02235174447,-187500.02235174447,-187500.02235174447,-187500.02235174447,1730989345.7773995,1730989344.2778196,6000
-6711.781825039605,-90518.17244507938,4046.4704092109696,-187500.02235174447,-187500.02235174447,-187500.02235174447,-187500.02235174447,-187500.02235174447,1730989345.7815268,1730989344.2778196,6000
-6791.175221344855,-90509.32115427508,3965.624149516124,-187500.02235174447,-187500.02235174447,-187500.02235174447,-187500.02235174447,-187500.02235174447,1730989345.7854483,1730989344.2778196,6000
-6795.131480113445,-90410.12411238244,3916.696180903457,-187500.02235174447,-187500.02235174447,-187500.02235174447,-187500.02235174447,-187500.02235174447,1730989345.789398,1730989344.2778196,6000
-6783.799145674604,-90463.00833976368,3943.205349827451,-187500.02235174447,-187500.02235174447,-187500.02235174447,-187500.02235174447,-187500.02235174447,1730989345.7944071,1730989344.2778196,6000
-6762.654395419883,-90535.49504703224,3907.2413929988616,-187500.02235174447,-187500.02235174447,-187500.02235174447,-187500.02235174447,-187500.02235174447,1730989345.7975729,1730989344.2778196,6000
-6733.686534605806,-90493.54082268964,3892.8692213140994,-187500.02235174447,-187500.02235174447,-187500.02235174447,-187500.02235174447,-187500.02235174447,1730989345.801587,1730989344.2778196,6000
-6855.101210487033,-90418.26014736416,3914.148082035552,-187500.02235174447,-187500.02235174447,-187500.02235174447,-187500.02235174447,-187500.02235174447,1730989345.8054333,1730989344.2778196,6000
-6792.851602179004,-90496.82652912456,3885.9848840218647,-187500.02235174447,-187500.02235174447,-187500.02235174447,-187500.02235174447,-187500.02235174447,1730989345.809595,1730989344.2778196,6000
-6683.618627025918,-90510.72931417575,3904.693294130957,-187500.02235174447,-187500.02235174447,-187500.02235174447,-187500.02235174447,-187500.02235174447,1730989345.8136177,1730989344.2778196,6000
-6909.862984402536,-90527.76134345072,3936.4327712574927,-187500.02235174447,-187500.02235174447,-187500.02235174447,-187500.02235174447,-187500.02235174447,1730989345.8176763,1730989344.2778196,6000
-6850.228530195776,-90434.21929290524,3868.639930324546,-187500.02235174447,-187500.02235174447,-187500.02235174447,-187500.02235174447,-187500.02235174447,1730989345.8214583,1730989344.2778196,6000
-6726.064589746546,-90411.59932751648,3927.0897420751744,-187500.02235174447,-187500.02235174447,-187500.02235174447,-187500.02235174447,-187500.02235174447,1730989345.824442,1730989344.2778196,6000
-6734.602956128473,-90510.4163897534,3948.502713263359,-187500.02235174447,-187500.02235174447,-187500.02235174447,-187500.02235174447,-187500.02235174447,1730989345.8296137,1730989344.2778196,6000
-6758.5863779290175,-90523.22393932629,3917.2996780037497,-187500.02235174447,-187500.02235174447,-187500.02235174447,-187500.02235174447,-187500.02235174447,1730989345.833622,1730989344.2778196,6000
-6786.637817220428,-90453.50884837018,3920.8759571165992,-187500.02235174447,-187500.02235174447,-187500.02235174447,-187500.02235174447,-187500.02235174447,1730989345.837543,1730989344.2778196,6000
-6756.686479650317,-90461.22020020726,3926.620355441613,-187500.02235174447,-187500.02235174447,-187500.02235174447,-187500.02235174447,-187500.02235174447,1730989345.8416424,1730989344.2778196,6000
-6811.604715777006,-90539.20543661182,3867.321177401683,-187500.02235174447,-187500.02235174447,-187500.02235174447,-187500.02235174447,-187500.02235174447,1730989345.8465424,1730989344.2778196,6000
-6851.122599973989,-90467.27752295464,3962.316091336738,-187500.02235174447,-187500.02235174447,-187500.02235174447,-187500.02235174447,-187500.02235174447,1730989345.8496697,1730989344.2778196,6000
-6832.235375909255,-90407.01721990314,3966.004129171864,-187500.02235174447,-187500.02235174447,-187500.02235174447,-187500.02235174447,-187500.02235174447,1730989345.8525147,1730989344.2778196,6000
-6787.1519073429,-90441.43890636432,3896.780776593778,-187500.02235174447,-187500.02235174447,-187500.02235174447,-187500.02235174447,-187500.02235174447,1730989345.8566136,1730989344.2778196,6000
-6741.911976565359,-90472.46312766828,3924.2510705293503,-187500.02235174447,-187500.02235174447,-187500.02235174447,-187500.02235174447,-187500.02235174447,1730989345.861596,1730989344.2778196,6000
-6790.638779477928,-90514.37264852198,3956.236416844895,-187500.02235174447,-187500.02235174447,-187500.02235174447,-187500.02235174447,-187500.02235174447,1730989345.8656204,1730989344.2778196,6000
-6795.846735936015,-90444.34463314353,3874.071404227186,-187500.02235174447,-187500.02235174447,-187500.02235174447,-187500.02235174447,-187500.02235174447,1730989345.869592,1730989344.2778196,6000
-6723.315325178543,-90382.31854228005,3894.880878315077,-187500.02235174447,-187500.02235174447,-187500.02235174447,-187500.02235174447,-187500.02235174447,1730989345.8737516,1730989344.2778196,6000
-6721.326019922021,-90472.68664511284,3935.136370079085,-187500.02235174447,-187500.02235174447,-187500.02235174447,-187500.02235174447,-187500.02235174447,1730989345.8776,1730989344.2778196,6000
-6911.025275114212,-90557.75738450974,3878.72056707389,-187500.02235174447,-187500.02235174447,-187500.02235174447,-187500.02235174447,-187500.02235174447,1730989345.8807497,1730989344.2778196,6000
-6913.5510222376615,-90507.60006995202,3822.4388745354263,-187500.02235174447,-187500.02235174447,-187500.02235174447,-187500.02235174447,-187500.02235174447,1730989345.884797,1730989344.2778196,6000
-6776.780697915638,-90412.2922315946,3968.5298762953134,-187500.02235174447,-187500.02235174447,-187500.02235174447,-187500.02235174447,-187500.02235174447,1730989345.889776,1730989344.2778196,6000
-6741.0402585316015,-90481.24736323922,3956.3928790560817,-187500.02235174447,-187500.02235174447,-187500.02235174447,-187500.02235174447,-187500.02235174447,1730989345.8936253,1730989344.2778196,6000
-6786.682520709339,-90546.29093960417,3904.0897970306632,-187500.02235174447,-187500.02235174447,-187500.02235174447,-187500.02235174447,-187500.02235174447,1730989345.897838,1730989344.2778196,6000
-6730.222014215233,-90450.22314193525,3874.943122260943,-187500.02235174447,-187500.02235174447,-187500.02235174447,-187500.02235174447,-187500.02235174447,1730989345.9006703,1730989344.2778196,6000
-6738.536863152607,-90433.23581614922,3884.107337487618,-187500.02235174447,-187500.02235174447,-187500.02235174447,-187500.02235174447,-187500.02235174447,1730989345.9047675,1730989344.2778196,6000
-6834.627012565972,-90535.62915749896,3851.451438838416,-187500.02235174447,-187500.02235174447,-187500.02235174447,-187500.02235174447,-187500.02235174447,1730989345.9087594,1730989344.2778196,6000
-6819.606640292006,-90561.60188455605,3923.804035640245,-187500.02235174447,-187500.02235174447,-187500.02235174447,-187500.02235174447,-187500.02235174447,1730989345.9128654,1730989344.2778196,6000
-6774.299654281099,-90502.68268617186,3913.254012257339,-187500.02235174447,-187500.02235174447,-187500.02235174447,-187500.02235174447,-187500.02235174447,1730989345.91762,1730989344.2778196,6000
-6792.829250434548,-90444.76931628816,3981.672702035034,-187500.02235174447,-187500.02235174447,-187500.02235174447,-187500.02235174447,-187500.02235174447,1730989345.9217613,1730989344.2778196,6000
-6848.999184250735,-90508.42708449689,3986.0759956927295,-187500.02235174447,-187500.02235174447,-187500.02235174447,-187500.02235174447,-187500.02235174447,1730989345.9257357,1730989344.2778196,6000
-6804.563916273584,-90523.13453234849,3895.171450992996,-187500.02235174447,-187500.02235174447,-187500.02235174447,-187500.02235174447,-187500.02235174447,1730989345.92882,1730989344.2778196,6000
-6629.147425788335,-90463.7012438418,3892.980980036376,-187500.02235174447,-187500.02235174447,-187500.02235174447,-187500.02235174447,-187500.02235174447,1730989345.9329257,1730989344.2778196,6000
-6750.338584225009,-90504.47082572828,3851.4067353495047,-187500.02235174447,-187500.02235174447,-187500.02235174447,-187500.02235174447,-187500.02235174447,1730989345.9366364,1730989344.2778196,6000
-6820.388951347942,-90463.96946477526,3818.929650655944,-187500.02235174447,-187500.02235174447,-187500.02235174447,-187500.02235174447,-187500.02235174447,1730989345.9408216,1730989344.2778196,6000
-6832.302431142621,-90521.30168930312,3920.2501082718495,-187500.02235174447,-187500.02235174447,-187500.02235174447,-187500.02235174447,-187500.02235174447,1730989345.9457595,1730989344.2778196,6000
-6770.76807865716,-90558.80791649914,3996.1119289531625,-187500.02235174447,-187500.02235174447,-187500.02235174447,-187500.02235174447,-187500.02235174447,1730989345.9497771,1730989344.2778196,6000
-6802.284038339143,-90474.56419164708,3905.319142975705,-187500.02235174447,-187500.02235174447,-187500.02235174447,-187500.02235174447,-187500.02235174447,1730989345.953859,1730989344.2778196,6000
-6801.792299961126,-90433.52638882714,3884.353206676628,-187500.02235174447,-187500.02235174447,-187500.02235174447,-187500.02235174447,-187500.02235174447,1730989345.9566712,1730989344.2778196,6000
-6743.677764377328,-90498.79348263664,3885.649607855035,-187500.02235174447,-187500.02235174447,-187500.02235174447,-187500.02235174447,-187500.02235174447,1730989345.9607096,1730989344.2778196,6000
-6679.125926390401,-90523.53686374864,3920.6300879275914,-187500.02235174447,-187500.02235174447,-187500.02235174447,-187500.02235174447,-187500.02235174447,1730989345.9646623,1730989344.2778196,6000
-6812.96817218878,-90498.34644774754,3899.686503372968,-187500.02235174447,-187500.02235174447,-187500.02235174447,-187500.02235174447,-187500.02235174447,1730989345.9687245,1730989344.2778196,6000
-6838.8291405235705,-90478.76631960468,3875.3454536611375,-187500.02235174447,-187500.02235174447,-187500.02235174447,-187500.02235174447,-187500.02235174447,1730989345.973858,1730989344.2778196,6000
-6775.976035115246,-90468.03748226613,3902.681637129979,-187500.02235174447,-187500.02235174447,-187500.02235174447,-187500.02235174447,-187500.02235174447,1730989345.9777336,1730989344.2778196,6000
-6869.093402516056,-90558.8749717325,3897.831308583178,-187500.02235174447,-187500.02235174447,-187500.02235174447,-187500.02235174447,-187500.02235174447,1730989345.981845,1730989344.2778196,6000
-6839.410285879409,-90504.58258445056,3842.3095753561943,-187500.02235174447,-187500.02235174447,-187500.02235174447,-187500.02235174447,-187500.02235174447,1730989345.9848723,1730989344.2778196,6000
-6740.101485264479,-90404.24560359068,3892.8245178251887,-187500.02235174447,-187500.02235174447,-187500.02235174447,-187500.02235174447,-187500.02235174447,1730989345.988895,1730989344.2778196,6000
-6788.180087587844,-90484.91304932989,3932.2529950443504,-187500.02235174447,-187500.02235174447,-187500.02235174447,-187500.02235174447,-187500.02235174447,1730989345.9929087,1730989344.2778196,6000
-6934.22638585882,-90551.61065478453,3915.019800069309,-187500.02235174447,-187500.02235174447,-187500.02235174447,-187500.02235174447,-187500.02235174447,1730989345.9968717,1730989344.2778196,6000
-6829.039076452145,-90496.87123261348,3884.934352032465,-187500.02235174447,-187500.02235174447,-187500.02235174447,-187500.02235174447,-187500.02235174447,1730989346.0009036,1730989344.2778196,6000
-6688.871286972915,-90435.51569408366,3913.0528465572415,-187500.02235174447,-187500.02235174447,-187500.02235174447,-187500.02235174447,-187500.02235174447,1730989346.0060909,1730989344.2778196,6000
-6719.403769898864,-90522.57573873708,3827.959755415888,-187500.02235174447,-187500.02235174447,-187500.02235174447,-187500.02235174447,-187500.02235174447,1730989346.0099485,1730989344.2778196,6000
-6738.670973619339,-90578.56685859762,3920.071294316208,-187500.02235174447,-187500.02235174447,-187500.02235174447,-187500.02235174447,-187500.02235174447,1730989346.0128715,1730989344.2778196,6000
-6802.753424972704,-90510.14816881991,3930.286041532283,-187500.02235174447,-187500.02235174447,-187500.02235174447,-187500.02235174447,-187500.02235174447,1730989346.016785,1730989344.2778196,6000
-6813.482262311252,-90406.79370245858,3966.384108827604,-187500.02235174447,-187500.02235174447,-187500.02235174447,-187500.02235174447,-187500.02235174447,1730989346.021041,1730989344.2778196,6000
-6731.1160839934455,-90493.7643401342,3883.794413065245,-187500.02235174447,-187500.02235174447,-187500.02235174447,-187500.02235174447,-187500.02235174447,1730989346.0252738,1730989344.2778196,6000
-6831.006029964213,-90585.11591972304,3816.8509384216,-187500.02235174447,-187500.02235174447,-187500.02235174447,-187500.02235174447,-187500.02235174447,1730989346.0289557,1730989344.2778196,6000
-6741.733162609717,-90533.08105863108,3867.231770423862,-187500.02235174447,-187500.02235174447,-187500.02235174447,-187500.02235174447,-187500.02235174447,1730989346.0339603,1730989344.2778196,6000
-6752.059668548068,-90433.97342371623,3871.9926919928425,-187500.02235174447,-187500.02235174447,-187500.02235174447,-187500.02235174447,-187500.02235174447,1730989346.0369265,1730989344.2778196,6000
-6815.091587912034,-90461.01903450716,3889.3823491790713,-187500.02235174447,-187500.02235174447,-187500.02235174447,-187500.02235174447,-187500.02235174447,1730989346.0409963,1730989344.2778196,6000
-6854.810637809114,-90532.43285804188,3898.323046961194,-187500.02235174447,-187500.02235174447,-187500.02235174447,-187500.02235174447,-187500.02235174447,1730989346.0448112,1730989344.2778196,6000
-6757.245273261699,-90504.24730828372,3952.235454587395,-187500.02235174447,-187500.02235174447,-187500.02235174447,-187500.02235174447,-187500.02235174447,1730989346.04901,1730989344.2778196,6000
-6787.48718350973,-90444.61285407696,3878.38529090706,-187500.02235174447,-187500.02235174447,-187500.02235174447,-187500.02235174447,-187500.02235174447,1730989346.0529587,1730989344.2778196,6000
-6744.549482411085,-90464.48355489774,3868.058784968709,-187500.02235174447,-187500.02235174447,-187500.02235174447,-187500.02235174447,-187500.02235174447,1730989346.056923,1730989344.2778196,6000
-6798.752462715204,-90503.9120321169,3869.735165802857,-187500.02235174447,-187500.02235174447,-187500.02235174447,-187500.02235174447,-187500.02235174447,1730989346.06194,1730989344.2778196,6000
-6752.350241225987,-90475.01122653618,3885.873125299588,-187500.02235174447,-187500.02235174447,-187500.02235174447,-187500.02235174447,-187500.02235174447,1730989346.0651157,1730989344.2778196,6000
-6863.036079768668,-90503.48734897224,3882.296846186739,-187500.02235174447,-187500.02235174447,-187500.02235174447,-187500.02235174447,-187500.02235174447,1730989346.0689983,1730989344.2778196,6000
-6814.689256511839,-90450.55841810208,3807.75377842829,-187500.02235174447,-187500.02235174447,-187500.02235174447,-187500.02235174447,-187500.02235174447,1730989346.0731142,1730989344.2778196,6000
-6821.506538570708,-90426.48558932373,3901.742863862856,-187500.02235174447,-187500.02235174447,-187500.02235174447,-187500.02235174447,-187500.02235174447,1730989346.076862,1730989344.2778196,6000
-6834.045867210134,-90550.29190186168,3926.3744862526046,-187500.02235174447,-187500.02235174447,-187500.02235174447,-187500.02235174447,-187500.02235174447,1730989346.081165,1730989344.2778196,6000
-6827.452102595819,-90515.57964272256,3850.222092893373,-187500.02235174447,-187500.02235174447,-187500.02235174447,-187500.02235174447,-187500.02235174447,1730989346.085094,1730989344.2778196,6000
-6804.005122662202,-90455.67696758236,3809.497214495804,-187500.02235174447,-187500.02235174447,-187500.02235174447,-187500.02235174447,-187500.02235174447,1730989346.0901592,1730989344.2778196,6000
-6696.51558357663,-90499.82166288156,3928.7661229093214,-187500.02235174447,-187500.02235174447,-187500.02235174447,-187500.02235174447,-187500.02235174447,1730989346.092934,1730989344.2778196,6000
-6748.729258624227,-90538.73604997828,3938.556186980747,-187500.02235174447,-187500.02235174447,-187500.02235174447,-187500.02235174447,-187500.02235174447,1730989346.0963335,1730989344.2778196,6000
-6731.697229349284,-90457.97919726124,3904.693294130957,-187500.02235174447,-187500.02235174447,-187500.02235174447,-187500.02235174447,-187500.02235174447,1730989346.1011803,1730989344.2778196,6000
-6842.5842335920615,-90472.06079626808,3878.877029285077,-187500.02235174447,-187500.02235174447,-187500.02235174447,-187500.02235174447,-187500.02235174447,1730989346.1053033,1730989344.2778196,6000
-6795.645570235917,-90451.94422625832,3881.782756064267,-187500.02235174447,-187500.02235174447,-187500.02235174447,-187500.02235174447,-187500.02235174447,1730989346.1091914,1730989344.2778196,6000
-6777.719471182761,-90512.07041884308,3884.174392720985,-187500.02235174447,-187500.02235174447,-187500.02235174447,-187500.02235174447,-187500.02235174447,1730989346.113299,1730989344.2778196,6000
-6765.381308243431,-90589.7874343142,3874.7643083053,-187500.02235174447,-187500.02235174447,-187500.02235174447,-187500.02235174447,-187500.02235174447,1730989346.1182911,1730989344.2778196,6000
-6764.129610553934,-90511.0645903426,3952.302509820761,-187500.02235174447,-187500.02235174447,-187500.02235174447,-187500.02235174447,-187500.02235174447,1730989346.1212628,1730989344.2778196,6000
-6794.952666157802,-90482.11908127298,3906.5484889207473,-187500.02235174447,-187500.02235174447,-187500.02235174447,-187500.02235174447,-187500.02235174447,1730989346.1242266,1730989344.2778196,6000
-6810.978866932258,-90583.10426272206,3829.0773426386527,-187500.02235174447,-187500.02235174447,-187500.02235174447,-187500.02235174447,-187500.02235174447,1730989346.1292105,1730989344.2778196,6000
-6740.548520153585,-90584.40066390048,3833.927671185455,-187500.02235174447,-187500.02235174447,-187500.02235174447,-187500.02235174447,-187500.02235174447,1730989346.1331787,1730989344.2778196,6000
-6780.155811328389,-90454.33586291505,3826.618650748569,-187500.02235174447,-187500.02235174447,-187500.02235174447,-187500.02235174447,-187500.02235174447,1730989346.1370018,1730989344.2778196,6000
-6785.117898597468,-90443.53997034312,3854.223055150873,-187500.02235174447,-187500.02235174447,-187500.02235174447,-187500.02235174447,-187500.02235174447,1730989346.141214,1730989344.2778196,6000
-6835.297564899632,-90565.73695728029,3891.8186893247,-187500.02235174447,-187500.02235174447,-187500.02235174447,-187500.02235174447,-187500.02235174447,1730989346.145141,1730989344.2778196,6000
-6868.109925760023,-90598.50461465176,3853.016060950287,-187500.02235174447,-187500.02235174447,-187500.02235174447,-187500.02235174447,-187500.02235174447,1730989346.1483164,1730989344.2778196,6000
-6796.092605125023,-90510.19287230883,3904.782701108778,-187500.02235174447,-187500.02235174447,-187500.02235174447,-187500.02235174447,-187500.02235174447,1730989346.152099,1730989344.2778196,6000
-6756.731183139227,-90488.9587150763,3940.3666782816263,-187500.02235174447,-187500.02235174447,-187500.02235174447,-187500.02235174447,-187500.02235174447,1730989346.1570773,1730989344.2778196,6000
-6795.578515002551,-90564.06057644614,3849.149209159519,-187500.02235174447,-187500.02235174447,-187500.02235174447,-187500.02235174447,-187500.02235174447,1730989346.1610131,1730989344.2778196,6000
-6838.762085290205,-90592.00025701529,3831.6254415065578,-187500.02235174447,-187500.02235174447,-187500.02235174447,-187500.02235174447,-187500.02235174447,1730989346.165084,1730989344.2778196,6000
-6821.171262403877,-90520.13939859143,3818.102636111097,-187500.02235174447,-187500.02235174447,-187500.02235174447,-187500.02235174447,-187500.02235174447,1730989346.1690383,1730989344.2778196,6000
-6735.832302073515,-90436.18624641732,3906.704951131934,-187500.02235174447,-187500.02235174447,-187500.02235174447,-187500.02235174447,-187500.02235174447,1730989346.172191,1730989344.2778196,6000
-6742.202549243278,-90497.05004656911,3915.645648914057,-187500.02235174447,-187500.02235174447,-187500.02235174447,-187500.02235174447,-187500.02235174447,1730989346.1761324,1730989344.2778196,6000
-6758.675784906839,-90556.59509379804,3874.0490524827305,-187500.02235174447,-187500.02235174447,-187500.02235174447,-187500.02235174447,-187500.02235174447,1730989346.180133,1730989344.2778196,6000
-6784.894381152914,-90520.22880556928,3877.6700350844894,-187500.02235174447,-187500.02235174447,-187500.02235174447,-187500.02235174447,-187500.02235174447,1730989346.185216,1730989344.2778196,6000
-6829.955497974814,-90452.52537161416,3891.572820135692,-187500.02235174447,-187500.02235174447,-187500.02235174447,-187500.02235174447,-187500.02235174447,1730989346.1891787,1730989344.2778196,6000
-6873.451992684841,-90534.8244946986,3815.04044712072,-187500.02235174447,-187500.02235174447,-187500.02235174447,-187500.02235174447,-187500.02235174447,1730989346.1931624,1730989344.2778196,6000
-6870.389803694464,-90584.22184994482,3837.61570902058,-187500.02235174447,-187500.02235174447,-187500.02235174447,-187500.02235174447,-187500.02235174447,1730989346.1971495,1730989344.2778196,6000
-6824.97105896128,-90513.25506129922,3892.265724213806,-187500.02235174447,-187500.02235174447,-187500.02235174447,-187500.02235174447,-187500.02235174447,1730989346.2012131,1730989344.2778196,6000
-6738.201586985778,-90441.19303717533,3865.8012587787225,-187500.02235174447,-187500.02235174447,-187500.02235174447,-187500.02235174447,-187500.02235174447,1730989346.204271,1730989344.2778196,6000
-6741.3308312095205,-90488.73519763174,3831.75955197329,-187500.02235174447,-187500.02235174447,-187500.02235174447,-187500.02235174447,-187500.02235174447,1730989346.2082405,1730989344.2778196,6000
-6843.92533825938,-90558.8302682436,3827.691534482424,-187500.02235174447,-187500.02235174447,-187500.02235174447,-187500.02235174447,-187500.02235174447,1730989346.2122705,1730989344.2778196,6000
-6748.908072579869,-90497.27356401368,3938.01974511382,-187500.02235174447,-187500.02235174447,-187500.02235174447,-187500.02235174447,-187500.02235174447,1730989346.2171352,1730989344.2778196,6000
-6820.992448448235,-90447.20565643378,3895.640837626557,-187500.02235174447,-187500.02235174447,-187500.02235174447,-187500.02235174447,-187500.02235174447,1730989346.221242,1730989344.2778196,6000
-6783.910904396881,-90501.9674303493,3891.394006180049,-187500.02235174447,-187500.02235174447,-187500.02235174447,-187500.02235174447,-187500.02235174447,1730989346.225306,1730989344.2778196,6000
-6785.207305575288,-90530.28709057416,3870.1598489475073,-187500.02235174447,-187500.02235174447,-187500.02235174447,-187500.02235174447,-187500.02235174447,1730989346.2282317,1730989344.2778196,6000
-6781.742785184716,-90481.06854928358,3885.470793899392,-187500.02235174447,-187500.02235174447,-187500.02235174447,-187500.02235174447,-187500.02235174447,1730989346.2323916,1730989344.2778196,6000
-6772.735032169227,-90475.92764805886,3865.063651211697,-187500.02235174447,-187500.02235174447,-187500.02235174447,-187500.02235174447,-187500.02235174447,1730989346.236189,1730989344.2778196,6000
-6802.194631361322,-90510.57285196458,3874.429032138471,-187500.02235174447,-187500.02235174447,-187500.02235174447,-187500.02235174447,-187500.02235174447,1730989346.2403798,1730989344.2778196,6000
-6828.547338074129,-90497.7653023917,3931.649497944057,-187500.02235174447,-187500.02235174447,-187500.02235174447,-187500.02235174447,-187500.02235174447,1730989346.245181,1730989344.2778196,6000
-6785.475526508752,-90495.7089419018,3899.9994277953424,-187500.02235174447,-187500.02235174447,-187500.02235174447,-187500.02235174447,-187500.02235174447,1730989346.249402,1730989344.2778196,6000
-6825.1498729169225,-90507.64477344092,3851.4961423273257,-187500.02235174447,-187500.02235174447,-187500.02235174447,-187500.02235174447,-187500.02235174447,1730989346.25326,1730989344.2778196,6000
-6813.750483244716,-90421.76937124364,3812.2241273193513,-187500.02235174447,-187500.02235174447,-187500.02235174447,-187500.02235174447,-187500.02235174447,1730989346.2563298,1730989344.2778196,6000
-6782.972131129758,-90494.8595756125,3835.022906663765,-187500.02235174447,-187500.02235174447,-187500.02235174447,-187500.02235174447,-187500.02235174447,1730989346.260209,1730989344.2778196,6000
-6842.5842335920615,-90533.8186661981,3850.266796382284,-187500.02235174447,-187500.02235174447,-187500.02235174447,-187500.02235174447,-187500.02235174447,1730989346.26442,1730989344.2778196,6000
-6808.944858186825,-90454.46997338175,3867.05295646822,-187500.02235174447,-187500.02235174447,-187500.02235174447,-187500.02235174447,-187500.02235174447,1730989346.2685232,1730989344.2778196,6000
-6761.67091866385,-90454.71584257076,3840.3873253330394,-187500.02235174447,-187500.02235174447,-187500.02235174447,-187500.02235174447,-187500.02235174447,1730989346.2734346,1730989344.2778196,6000
-6893.702673161349,-90523.0674771151,3807.2173365613626,-187500.02235174447,-187500.02235174447,-187500.02235174447,-187500.02235174447,-187500.02235174447,1730989346.2771952,1730989344.2778196,6000
-6889.232324270288,-90564.1276316795,3813.654638964491,-187500.02235174447,-187500.02235174447,-187500.02235174447,-187500.02235174447,-187500.02235174447,1730989346.2804415,1730989344.2778196,6000
-6820.2771926256655,-90457.08512748303,3894.72441610389,-187500.02235174447,-187500.02235174447,-187500.02235174447,-187500.02235174447,-187500.02235174447,1730989346.2844515,1730989344.2778196,6000
-6776.244256048711,-90426.15031315688,3885.29197994375,-187500.02235174447,-187500.02235174447,-187500.02235174447,-187500.02235174447,-187500.02235174447,1730989346.2885752,1730989344.2778196,6000
-6739.341525952998,-90489.07047379858,3830.776075217256,-187500.02235174447,-187500.02235174447,-187500.02235174447,-187500.02235174447,-187500.02235174447,1730989346.2924645,1730989344.2778196,6000
-6659.769315692105,-90529.39302079596,3929.749599665356,-187500.02235174447,-187500.02235174447,-187500.02235174447,-187500.02235174447,-187500.02235174447,1730989346.2964787,1730989344.2778196,6000
-6779.217038061266,-90475.34650270302,3857.866389497088,-187500.02235174447,-187500.02235174447,-187500.02235174447,-187500.02235174447,-187500.02235174447,1730989346.3004866,1730989344.2778196,6000
-6897.860097630036,-90430.66536553686,3890.745805590845,-187500.02235174447,-187500.02235174447,-187500.02235174447,-187500.02235174447,-187500.02235174447,1730989346.3055112,1730989344.2778196,6000
-6824.814596750092,-90508.29297403012,3906.39202670956,-187500.02235174447,-187500.02235174447,-187500.02235174447,-187500.02235174447,-187500.02235174447,1730989346.3084435,1730989344.2778196,6000
-6805.323875585065,-90564.7758322687,3867.879971013066,-187500.02235174447,-187500.02235174447,-187500.02235174447,-187500.02235174447,-187500.02235174447,1730989346.3125603,1730989344.2778196,6000
-6781.161639828878,-90553.48820131876,3828.3844385605385,-187500.02235174447,-187500.02235174447,-187500.02235174447,-187500.02235174447,-187500.02235174447,1730989346.3162136,1730989344.2778196,6000
-6834.537605588152,-90421.7470194992,3854.848903995622,-187500.02235174447,-187500.02235174447,-187500.02235174447,-187500.02235174447,-187500.02235174447,1730989346.3204188,1730989344.2778196,6000
-6743.722467866239,-90440.56718833056,3878.3182356736943,-187500.02235174447,-187500.02235174447,-187500.02235174447,-187500.02235174447,-187500.02235174447,1730989346.324374,1730989344.2778196,6000
-6756.619424416951,-90523.49216025976,3830.5972612616138,-187500.02235174447,-187500.02235174447,-187500.02235174447,-187500.02235174447,-187500.02235174447,1730989346.3294888,1730989344.2778196,6000
-6847.814541794603,-90523.9168434044,3829.546729272214,-187500.02235174447,-187500.02235174447,-187500.02235174447,-187500.02235174447,-187500.02235174447,1730989346.3334403,1730989344.2778196,6000
-6818.958439702802,-90434.77808651664,3848.389249848038,-187500.02235174447,-187500.02235174447,-187500.02235174447,-187500.02235174447,-187500.02235174447,1730989346.3367136,1730989344.2778196,6000
-6806.150890129911,-90450.78193554663,3865.197761678429,-187500.02235174447,-187500.02235174447,-187500.02235174447,-187500.02235174447,-187500.02235174447,1730989346.3404176,1730989344.2778196,6000
-6868.333443204576,-90539.89834068996,3819.823720434156,-187500.02235174447,-187500.02235174447,-187500.02235174447,-187500.02235174447,-187500.02235174447,1730989346.3442774,1730989344.2778196,6000
-6874.323710718598,-90523.7603811932,3822.997668146809,-187500.02235174447,-187500.02235174447,-187500.02235174447,-187500.02235174447,-187500.02235174447,1730989346.348544,1730989344.2778196,6000
-6755.05480230508,-90445.97631048874,3849.730354515357,-187500.02235174447,-187500.02235174447,-187500.02235174447,-187500.02235174447,-187500.02235174447,1730989346.3523984,1730989344.2778196,6000
-6749.153941768878,-90428.07256318005,3829.010287405287,-187500.02235174447,-187500.02235174447,-187500.02235174447,-187500.02235174447,-187500.02235174447,1730989346.3562632,1730989344.2778196,6000
-6846.853416783026,-90499.95577334832,3865.689500056446,-187500.02235174447,-187500.02235174447,-187500.02235174447,-187500.02235174447,-187500.02235174447,1730989346.3614447,1730989344.2778196,6000
-6791.018759133668,-90543.22875061378,3887.8177270672,-187500.02235174447,-187500.02235174447,-187500.02235174447,-187500.02235174447,-187500.02235174447,1730989346.36455,1730989344.2778196,6000
-6797.567820259073,-90495.97716283526,3815.04044712072,-187500.02235174447,-187500.02235174447,-187500.02235174447,-187500.02235174447,-187500.02235174447,1730989346.3685012,1730989344.2778196,6000
-6802.954590672803,-90416.31554559656,3881.693349086446,-187500.02235174447,-187500.02235174447,-187500.02235174447,-187500.02235174447,-187500.02235174447,1730989346.372541,1730989344.2778196,6000
-6815.985657690247,-90514.75262817772,3845.0364881797423,-187500.02235174447,-187500.02235174447,-187500.02235174447,-187500.02235174447,-187500.02235174447,1730989346.3764305,1730989344.2778196,6000
-6824.188747905344,-90539.85363720104,3851.563197560692,-187500.02235174447,-187500.02235174447,-187500.02235174447,-187500.02235174447,-187500.02235174447,1730989346.3805904,1730989344.2778196,6000
-6812.342323344032,-90443.00352847618,3865.62244482308,-187500.02235174447,-187500.02235174447,-187500.02235174447,-187500.02235174447,-187500.02235174447,1730989346.3845768,1730989344.2778196,6000
-6858.6104343665165,-90446.28923491112,3861.174447676474,-187500.02235174447,-187500.02235174447,-187500.02235174447,-187500.02235174447,-187500.02235174447,1730989346.3896136,1730989344.2778196,6000
-6808.475471553264,-90466.09288049852,3872.797354793234,-187500.02235174447,-187500.02235174447,-187500.02235174447,-187500.02235174447,-187500.02235174447,1730989346.3925867,1730989344.2778196,6000
-6783.039186363124,-90514.99849736672,3872.216209437396,-187500.02235174447,-187500.02235174447,-187500.02235174447,-187500.02235174447,-187500.02235174447,1730989346.3964674,1730989344.2778196,6000
-6718.330886165009,-90509.49996823072,3865.421279122982,-187500.02235174447,-187500.02235174447,-187500.02235174447,-187500.02235174447,-187500.02235174447,1730989346.4006467,1730989344.2778196,6000
-6756.619424416951,-90436.1415429284,3812.179423830441,-187500.02235174447,-187500.02235174447,-187500.02235174447,-187500.02235174447,-187500.02235174447,1730989346.404641,1730989344.2778196,6000
-6943.94939469688,-90486.76824411968,3806.8597086500777,-187500.02235174447,-187500.02235174447,-187500.02235174447,-187500.02235174447,-187500.02235174447,1730989346.4086063,1730989344.2778196,6000
-6903.828013399603,-90544.25693085873,3855.027717951265,-187500.02235174447,-187500.02235174447,-187500.02235174447,-187500.02235174447,-187500.02235174447,1730989346.412759,1730989344.2778196,6000
-6811.20238437681,-90499.97812509276,3860.101563942619,-187500.02235174447,-187500.02235174447,-187500.02235174447,-187500.02235174447,-187500.02235174447,1730989346.4165225,1730989344.2778196,6000
-6816.097416412523,-90450.93839775784,3823.75762745829,-187500.02235174447,-187500.02235174447,-187500.02235174447,-187500.02235174447,-187500.02235174447,1730989346.4195347,1730989344.2778196,6000
-6827.675620040372,-90489.78572962114,3777.489516435804,-187500.02235174447,-187500.02235174447,-187500.02235174447,-187500.02235174447,-187500.02235174447,1730989346.4236596,1730989344.2778196,6000
-6830.938974730847,-90488.66814239838,3861.979110476865,-187500.02235174447,-187500.02235174447,-187500.02235174447,-187500.02235174447,-187500.02235174447,1730989346.428642,1730989344.2778196,6000
-6799.110090626489,-90515.08790434456,3865.264816911795,-187500.02235174447,-187500.02235174447,-187500.02235174447,-187500.02235174447,-187500.02235174447,1730989346.4326348,1730989344.2778196,6000
-6761.782677386127,-90441.68477555332,3805.3844935160273,-187500.02235174447,-187500.02235174447,-187500.02235174447,-187500.02235174447,-187500.02235174447,1730989346.436427,1730989344.2778196,6000
-6757.468790706253,-90457.88979028344,3848.590415548136,-187500.02235174447,-187500.02235174447,-187500.02235174447,-187500.02235174447,-187500.02235174447,1730989346.440586,1730989344.2778196,6000
-6871.462687428319,-90530.08592487406,3837.101618898108,-187500.02235174447,-187500.02235174447,-187500.02235174447,-187500.02235174447,-187500.02235174447,1730989346.4444456,1730989344.2778196,6000
-6812.074102410567,-90519.69236370234,3864.929540744965,-187500.02235174447,-187500.02235174447,-187500.02235174447,-187500.02235174447,-187500.02235174447,1730989346.4476802,1730989344.2778196,6000
-6735.899357306881,-90424.22806313372,3866.918846001488,-187500.02235174447,-187500.02235174447,-187500.02235174447,-187500.02235174447,-187500.02235174447,1730989346.4516833,1730989344.2778196,6000
-6900.855231387047,-90418.08133340853,3805.4739004938488,-187500.02235174447,-187500.02235174447,-187500.02235174447,-187500.02235174447,-187500.02235174447,1730989346.456489,1730989344.2778196,6000
-6868.668719371405,-90506.50483447372,3835.04525840822,-187500.02235174447,-187500.02235174447,-187500.02235174447,-187500.02235174447,-187500.02235174447,1730989346.4604924,1730989344.2778196,6000
-6824.412265349897,-90540.01009941222,3861.2862063987504,-187500.02235174447,-187500.02235174447,-187500.02235174447,-187500.02235174447,-187500.02235174447,1730989346.4645474,1730989344.2778196,6000
-6742.76134285466,-90455.83342979354,3875.8148402947,-187500.02235174447,-187500.02235174447,-187500.02235174447,-187500.02235174447,-187500.02235174447,1730989346.4684248,1730989344.2778196,6000
-6780.401680517398,-90404.17854835732,3852.323156872172,-187500.02235174447,-187500.02235174447,-187500.02235174447,-187500.02235174447,-187500.02235174447,1730989346.4725225,1730989344.2778196,6000
-6862.924321046391,-90483.2590202402,3894.8585265706215,-187500.02235174447,-187500.02235174447,-187500.02235174447,-187500.02235174447,-187500.02235174447,1730989346.4755323,1730989344.2778196,6000
-6875.731870619282,-90537.14907612196,3839.180331132452,-187500.02235174447,-187500.02235174447,-187500.02235174447,-187500.02235174447,-187500.02235174447,1730989346.4795487,1730989344.2778196,6000
-6864.600701880539,-90528.83422718456,3768.593522142592,-187500.02235174447,-187500.02235174447,-187500.02235174447,-187500.02235174447,-187500.02235174447,1730989346.4844627,1730989344.2778196,6000
-6764.688404165317,-90466.27169445416,3813.654638964491,-187500.02235174447,-187500.02235174447,-187500.02235174447,-187500.02235174447,-187500.02235174447,1730989346.488459,1730989344.2778196,6000
-6818.623163535973,-90513.63504095496,3862.00146222132,-187500.02235174447,-187500.02235174447,-187500.02235174447,-187500.02235174447,-187500.02235174447,1730989346.4925373,1730989344.2778196,6000
-6838.203291678821,-90559.38906185498,3872.596189093136,-187500.02235174447,-187500.02235174447,-187500.02235174447,-187500.02235174447,-187500.02235174447,1730989346.4965172,1730989344.2778196,6000
-6777.719471182761,-90492.7585116337,3868.394061135538,-187500.02235174447,-187500.02235174447,-187500.02235174447,-187500.02235174447,-187500.02235174447,1730989346.5006196,1730989344.2778196,6000
-6785.922561397858,-90494.36783723447,3843.4718660678714,-187500.02235174447,-187500.02235174447,-187500.02235174447,-187500.02235174447,-187500.02235174447,1730989346.5035443,1730989344.2778196,6000
-6836.3033934001205,-90497.6088401805,3781.646940904491,-187500.02235174447,-187500.02235174447,-187500.02235174447,-187500.02235174447,-187500.02235174447,1730989346.5076053,1730989344.2778196,6000
-6895.6472749289605,-90541.5747215241,3775.9025425794775,-187500.02235174447,-187500.02235174447,-187500.02235174447,-187500.02235174447,-187500.02235174447,1730989346.5125976,1730989344.2778196,6000
-6870.300396716642,-90557.48916357628,3864.929540744965,-187500.02235174447,-187500.02235174447,-187500.02235174447,-187500.02235174447,-187500.02235174447,1730989346.5165496,1730989344.2778196,6000
-6844.193559192844,-90448.01031923418,3823.176482102452,-187500.02235174447,-187500.02235174447,-187500.02235174447,-187500.02235174447,-187500.02235174447,1730989346.5206733,1730989344.2778196,6000
-6835.565785833095,-90444.41168837687,3839.314441599184,-187500.02235174447,-187500.02235174447,-187500.02235174447,-187500.02235174447,-187500.02235174447,1730989346.5245814,1730989344.2778196,6000
-6796.092605125023,-90548.66022451642,3864.48250585586,-187500.02235174447,-187500.02235174447,-187500.02235174447,-187500.02235174447,-187500.02235174447,1730989346.527558,1730989344.2778196,6000
-6738.71567710825,-90569.24618115976,3885.716663088401,-187500.02235174447,-187500.02235174447,-187500.02235174447,-187500.02235174447,-187500.02235174447,1730989346.5315208,1730989344.2778196,6000
-6778.3676717719645,-90457.93449377234,3861.777944776767,-187500.02235174447,-187500.02235174447,-187500.02235174447,-187500.02235174447,-187500.02235174447,1730989346.5357835,1730989344.2778196,6000
-6918.468406017829,-90454.87230478197,3788.397167729994,-187500.02235174447,-187500.02235174447,-187500.02235174447,-187500.02235174447,-187500.02235174447,1730989346.5399327,1730989344.2778196,6000
-6807.089663397034,-90529.03539288466,3853.910130728499,-187500.02235174447,-187500.02235174447,-187500.02235174447,-187500.02235174447,-187500.02235174447,1730989346.5447192,1730989344.2778196,6000
-6895.803737140148,-90567.74861428126,3818.102636111097,-187500.02235174447,-187500.02235174447,-187500.02235174447,-187500.02235174447,-187500.02235174447,1730989346.5488336,1730989344.2778196,6000
-6869.831010083081,-90477.64873238192,3792.487536965315,-187500.02235174447,-187500.02235174447,-187500.02235174447,-187500.02235174447,-187500.02235174447,1730989346.5527463,1730989344.2778196,6000
-6797.277247581154,-90412.85102520598,3859.855694753611,-187500.02235174447,-187500.02235174447,-187500.02235174447,-187500.02235174447,-187500.02235174447,1730989346.556044,1730989344.2778196,6000
-6797.143137114423,-90499.9110698594,3872.238561181851,-187500.02235174447,-187500.02235174447,-187500.02235174447,-187500.02235174447,-187500.02235174447,1730989346.5600476,1730989344.2778196,6000
-6801.233506349744,-90565.24521890226,3924.1393118070737,-187500.02235174447,-187500.02235174447,-187500.02235174447,-187500.02235174447,-187500.02235174447,1730989346.5639005,1730989344.2778196,6000
-6759.748668640694,-90530.28709057416,3822.66239197998,-187500.02235174447,-187500.02235174447,-187500.02235174447,-187500.02235174447,-187500.02235174447,1730989346.5680003,1730989344.2778196,6000
-6851.971966263291,-90438.48847609622,3746.442943387383,-187500.02235174447,-187500.02235174447,-187500.02235174447,-187500.02235174447,-187500.02235174447,1730989346.5728989,1730989344.2778196,6000
-6829.486111341252,-90486.4106162084,3786.3408072401057,-187500.02235174447,-187500.02235174447,-187500.02235174447,-187500.02235174447,-187500.02235174447,1730989346.5767283,1730989344.2778196,6000
-6882.88442884498,-90545.19570412586,3837.593357276125,-187500.02235174447,-187500.02235174447,-187500.02235174447,-187500.02235174447,-187500.02235174447,1730989346.57997,1730989344.2778196,6000
-6850.563806362607,-90483.12490977348,3877.513572873304,-187500.02235174447,-187500.02235174447,-187500.02235174447,-187500.02235174447,-187500.02235174447,1730989346.5839388,1730989344.2778196,6000
-6797.366654558976,-90434.73338302772,3859.833343009155,-187500.02235174447,-187500.02235174447,-187500.02235174447,-187500.02235174447,-187500.02235174447,1730989346.5880845,1730989344.2778196,6000
-6770.544561212607,-90504.49317747274,3833.8382642076335,-187500.02235174447,-187500.02235174447,-187500.02235174447,-187500.02235174447,-187500.02235174447,1730989346.5919857,1730989344.2778196,6000
-6835.744599788738,-90571.9283904944,3823.645868736013,-187500.02235174447,-187500.02235174447,-187500.02235174447,-187500.02235174447,-187500.02235174447,1730989346.5959,1730989344.2778196,6000
-6769.874008878948,-90512.65156419892,3889.3823491790713,-187500.02235174447,-187500.02235174447,-187500.02235174447,-187500.02235174447,-187500.02235174447,1730989346.6008017,1730989344.2778196,6000
-6756.619424416951,-90419.60125203148,3800.198888802396,-187500.02235174447,-187500.02235174447,-187500.02235174447,-187500.02235174447,-187500.02235174447,1730989346.604844,1730989344.2778196,6000
-6883.823202112103,-90463.2542089527,3801.539993469715,-187500.02235174447,-187500.02235174447,-187500.02235174447,-187500.02235174447,-187500.02235174447,1730989346.607986,1730989344.2778196,6000
-6838.091532956545,-90556.66214903144,3830.977240917354,-187500.02235174447,-187500.02235174447,-187500.02235174447,-187500.02235174447,-187500.02235174447,1730989346.612116,1730989344.2778196,6000
-6883.018539311713,-90525.2132445828,3813.498176753304,-187500.02235174447,-187500.02235174447,-187500.02235174447,-187500.02235174447,-187500.02235174447,1730989346.6159933,1730989344.2778196,6000
-6857.448143654841,-90395.50607150866,3829.211453105385,-187500.02235174447,-187500.02235174447,-187500.02235174447,-187500.02235174447,-187500.02235174447,1730989346.6198473,1730989344.2778196,6000
-6864.533646647174,-90426.597348046,3705.651009756448,-187500.02235174447,-187500.02235174447,-187500.02235174447,-187500.02235174447,-187500.02235174447,1730989346.6239648,1730989344.2778196,6000
-6707.557345337552,-90496.42419772437,3825.657525736991,-187500.02235174447,-187500.02235174447,-187500.02235174447,-187500.02235174447,-187500.02235174447,1730989346.6289656,1730989344.2778196,6000
-6826.468625839785,-90492.13266278896,3868.4387646244486,-187500.02235174447,-187500.02235174447,-187500.02235174447,-187500.02235174447,-187500.02235174447,1730989346.6329317,1730989344.2778196,6000
-6827.429750851364,-90446.4009936334,3848.076325425664,-187500.02235174447,-187500.02235174447,-187500.02235174447,-187500.02235174447,-187500.02235174447,1730989346.635782,1730989344.2778196,6000
-6854.922396531391,-90461.42136590736,3848.121028914575,-187500.02235174447,-187500.02235174447,-187500.02235174447,-187500.02235174447,-187500.02235174447,1730989346.6398892,1730989344.2778196,6000
-6871.887370572969,-90536.45617204382,3796.019112589254,-187500.02235174447,-187500.02235174447,-187500.02235174447,-187500.02235174447,-187500.02235174447,1730989346.6437612,1730989344.2778196,6000
-6909.684170446893,-90500.89454661544,3765.8889610635,-187500.02235174447,-187500.02235174447,-187500.02235174447,-187500.02235174447,-187500.02235174447,1730989346.6479204,1730989344.2778196,6000
-6851.189655207355,-90446.33393840004,3818.9743541448543,-187500.02235174447,-187500.02235174447,-187500.02235174447,-187500.02235174447,-187500.02235174447,1730989346.6517663,1730989344.2778196,6000
-6829.508463085707,-90407.79953095908,3830.641964750525,-187500.02235174447,-187500.02235174447,-187500.02235174447,-187500.02235174447,-187500.02235174447,1730989346.6561232,1730989344.2778196,6000
-6791.666959722872,-90457.21923794976,3926.1509688080514,-187500.02235174447,-187500.02235174447,-187500.02235174447,-187500.02235174447,-187500.02235174447,1730989346.660784,1730989344.2778196,6000
-6746.896415578892,-90521.86048291452,3826.752761215301,-187500.02235174447,-187500.02235174447,-187500.02235174447,-187500.02235174447,-187500.02235174447,1730989346.6639423,1730989344.2778196,6000
-6789.543543999618,-90469.22212472226,3813.878156409044,-187500.02235174447,-187500.02235174447,-187500.02235174447,-187500.02235174447,-187500.02235174447,1730989346.6679485,1730989344.2778196,6000
-6917.864908917536,-90407.06192339206,3883.05680549822,-187500.02235174447,-187500.02235174447,-187500.02235174447,-187500.02235174447,-187500.02235174447,1730989346.6719773,1730989344.2778196,6000
-6863.192541979855,-90498.92759310336,3804.512775482271,-187500.02235174447,-187500.02235174447,-187500.02235174447,-187500.02235174447,-187500.02235174447,1730989346.6761143,1730989344.2778196,6000
-6850.1167714735,-90547.31911984913,3705.9639341788215,-187500.02235174447,-187500.02235174447,-187500.02235174447,-187500.02235174447,-187500.02235174447,1730989346.6799688,1730989344.2778196,6000
-6832.615355564994,-90456.07929898254,3771.141621010497,-187500.02235174447,-187500.02235174447,-187500.02235174447,-187500.02235174447,-187500.02235174447,1730989346.6850765,1730989344.2778196,6000
-6737.843959074493,-90395.17079534184,3824.2493658363055,-187500.02235174447,-187500.02235174447,-187500.02235174447,-187500.02235174447,-187500.02235174447,1730989346.68811,1730989344.2778196,6000
