Fp1,Fp2,C3,C4,P7,P8,O1,O2,time_board,time_marker,marker
24633.723453727183,-98030.5937565081,26216.025795462825,-187500.02235174447,-187500.02235174447,-187500.02235174447,-187500.02235174447,-187500.02235174447,1730655715.7240784,1730655715.7209268,6000
24633.857564193917,-98026.86101518404,26221.41256587655,-187500.02235174447,-187500.02235174447,-187500.02235174447,-187500.02235174447,-187500.02235174447,1730655715.7281606,1730655715.7209268,6000
24633.052901393523,-98043.71423050336,26219.57972283122,-187500.02235174447,-187500.02235174447,-187500.02235174447,-187500.02235174447,-187500.02235174447,1730655715.7312317,1730655715.7209268,6000
24632.73997697115,-98033.20891060936,26215.221132662435,-187500.02235174447,-187500.02235174447,-187500.02235174447,-187500.02235174447,-187500.02235174447,1730655715.7352457,1730655715.7209268,6000
24636.51742178409,-98018.6802767134,26215.39994661808,-187500.02235174447,-187500.02235174447,-187500.02235174447,-187500.02235174447,-187500.02235174447,1730655715.7391355,1730655715.7209268,6000
24633.1646601158,-97997.62493343651,26218.439783864,-187500.02235174447,-187500.02235174447,-187500.02235174447,-187500.02235174447,-187500.02235174447,1730655715.7431955,1730655715.7209268,6000
24632.69527348224,-97998.92133461492,26220.47379260943,-187500.02235174447,-187500.02235174447,-187500.02235174447,-187500.02235174447,-187500.02235174447,1730655715.7482696,1730655715.7209268,6000
24633.65639849381,-97995.61327643551,26215.89168499609,-187500.02235174447,-187500.02235174447,-187500.02235174447,-187500.02235174447,-187500.02235174447,1730655715.7520947,1730655715.7209268,6000
24641.144232886345,-98028.64915474047,26217.545714085783,-187500.02235174447,-187500.02235174447,-187500.02235174447,-187500.02235174447,-187500.02235174447,1730655715.755492,1730655715.7209268,6000
24640.741901486148,-98024.62584073852,26222.6419118216,-187500.02235174447,-187500.02235174447,-187500.02235174447,-187500.02235174447,-187500.02235174447,1730655715.759297,1730655715.7209268,6000
24633.276418838075,-97998.69781717037,26221.345510643187,-187500.02235174447,-187500.02235174447,-187500.02235174447,-187500.02235174447,-187500.02235174447,1730655715.7631717,1730655715.7209268,6000
24631.577686259472,-97975.78727910368,26215.91403674055,-187500.02235174447,-187500.02235174447,-187500.02235174447,-187500.02235174447,-187500.02235174447,1730655715.7674365,1730655715.7209268,6000
24638.953761929723,-98013.11469234404,26222.08311821021,-187500.02235174447,-187500.02235174447,-187500.02235174447,-187500.02235174447,-187500.02235174447,1730655715.7711792,1730655715.7209268,6000
24638.93141018527,-98034.39355306549,26221.926655999025,-187500.02235174447,-187500.02235174447,-187500.02235174447,-187500.02235174447,-187500.02235174447,1730655715.775296,1730655715.7209268,6000
24635.042206650043,-97990.49472695526,26215.556408829263,-187500.02235174447,-187500.02235174447,-187500.02235174447,-187500.02235174447,-187500.02235174447,1730655715.7803545,1730655715.7209268,6000
24635.62335200588,-98014.00876212223,26218.551542586272,-187500.02235174447,-187500.02235174447,-187500.02235174447,-187500.02235174447,-187500.02235174447,1730655715.7832975,1730655715.7209268,6000
24633.03054964907,-98013.67348595544,26216.3387198852,-187500.02235174447,-187500.02235174447,-187500.02235174447,-187500.02235174447,-187500.02235174447,1730655715.7873669,1730655715.7209268,6000
24633.65639849381,-97983.0739477961,26215.77992627381,-187500.02235174447,-187500.02235174447,-187500.02235174447,-187500.02235174447,-187500.02235174447,1730655715.7920256,1730655715.7209268,6000
24636.137442128354,-97986.6278751645,26216.65164430757,-187500.02235174447,-187500.02235174447,-187500.02235174447,-187500.02235174447,-187500.02235174447,1730655715.795558,1730655715.7209268,6000
24637.74676772914,-98003.52579397272,26217.50101059688,-187500.02235174447,-187500.02235174447,-187500.02235174447,-187500.02235174447,-187500.02235174447,1730655715.7993915,1730655715.7209268,6000
24633.119956626888,-97994.65215142396,26217.34454838569,-187500.02235174447,-187500.02235174447,-187500.02235174447,-187500.02235174447,-187500.02235174447,1730655715.8032656,1730655715.7209268,6000
24628.291979824546,-97970.55697090112,26215.377594873626,-187500.02235174447,-187500.02235174447,-187500.02235174447,-187500.02235174447,-187500.02235174447,1730655715.8095288,1730655715.7209268,6000
24636.137442128354,-98029.36441056304,26219.57972283122,-187500.02235174447,-187500.02235174447,-187500.02235174447,-187500.02235174447,-187500.02235174447,1730655715.8123608,1730655715.7209268,6000
24637.34443632894,-98035.39938156598,26216.964568729945,-187500.02235174447,-187500.02235174447,-187500.02235174447,-187500.02235174447,-187500.02235174447,1730655715.816538,1730655715.7209268,6000
24637.88087819587,-97999.50247997076,26216.85281000767,-187500.02235174447,-187500.02235174447,-187500.02235174447,-187500.02235174447,-187500.02235174447,1730655715.8195603,1730655715.7209268,6000
24633.1646601158,-97989.64536066596,26217.56806583024,-187500.02235174447,-187500.02235174447,-187500.02235174447,-187500.02235174447,-187500.02235174447,1730655715.823542,1730655715.7209268,6000
24633.00819790461,-97996.01560783572,26216.316368140742,-187500.02235174447,-187500.02235174447,-187500.02235174447,-187500.02235174447,-187500.02235174447,1730655715.8275418,1730655715.7209268,6000
24636.91975318429,-98003.16816606144,26215.33289138471,-187500.02235174447,-187500.02235174447,-187500.02235174447,-187500.02235174447,-187500.02235174447,1730655715.831531,1730655715.7209268,6000
24637.992636918145,-98012.86882315503,26220.697310053984,-187500.02235174447,-187500.02235174447,-187500.02235174447,-187500.02235174447,-187500.02235174447,1730655715.8362591,1730655715.7209268,6000
24637.56795377349,-98016.51215750125,26218.439783864,-187500.02235174447,-187500.02235174447,-187500.02235174447,-187500.02235174447,-187500.02235174447,1730655715.8395565,1730655715.7209268,6000
24633.38817756035,-98016.55686099015,26218.171562930533,-187500.02235174447,-187500.02235174447,-187500.02235174447,-187500.02235174447,-187500.02235174447,1730655715.842574,1730655715.7209268,6000
24632.471756037685,-98016.42275052344,26214.34941462868,-187500.02235174447,-187500.02235174447,-187500.02235174447,-187500.02235174447,-187500.02235174447,1730655715.8474653,1730655715.7209268,6000
24634.930447927767,-98038.37216357852,26212.1365919276,-187500.02235174447,-187500.02235174447,-187500.02235174447,-187500.02235174447,-187500.02235174447,1730655715.8514652,1730655715.7209268,6000
24636.942104928745,-98041.09907640208,26215.444650106987,-187500.02235174447,-187500.02235174447,-187500.02235174447,-187500.02235174447,-187500.02235174447,1730655715.8553717,1730655715.7209268,6000
24637.031511906567,-98035.6899542439,26224.362996144653,-187500.02235174447,-187500.02235174447,-187500.02235174447,-187500.02235174447,-187500.02235174447,1730655715.859579,1730655715.7209268,6000
24635.668055494792,-98034.77353272124,26217.031623963318,-187500.02235174447,-187500.02235174447,-187500.02235174447,-187500.02235174447,-187500.02235174447,1730655715.8632994,1730655715.7209268,6000
24631.82355544848,-98040.94261419088,26216.562237329752,-187500.02235174447,-187500.02235174447,-187500.02235174447,-187500.02235174447,-187500.02235174447,1730655715.866624,1730655715.7209268,6000
24625.45330827872,-98017.49563425728,26216.45047860748,-187500.02235174447,-187500.02235174447,-187500.02235174447,-187500.02235174447,-187500.02235174447,1730655715.8713353,1730655715.7209268,6000
24628.62725599137,-98027.7327332178,26217.836286763704,-187500.02235174447,-187500.02235174447,-187500.02235174447,-187500.02235174447,-187500.02235174447,1730655715.8755724,1730655715.7209268,6000
24628.20257284672,-98005.64920969596,26214.930559984517,-187500.02235174447,-187500.02235174447,-187500.02235174447,-187500.02235174447,-187500.02235174447,1730655715.8793828,1730655715.7209268,6000
24631.64474149284,-98004.26340153972,26214.6399873066,-187500.02235174447,-187500.02235174447,-187500.02235174447,-187500.02235174447,-187500.02235174447,1730655715.8856409,1730655715.7209268,6000
24632.35999731541,-98030.10201813008,26218.104507697168,-187500.02235174447,-187500.02235174447,-187500.02235174447,-187500.02235174447,-187500.02235174447,1730655715.8883407,1730655715.7209268,6000
24634.70693048321,-98020.96015464784,26218.12685944162,-187500.02235174447,-187500.02235174447,-187500.02235174447,-187500.02235174447,-187500.02235174447,1730655715.8916864,1730655715.7209268,6000
24635.042206650043,-97998.65311368146,26217.94804548598,-187500.02235174447,-187500.02235174447,-187500.02235174447,-187500.02235174447,-187500.02235174447,1730655715.8955872,1730655715.7209268,6000
24633.92461942728,-97991.85818336705,26216.405775118565,-187500.02235174447,-187500.02235174447,-187500.02235174447,-187500.02235174447,-187500.02235174447,1730655715.8986368,1730655715.7209268,6000
24636.1150903839,-97975.98844480378,26215.824629762727,-187500.02235174447,-187500.02235174447,-187500.02235174447,-187500.02235174447,-187500.02235174447,1730655715.903685,1730655715.7209268,6000
24642.105357897923,-98035.01940191023,26224.27358916683,-187500.02235174447,-187500.02235174447,-187500.02235174447,-187500.02235174447,-187500.02235174447,1730655715.907765,1730655715.7209268,6000
24631.71179672621,-98017.5403377462,26217.76923153034,-187500.02235174447,-187500.02235174447,-187500.02235174447,-187500.02235174447,-187500.02235174447,1730655715.9117398,1730655715.7209268,6000
24630.325988569974,-97974.49087792527,26215.735222784904,-187500.02235174447,-187500.02235174447,-187500.02235174447,-187500.02235174447,-187500.02235174447,1730655715.9154763,1730655715.7209268,6000
24632.181183359764,-98016.82508192364,26216.09285069619,-187500.02235174447,-187500.02235174447,-187500.02235174447,-187500.02235174447,-187500.02235174447,1730655715.9195397,1730655715.7209268,6000
24638.4173200628,-98001.5811922051,26212.47186809443,-187500.02235174447,-187500.02235174447,-187500.02235174447,-187500.02235174447,-187500.02235174447,1730655715.9224713,1730655715.7209268,6000
24636.472718295183,-97971.58515114608,26223.178353688523,-187500.02235174447,-187500.02235174447,-187500.02235174447,-187500.02235174447,-187500.02235174447,1730655715.9265146,1730655715.7209268,6000
24630.370692058885,-97937.5657960851,26223.13365019961,-187500.02235174447,-187500.02235174447,-187500.02235174447,-187500.02235174447,-187500.02235174447,1730655715.931595,1730655715.7209268,6000
24633.611695004904,-97933.92246173888,26221.211400176457,-187500.02235174447,-187500.02235174447,-187500.02235174447,-187500.02235174447,-187500.02235174447,1730655715.9355907,1730655715.7209268,6000
24639.15492762982,-97986.3373024866,26223.37951938862,-187500.02235174447,-187500.02235174447,-187500.02235174447,-187500.02235174447,-187500.02235174447,1730655715.939644,1730655715.7209268,6000
24634.371654316383,-98012.82411966613,26222.32898739922,-187500.02235174447,-187500.02235174447,-187500.02235174447,-187500.02235174447,-187500.02235174447,1730655715.9427464,1730655715.7209268,6000
24633.723453727183,-98000.19538404889,26217.791583274797,-187500.02235174447,-187500.02235174447,-187500.02235174447,-187500.02235174447,-187500.02235174447,1730655715.9464097,1730655715.7209268,6000
24636.1150903839,-98031.15255011948,26218.976225730923,-187500.02235174447,-187500.02235174447,-187500.02235174447,-187500.02235174447,-187500.02235174447,1730655715.9506953,1730655715.7209268,6000
24633.812860705,-98016.75802669024,26215.89168499609,-187500.02235174447,-187500.02235174447,-187500.02235174447,-187500.02235174447,-187500.02235174447,1730655715.9544954,1730655715.7209268,6000
24630.30363682552,-97960.63279636296,26216.025795462825,-187500.02235174447,-187500.02235174447,-187500.02235174447,-187500.02235174447,-187500.02235174447,1730655715.9597504,1730655715.7209268,6000
24633.54463977154,-97965.25960746522,26220.339682142698,-187500.02235174447,-187500.02235174447,-187500.02235174447,-187500.02235174447,-187500.02235174447,1730655715.9636047,1730655715.7209268,6000
24635.62335200588,-97984.4821076968,26223.647740322085,-187500.02235174447,-187500.02235174447,-187500.02235174447,-187500.02235174447,-187500.02235174447,1730655715.9676452,1730655715.7209268,6000
24631.264761837097,-97975.8766860815,26219.266798408844,-187500.02235174447,-187500.02235174447,-187500.02235174447,-187500.02235174447,-187500.02235174447,1730655715.9705365,1730655715.7209268,6000
24630.61656124789,-97974.66969188092,26217.67982455252,-187500.02235174447,-187500.02235174447,-187500.02235174447,-187500.02235174447,-187500.02235174447,1730655715.974723,1730655715.7209268,6000
24631.77885195957,-97989.06421531014,26216.94221698549,-187500.02235174447,-187500.02235174447,-187500.02235174447,-187500.02235174447,-187500.02235174447,1730655715.9787755,1730655715.7209268,6000
24640.428977063773,-97999.34601775956,26220.317330398244,-187500.02235174447,-187500.02235174447,-187500.02235174447,-187500.02235174447,-187500.02235174447,1730655715.98267,1730655715.7209268,6000
24641.524212542085,-98014.16522433344,26219.222094919933,-187500.02235174447,-187500.02235174447,-187500.02235174447,-187500.02235174447,-187500.02235174447,1730655715.9874651,1730655715.7209268,6000
24631.890610681847,-98012.131215588,26213.120068683635,-187500.02235174447,-187500.02235174447,-187500.02235174447,-187500.02235174447,-187500.02235174447,1730655715.9917383,1730655715.7209268,6000
24629.409567047307,-98003.99518060627,26216.159905929555,-187500.02235174447,-187500.02235174447,-187500.02235174447,-187500.02235174447,-187500.02235174447,1730655715.9957345,1730655715.7209268,6000
24628.336683313453,-97978.51419192724,26221.703138554472,-187500.02235174447,-187500.02235174447,-187500.02235174447,-187500.02235174447,-187500.02235174447,1730655715.9986997,1730655715.7209268,6000
24626.123860612377,-97965.55018014315,26220.74201354289,-187500.02235174447,-187500.02235174447,-187500.02235174447,-187500.02235174447,-187500.02235174447,1730655716.0027092,1730655715.7209268,6000
24632.33764557095,-97985.73380538628,26220.67495830953,-187500.02235174447,-187500.02235174447,-187500.02235174447,-187500.02235174447,-187500.02235174447,1730655716.0066512,1730655715.7209268,6000
24634.03637814956,-98019.75316044726,26219.4903158534,-187500.02235174447,-187500.02235174447,-187500.02235174447,-187500.02235174447,-187500.02235174447,1730655716.010689,1730655715.7209268,6000
24631.71179672621,-97965.21490397632,26216.80810651876,-187500.02235174447,-187500.02235174447,-187500.02235174447,-187500.02235174447,-187500.02235174447,1730655716.0165968,1730655715.7209268,6000
24631.35416881492,-97977.39660470444,26223.491278110894,-187500.02235174447,-187500.02235174447,-187500.02235174447,-187500.02235174447,-187500.02235174447,1730655716.0197754,1730655715.7209268,6000
24632.15883161531,-97969.68525286738,26219.69148155349,-187500.02235174447,-187500.02235174447,-187500.02235174447,-187500.02235174447,-187500.02235174447,1730655716.0236857,1730655715.7209268,6000
24631.64474149284,-97981.48697393978,26221.09964145418,-187500.02235174447,-187500.02235174447,-187500.02235174447,-187500.02235174447,-187500.02235174447,1730655716.0266702,1730655715.7209268,6000
24629.09664262493,-97977.46365993784,26218.842115264197,-187500.02235174447,-187500.02235174447,-187500.02235174447,-187500.02235174447,-187500.02235174447,1730655716.0306387,1730655715.7209268,6000
24632.002369404123,-97989.28773275467,26219.78088853132,-187500.02235174447,-187500.02235174447,-187500.02235174447,-187500.02235174447,-187500.02235174447,1730655716.035688,1730655715.7209268,6000
24636.60682876192,-98001.76000616074,26221.03258622081,-187500.02235174447,-187500.02235174447,-187500.02235174447,-187500.02235174447,-187500.02235174447,1730655716.0397685,1730655715.7209268,6000
24634.908096183317,-97981.21875300632,26217.210437918955,-187500.02235174447,-187500.02235174447,-187500.02235174447,-187500.02235174447,-187500.02235174447,1730655716.0426464,1730655715.7209268,6000
24633.83521244946,-97960.18576147388,26215.89168499609,-187500.02235174447,-187500.02235174447,-187500.02235174447,-187500.02235174447,-187500.02235174447,1730655716.0475852,1730655715.7209268,6000
24633.79050896055,-97962.33152894158,26215.489353595894,-187500.02235174447,-187500.02235174447,-187500.02235174447,-187500.02235174447,-187500.02235174447,1730655716.0506876,1730655715.7209268,6000
24640.1160526414,-98015.61808772304,26218.2386181639,-187500.02235174447,-187500.02235174447,-187500.02235174447,-187500.02235174447,-187500.02235174447,1730655716.053575,1730655715.7209268,6000
24641.81478522,-98031.59958500856,26223.647740322085,-187500.02235174447,-187500.02235174447,-187500.02235174447,-187500.02235174447,-187500.02235174447,1730655716.058774,1730655715.7209268,6000
24635.73511072816,-97999.18955554838,26223.021891477336,-187500.02235174447,-187500.02235174447,-187500.02235174447,-187500.02235174447,-187500.02235174447,1730655716.0626495,1730655715.7209268,6000
24629.275456580577,-97977.10603202654,26216.204609418462,-187500.02235174447,-187500.02235174447,-187500.02235174447,-187500.02235174447,-187500.02235174447,1730655716.0668063,1730655715.7209268,6000
24627.956703657717,-97978.69300588287,26222.55250484377,-187500.02235174447,-187500.02235174447,-187500.02235174447,-187500.02235174447,-187500.02235174447,1730655716.070704,1730655715.7209268,6000
24622.145250099333,-97968.50061041124,26217.88099025261,-187500.02235174447,-187500.02235174447,-187500.02235174447,-187500.02235174447,-187500.02235174447,1730655716.0757046,1730655715.7209268,6000
24625.565067001,-97975.63081689247,26219.020929219834,-187500.02235174447,-187500.02235174447,-187500.02235174447,-187500.02235174447,-187500.02235174447,1730655716.0787668,1730655715.7209268,6000
24629.11899436939,-98005.38098876252,26219.57972283122,-187500.02235174447,-187500.02235174447,-187500.02235174447,-187500.02235174447,-187500.02235174447,1730655716.081882,1730655715.7209268,6000
24631.4659275372,-97952.876741037,26218.61859781964,-187500.02235174447,-187500.02235174447,-187500.02235174447,-187500.02235174447,-187500.02235174447,1730655716.0868928,1730655715.7209268,6000
24636.226849106177,-97972.2780552242,26222.6419118216,-187500.02235174447,-187500.02235174447,-187500.02235174447,-187500.02235174447,-187500.02235174447,1730655716.090844,1730655715.7209268,6000
24630.16952635879,-97967.51713365522,26219.356205386663,-187500.02235174447,-187500.02235174447,-187500.02235174447,-187500.02235174447,-187500.02235174447,1730655716.0948656,1730655715.7209268,6000
24640.36192183041,-97952.5191131257,26217.612769319152,-187500.02235174447,-187500.02235174447,-187500.02235174447,-187500.02235174447,-187500.02235174447,1730655716.0988295,1730655715.7209268,6000
24640.764253230605,-97980.10116578356,26225.32412115623,-187500.02235174447,-187500.02235174447,-187500.02235174447,-187500.02235174447,-187500.02235174447,1730655716.1028297,1730655715.7209268,6000
24634.081081638466,-98010.52188998724,26222.798374032784,-187500.02235174447,-187500.02235174447,-187500.02235174447,-187500.02235174447,-187500.02235174447,1730655716.1067903,1730655715.7209268,6000
24626.883819923856,-97968.99234878928,26217.210437918955,-187500.02235174447,-187500.02235174447,-187500.02235174447,-187500.02235174447,-187500.02235174447,1730655716.109784,1730655715.7209268,6000
24632.382349059862,-98005.44804399589,26217.76923153034,-187500.02235174447,-187500.02235174447,-187500.02235174447,-187500.02235174447,-187500.02235174447,1730655716.1159537,1730655715.7209268,6000
24635.48924153915,-98005.40334050696,26220.272626909333,-187500.02235174447,-187500.02235174447,-187500.02235174447,-187500.02235174447,-187500.02235174447,1730655716.1189637,1730655715.7209268,6000
24632.71762522669,-98015.79690167868,26226.486411867907,-187500.02235174447,-187500.02235174447,-187500.02235174447,-187500.02235174447,-187500.02235174447,1730655716.1228063,1730655715.7209268,6000
24629.789546703047,-98004.97865736231,26220.42908912052,-187500.02235174447,-187500.02235174447,-187500.02235174447,-187500.02235174447,-187500.02235174447,1730655716.1268673,1730655715.7209268,6000
24624.894514667336,-97981.30815998414,26215.735222784904,-187500.02235174447,-187500.02235174447,-187500.02235174447,-187500.02235174447,-187500.02235174447,1730655716.1309123,1730655715.7209268,6000
24628.470793780183,-97972.76979360222,26212.918902983536,-187500.02235174447,-187500.02235174447,-187500.02235174447,-187500.02235174447,-187500.02235174447,1730655716.13482,1730655715.7209268,6000
24638.998465418637,-97936.55996758462,26220.518496098342,-187500.02235174447,-187500.02235174447,-187500.02235174447,-187500.02235174447,-187500.02235174447,1730655716.137749,1730655715.7209268,6000
24631.77885195957,-97945.23244443328,26220.89847575408,-187500.02235174447,-187500.02235174447,-187500.02235174447,-187500.02235174447,-187500.02235174447,1730655716.1428869,1730655715.7209268,6000
24624.73805245615,-97974.60263664754,26220.943179242997,-187500.02235174447,-187500.02235174447,-187500.02235174447,-187500.02235174447,-187500.02235174447,1730655716.1469798,1730655715.7209268,6000
24624.73805245615,-97962.15271498596,26219.57972283122,-187500.02235174447,-187500.02235174447,-187500.02235174447,-187500.02235174447,-187500.02235174447,1730655716.1509829,1730655715.7209268,6000
24632.02472114858,-97987.90192459844,26220.00440597587,-187500.02235174447,-187500.02235174447,-187500.02235174447,-187500.02235174447,-187500.02235174447,1730655716.154802,1730655715.7209268,6000
24627.956703657717,-97960.5210376407,26218.32802514172,-187500.02235174447,-187500.02235174447,-187500.02235174447,-187500.02235174447,-187500.02235174447,1730655716.1589572,1730655715.7209268,6000
24628.895476924838,-97958.26351145071,26217.90334199707,-187500.02235174447,-187500.02235174447,-187500.02235174447,-187500.02235174447,-187500.02235174447,1730655716.1628034,1730655715.7209268,6000
24629.946008914238,-97932.69311579384,26213.67886229501,-187500.02235174447,-187500.02235174447,-187500.02235174447,-187500.02235174447,-187500.02235174447,1730655716.166031,1730655715.7209268,6000
24625.676825723272,-97911.0566271611,26218.506839097365,-187500.02235174447,-187500.02235174447,-187500.02235174447,-187500.02235174447,-187500.02235174447,1730655716.1707976,1730655715.7209268,6000
24624.246314078133,-97915.48227256324,26218.260969908355,-187500.02235174447,-187500.02235174447,-187500.02235174447,-187500.02235174447,-187500.02235174447,1730655716.175,1730655715.7209268,6000
24628.04611063553,-97934.72712453928,26214.48352509541,-187500.02235174447,-187500.02235174447,-187500.02235174447,-187500.02235174447,-187500.02235174447,1730655716.1789613,1730655715.7209268,6000
24631.801203704024,-97940.58328158656,26212.89655123908,-187500.02235174447,-187500.02235174447,-187500.02235174447,-187500.02235174447,-187500.02235174447,1730655716.1849525,1730655715.7209268,6000
24632.58351475996,-97930.18972041486,26221.03258622081,-187500.02235174447,-187500.02235174447,-187500.02235174447,-187500.02235174447,-187500.02235174447,1730655716.187814,1730655715.7209268,6000
24629.007235647117,-97942.30436590964,26224.45240312248,-187500.02235174447,-187500.02235174447,-187500.02235174447,-187500.02235174447,-187500.02235174447,1730655716.1911614,1730655715.7209268,6000
24630.571857758983,-97976.05550003714,26221.77019378784,-187500.02235174447,-187500.02235174447,-187500.02235174447,-187500.02235174447,-187500.02235174447,1730655716.1938577,1730655715.7209268,6000
24628.04611063553,-97960.58809287408,26217.14338268559,-187500.02235174447,-187500.02235174447,-187500.02235174447,-187500.02235174447,-187500.02235174447,1730655716.197996,1730655715.7209268,6000
24634.170488616288,-97969.03705227816,26219.73618504241,-187500.02235174447,-187500.02235174447,-187500.02235174447,-187500.02235174447,-187500.02235174447,1730655716.2028656,1730655715.7209268,6000
24632.047072893038,-98018.45675926884,26220.47379260943,-187500.02235174447,-187500.02235174447,-187500.02235174447,-187500.02235174447,-187500.02235174447,1730655716.206974,1730655715.7209268,6000
24627.666130979796,-97948.0264124902,26213.56710357274,-187500.02235174447,-187500.02235174447,-187500.02235174447,-187500.02235174447,-187500.02235174447,1730655716.2110035,1730655715.7209268,6000
24629.63308449186,-97941.83497927609,26220.294978653787,-187500.02235174447,-187500.02235174447,-187500.02235174447,-187500.02235174447,-187500.02235174447,1730655716.2140217,1730655715.7209268,6000
24631.264761837097,-97936.42585711788,26219.535019342307,-187500.02235174447,-187500.02235174447,-187500.02235174447,-187500.02235174447,-187500.02235174447,1730655716.2178664,1730655715.7209268,6000
24632.136479870856,-97971.80866859065,26221.256103665368,-187500.02235174447,-187500.02235174447,-187500.02235174447,-187500.02235174447,-187500.02235174447,1730655716.2222407,1730655715.7209268,6000
24627.286151324053,-97954.48606663776,26217.50101059688,-187500.02235174447,-187500.02235174447,-187500.02235174447,-187500.02235174447,-187500.02235174447,1730655716.2260745,1730655715.7209268,6000
24627.68848272425,-97964.20907547582,26215.42229836253,-187500.02235174447,-187500.02235174447,-187500.02235174447,-187500.02235174447,-187500.02235174447,1730655716.230893,1730655715.7209268,6000
24637.523250284583,-97972.47922092427,26216.38342337411,-187500.02235174447,-187500.02235174447,-187500.02235174447,-187500.02235174447,-187500.02235174447,1730655716.2348948,1730655715.7209268,6000
24642.68650325376,-97960.25281670725,26218.104507697168,-187500.02235174447,-187500.02235174447,-187500.02235174447,-187500.02235174447,-187500.02235174447,1730655716.2390375,1730655715.7209268,6000
24633.20936360471,-97963.73968884228,26222.48544961041,-187500.02235174447,-187500.02235174447,-187500.02235174447,-187500.02235174447,-187500.02235174447,1730655716.2420928,1730655715.7209268,6000
24622.59228498844,-97990.382968233,26218.462135608454,-187500.02235174447,-187500.02235174447,-187500.02235174447,-187500.02235174447,-187500.02235174447,1730655716.245938,1730655715.7209268,6000
24626.570895501485,-98039.24388161227,26216.42812686302,-187500.02235174447,-187500.02235174447,-187500.02235174447,-187500.02235174447,-187500.02235174447,1730655716.250109,1730655715.7209268,6000
24627.129689112862,-98009.96309637584,26217.50101059688,-187500.02235174447,-187500.02235174447,-187500.02235174447,-187500.02235174447,-187500.02235174447,1730655716.2540157,1730655715.7209268,6000
24629.141346113844,-98003.6822561839,26219.78088853132,-187500.02235174447,-187500.02235174447,-187500.02235174447,-187500.02235174447,-187500.02235174447,1730655716.2590747,1730655715.7209268,6000
24624.179258844764,-98000.9776951048,26217.94804548598,-187500.02235174447,-187500.02235174447,-187500.02235174447,-187500.02235174447,-187500.02235174447,1730655716.2630196,1730655715.7209268,6000
24622.70404371072,-97979.45296519434,26213.5894553172,-187500.02235174447,-187500.02235174447,-187500.02235174447,-187500.02235174447,-187500.02235174447,1730655716.2660837,1730655715.7209268,6000
24634.617523505392,-97984.70562514136,26213.85767625066,-187500.02235174447,-187500.02235174447,-187500.02235174447,-187500.02235174447,-187500.02235174447,1730655716.2700567,1730655715.7209268,6000
24641.501860797627,-98005.85037539608,26215.86933325164,-187500.02235174447,-187500.02235174447,-187500.02235174447,-187500.02235174447,-187500.02235174447,1730655716.2740855,1730655715.7209268,6000
24655.40464584883,-97974.02149129171,26216.025795462825,-187500.02235174447,-187500.02235174447,-187500.02235174447,-187500.02235174447,-187500.02235174447,1730655716.2779624,1730655715.7209268,6000
24691.882692799893,-97972.5239244132,26224.787679289304,-187500.02235174447,-187500.02235174447,-187500.02235174447,-187500.02235174447,-187500.02235174447,1730655716.2820525,1730655715.7209268,6000
24670.067390211512,-97996.10501481355,26230.82265029224,-187500.02235174447,-187500.02235174447,-187500.02235174447,-187500.02235174447,-187500.02235174447,1730655716.286082,1730655715.7209268,6000
24633.87991593837,-97980.6823111394,26227.402833390577,-187500.02235174447,-187500.02235174447,-187500.02235174447,-187500.02235174447,-187500.02235174447,1730655716.2910814,1730655715.7209268,6000
24647.715645756205,-97971.54044765716,26223.75949904436,-187500.02235174447,-187500.02235174447,-187500.02235174447,-187500.02235174447,-187500.02235174447,1730655716.2940786,1730655715.7209268,6000
24668.011029721623,-97987.36548273152,26220.406737376063,-187500.02235174447,-187500.02235174447,-187500.02235174447,-187500.02235174447,-187500.02235174447,1730655716.298112,1730655715.7209268,6000
24640.92071544179,-98000.48595672678,26222.53015309932,-187500.02235174447,-187500.02235174447,-187500.02235174447,-187500.02235174447,-187500.02235174447,1730655716.3020682,1730655715.7209268,6000
24659.0703319395,-97983.56568617412,26224.65356882257,-187500.02235174447,-187500.02235174447,-187500.02235174447,-187500.02235174447,-187500.02235174447,1730655716.306196,1730655715.7209268,6000
24678.69516357126,-97968.05357552214,26228.162792702056,-187500.02235174447,-187500.02235174447,-187500.02235174447,-187500.02235174447,-187500.02235174447,1730655716.3100464,1730655715.7209268,6000
24631.55533451502,-97988.7736426322,26214.930559984517,-187500.02235174447,-187500.02235174447,-187500.02235174447,-187500.02235174447,-187500.02235174447,1730655716.3141065,1730655715.7209268,6000
24624.447479778228,-98020.17784359193,26237.05878699527,-187500.02235174447,-187500.02235174447,-187500.02235174447,-187500.02235174447,-187500.02235174447,1730655716.3192503,1730655715.7209268,6000
24656.321067371497,-97979.14004077198,26235.00242650538,-187500.02235174447,-187500.02235174447,-187500.02235174447,-187500.02235174447,-187500.02235174447,1730655716.3220787,1730655715.7209268,6000
24657.81863425,-97987.4772414538,26244.770138832348,-187500.02235174447,-187500.02235174447,-187500.02235174447,-187500.02235174447,-187500.02235174447,1730655716.3262432,1730655715.7209268,6000
24701.89627431587,-97969.23821797829,26305.90215991761,-187500.02235174447,-187500.02235174447,-187500.02235174447,-187500.02235174447,-187500.02235174447,1730655716.3300765,1730655715.7209268,6000
24689.60281486545,-98003.883421884,26232.454327637475,-187500.02235174447,-187500.02235174447,-187500.02235174447,-187500.02235174447,-187500.02235174447,1730655716.334299,1730655715.7209268,6000
24579.609880400883,-98002.65407593896,26150.91516386452,-187500.02235174447,-187500.02235174447,-187500.02235174447,-187500.02235174447,-187500.02235174447,1730655716.3381424,1730655715.7209268,6000
24622.793450688536,-97942.23731067628,26152.41273074302,-187500.02235174447,-187500.02235174447,-187500.02235174447,-187500.02235174447,-187500.02235174447,1730655716.3433323,1730655715.7209268,6000
24661.819596507503,-97958.15175272844,26130.485669432364,-187500.02235174447,-187500.02235174447,-187500.02235174447,-187500.02235174447,-187500.02235174447,1730655716.3461676,1730655715.7209268,6000
24668.860396010925,-97949.61338634652,26243.339627187208,-187500.02235174447,-187500.02235174447,-187500.02235174447,-187500.02235174447,-187500.02235174447,1730655716.3492332,1730655715.7209268,6000
24578.559348411483,-97948.5181508682,26211.466039593943,-187500.02235174447,-187500.02235174447,-187500.02235174447,-187500.02235174447,-187500.02235174447,1730655716.3541403,1730655715.7209268,6000
24553.324228921443,-97969.46173542282,26207.062745936248,-187500.02235174447,-187500.02235174447,-187500.02235174447,-187500.02235174447,-187500.02235174447,1730655716.3581834,1730655715.7209268,6000
24608.667148192784,-97967.60654063305,26195.43983881949,-187500.02235174447,-187500.02235174447,-187500.02235174447,-187500.02235174447,-187500.02235174447,1730655716.3621943,1730655715.7209268,6000
24670.31325940052,-97950.30629042465,26224.1394787001,-187500.02235174447,-187500.02235174447,-187500.02235174447,-187500.02235174447,-187500.02235174447,1730655716.3662715,1730655715.7209268,6000
24664.322991886496,-97987.09726179806,26291.239415554934,-187500.02235174447,-187500.02235174447,-187500.02235174447,-187500.02235174447,-187500.02235174447,1730655716.37035,1730655715.7209268,6000
24571.29503146351,-97952.40735440345,26200.91601621104,-187500.02235174447,-187500.02235174447,-187500.02235174447,-187500.02235174447,-187500.02235174447,1730655716.3744228,1730655715.7209268,6000
24652.02953243608,-97969.50643891172,26170.294126307264,-187500.02235174447,-187500.02235174447,-187500.02235174447,-187500.02235174447,-187500.02235174447,1730655716.3772533,1730655715.7209268,6000
24725.969103094238,-97968.41120343342,26181.626460746105,-187500.02235174447,-187500.02235174447,-187500.02235174447,-187500.02235174447,-187500.02235174447,1730655716.3823273,1730655715.7209268,6000
24713.02744305461,-97954.86604629352,26248.324066200745,-187500.02235174447,-187500.02235174447,-187500.02235174447,-187500.02235174447,-187500.02235174447,1730655716.3862476,1730655715.7209268,6000
24622.368767543885,-97949.92631076887,26262.942107074512,-187500.02235174447,-187500.02235174447,-187500.02235174447,-187500.02235174447,-187500.02235174447,1730655716.3904057,1730655715.7209268,6000
24534.52641183453,-98005.85037539608,26200.42427783302,-187500.02235174447,-187500.02235174447,-187500.02235174447,-187500.02235174447,-187500.02235174447,1730655716.3943872,1730655715.7209268,6000
24620.91590415429,-98020.82604418111,26073.66753502697,-187500.02235174447,-187500.02235174447,-187500.02235174447,-187500.02235174447,-187500.02235174447,1730655716.3984275,1730655715.7209268,6000
24872.976526376788,-97940.33741239757,26223.156001944066,-187500.02235174447,-187500.02235174447,-187500.02235174447,-187500.02235174447,-187500.02235174447,1730655716.4024384,1730655715.7209268,6000
24827.557781643605,-97948.04876423464,26274.87793861365,-187500.02235174447,-187500.02235174447,-187500.02235174447,-187500.02235174447,-187500.02235174447,1730655716.4052236,1730655715.7209268,6000
24659.897346484348,-97972.61333139102,26224.69827231148,-187500.02235174447,-187500.02235174447,-187500.02235174447,-187500.02235174447,-187500.02235174447,1730655716.409256,1730655715.7209268,6000
24615.260912807094,-97970.71343311232,26247.16177548907,-187500.02235174447,-187500.02235174447,-187500.02235174447,-187500.02235174447,-187500.02235174447,1730655716.4142363,1730655715.7209268,6000
24544.919973006246,-97990.80765137765,26361.289782677864,-187500.02235174447,-187500.02235174447,-187500.02235174447,-187500.02235174447,-187500.02235174447,1730655716.4183776,1730655715.7209268,6000
24635.466889794698,-97993.75808164576,26229.705063069472,-187500.02235174447,-187500.02235174447,-187500.02235174447,-187500.02235174447,-187500.02235174447,1730655716.4221928,1730655715.7209268,6000
24823.9591507863,-97971.4733924238,26194.56812078573,-187500.02235174447,-187500.02235174447,-187500.02235174447,-187500.02235174447,-187500.02235174447,1730655716.4263463,1730655715.7209268,6000
24738.329617778018,-98004.03988409518,26198.65849002105,-187500.02235174447,-187500.02235174447,-187500.02235174447,-187500.02235174447,-187500.02235174447,1730655716.4303167,1730655715.7209268,6000
24637.25502935112,-97998.85427938156,26184.84511194767,-187500.02235174447,-187500.02235174447,-187500.02235174447,-187500.02235174447,-187500.02235174447,1730655716.433499,1730655715.7209268,6000
24573.93253730924,-98013.27115455524,26162.20279481445,-187500.02235174447,-187500.02235174447,-187500.02235174447,-187500.02235174447,-187500.02235174447,1730655716.437255,1730655715.7209268,6000
24604.889703379835,-98002.6764276834,26245.507746399373,-187500.02235174447,-187500.02235174447,-187500.02235174447,-187500.02235174447,-187500.02235174447,1730655716.4424057,1730655715.7209268,6000
24641.97124743119,-97982.2245815068,26221.166696687545,-187500.02235174447,-187500.02235174447,-187500.02235174447,-187500.02235174447,-187500.02235174447,1730655716.446312,1730655715.7209268,6000
24685.08776248548,-97966.377194688,26200.22311213292,-187500.02235174447,-187500.02235174447,-187500.02235174447,-187500.02235174447,-187500.02235174447,1730655716.4505067,1730655715.7209268,6000
24723.89039085989,-97932.69311579384,26134.46427994541,-187500.02235174447,-187500.02235174447,-187500.02235174447,-187500.02235174447,-187500.02235174447,1730655716.4535265,1730655715.7209268,6000
24889.270948084708,-97961.03512776316,26222.798374032784,-187500.02235174447,-187500.02235174447,-187500.02235174447,-187500.02235174447,-187500.02235174447,1730655716.457404,1730655715.7209268,6000
24835.224429991777,-97972.07688952408,26330.891410218646,-187500.02235174447,-187500.02235174447,-187500.02235174447,-187500.02235174447,-187500.02235174447,1730655716.4615571,1730655715.7209268,6000
24631.577686259472,-97948.38404040148,26312.20535185401,-187500.02235174447,-187500.02235174447,-187500.02235174447,-187500.02235174447,-187500.02235174447,1730655716.4655166,1730655715.7209268,6000
24567.33877269492,-97974.55793315863,26221.367862387644,-187500.02235174447,-187500.02235174447,-187500.02235174447,-187500.02235174447,-187500.02235174447,1730655716.4705155,1730655715.7209268,6000
24741.12358583493,-97981.46462219532,26127.177611252977,-187500.02235174447,-187500.02235174447,-187500.02235174447,-187500.02235174447,-187500.02235174447,1730655716.4745064,1730655715.7209268,6000
24876.44104676736,-97980.05646229464,26180.173597356512,-187500.02235174447,-187500.02235174447,-187500.02235174447,-187500.02235174447,-187500.02235174447,1730655716.4785137,1730655715.7209268,6000
24585.354278725896,-97975.63081689247,26355.970067497503,-187500.02235174447,-187500.02235174447,-187500.02235174447,-187500.02235174447,-187500.02235174447,1730655716.4816177,1730655715.7209268,6000
24409.513105096,-97974.49087792527,26385.921405067613,-187500.02235174447,-187500.02235174447,-187500.02235174447,-187500.02235174447,-187500.02235174447,1730655716.4853933,1730655715.7209268,6000
24477.41770475122,-97982.26928499572,26275.548490947305,-187500.02235174447,-187500.02235174447,-187500.02235174447,-187500.02235174447,-187500.02235174447,1730655716.4894447,1730655715.7209268,6000
24609.78473541555,-97994.65215142396,26189.270757349823,-187500.02235174447,-187500.02235174447,-187500.02235174447,-187500.02235174447,-187500.02235174447,1730655716.4935577,1730655715.7209268,6000
24744.7892719256,-97974.8261540921,26136.453585201933,-187500.02235174447,-187500.02235174447,-187500.02235174447,-187500.02235174447,-187500.02235174447,1730655716.4974823,1730655715.7209268,6000
24698.476457414206,-98006.386817263,26220.339682142698,-187500.02235174447,-187500.02235174447,-187500.02235174447,-187500.02235174447,-187500.02235174447,1730655716.5024557,1730655715.7209268,6000
24523.641112284797,-98005.60450620706,26319.26850310189,-187500.02235174447,-187500.02235174447,-187500.02235174447,-187500.02235174447,-187500.02235174447,1730655716.5064256,1730655715.7209268,6000
24480.345783274865,-97938.43751411886,26205.252254635365,-187500.02235174447,-187500.02235174447,-187500.02235174447,-187500.02235174447,-187500.02235174447,1730655716.5095165,1730655715.7209268,6000
24655.89638422685,-97932.87192974948,26217.657472808063,-187500.02235174447,-187500.02235174447,-187500.02235174447,-187500.02235174447,-187500.02235174447,1730655716.5134215,1730655715.7209268,6000
24798.29934815161,-97927.55221456912,26202.36887960063,-187500.02235174447,-187500.02235174447,-187500.02235174447,-187500.02235174447,-187500.02235174447,1730655716.5176065,1730655715.7209268,6000
24781.66965027686,-97907.07801664808,26125.523582163285,-187500.02235174447,-187500.02235174447,-187500.02235174447,-187500.02235174447,-187500.02235174447,1730655716.5214212,1730655715.7209268,6000
24627.174392601777,-97942.52788335418,26353.26550641841,-187500.02235174447,-187500.02235174447,-187500.02235174447,-187500.02235174447,-187500.02235174447,1730655716.5256248,1730655715.7209268,6000
24490.024088624014,-97973.23918023576,26379.59586138676,-187500.02235174447,-187500.02235174447,-187500.02235174447,-187500.02235174447,-187500.02235174447,1730655716.5303752,1730655715.7209268,6000
24563.561327881973,-97991.96994208932,26231.47085088144,-187500.02235174447,-187500.02235174447,-187500.02235174447,-187500.02235174447,-187500.02235174447,1730655716.534469,1730655715.7209268,6000
24677.28700367057,-97993.04282582315,26059.608287764582,-187500.02235174447,-187500.02235174447,-187500.02235174447,-187500.02235174447,-187500.02235174447,1730655716.5373812,1730655715.7209268,6000
24827.24485722123,-97948.5181508682,26209.789658759797,-187500.02235174447,-187500.02235174447,-187500.02235174447,-187500.02235174447,-187500.02235174447,1730655716.5415535,1730655715.7209268,6000
24903.352547091552,-97933.29661289412,26293.56399697829,-187500.02235174447,-187500.02235174447,-187500.02235174447,-187500.02235174447,-187500.02235174447,1730655716.545475,1730655715.7209268,6000
24752.36651329595,-97993.95924734585,26226.70992931246,-187500.02235174447,-187500.02235174447,-187500.02235174447,-187500.02235174447,-187500.02235174447,1730655716.5495045,1730655715.7209268,6000
24597.40186898731,-98001.134157316,26303.77874419436,-187500.02235174447,-187500.02235174447,-187500.02235174447,-187500.02235174447,-187500.02235174447,1730655716.5534973,1730655715.7209268,6000
24613.763345928597,-97973.48504942478,26302.705860460504,-187500.02235174447,-187500.02235174447,-187500.02235174447,-187500.02235174447,-187500.02235174447,1730655716.5586147,1730655715.7209268,6000
24508.531333033006,-97997.55787820317,26226.061728723256,-187500.02235174447,-187500.02235174447,-187500.02235174447,-187500.02235174447,-187500.02235174447,1730655716.5615928,1730655715.7209268,6000
24554.687685333218,-98002.0282270942,26134.64309390105,-187500.02235174447,-187500.02235174447,-187500.02235174447,-187500.02235174447,-187500.02235174447,1730655716.5655608,1730655715.7209268,6000
24678.963384504725,-97978.04480529368,26161.10755933613,-187500.02235174447,-187500.02235174447,-187500.02235174447,-187500.02235174447,-187500.02235174447,1730655716.5696032,1730655715.7209268,6000
24632.270590337583,-97981.50932568424,26284.042153840324,-187500.02235174447,-187500.02235174447,-187500.02235174447,-187500.02235174447,-187500.02235174447,1730655716.57362,1730655715.7209268,6000
24511.928798190213,-97979.14004077198,26402.618158175726,-187500.02235174447,-187500.02235174447,-187500.02235174447,-187500.02235174447,-187500.02235174447,1730655716.577636,1730655715.7209268,6000
24458.12814928629,-97955.380136416,26331.65136953013,-187500.02235174447,-187500.02235174447,-187500.02235174447,-187500.02235174447,-187500.02235174447,1730655716.5815752,1730655715.7209268,6000
24597.558331198496,-97971.40633719043,26181.60410900165,-187500.02235174447,-187500.02235174447,-187500.02235174447,-187500.02235174447,-187500.02235174447,1730655716.5866218,1730655715.7209268,6000
24653.97413420369,-97973.41799419142,26148.25530627433,-187500.02235174447,-187500.02235174447,-187500.02235174447,-187500.02235174447,-187500.02235174447,1730655716.5896456,1730655715.7209268,6000
24616.087927351942,-97968.34414820006,26173.222204830912,-187500.02235174447,-187500.02235174447,-187500.02235174447,-187500.02235174447,-187500.02235174447,1730655716.5936177,1730655715.7209268,6000
24611.125840082863,-97971.4733924238,26256.57185990475,-187500.02235174447,-187500.02235174447,-187500.02235174447,-187500.02235174447,-187500.02235174447,1730655716.597664,1730655715.7209268,6000
24626.43678503475,-97973.79797384716,26265.37844722014,-187500.02235174447,-187500.02235174447,-187500.02235174447,-187500.02235174447,-187500.02235174447,1730655716.6016572,1730655715.7209268,6000
24698.968195792226,-97992.75225314526,26251.22979297993,-187500.02235174447,-187500.02235174447,-187500.02235174447,-187500.02235174447,-187500.02235174447,1730655716.6056347,1730655715.7209268,6000
24663.20540466373,-97974.7814506032,26245.351284188186,-187500.02235174447,-187500.02235174447,-187500.02235174447,-187500.02235174447,-187500.02235174447,1730655716.609604,1730655715.7209268,6000
24618.948950642225,-97963.09148825306,26220.5408478428,-187500.02235174447,-187500.02235174447,-187500.02235174447,-187500.02235174447,-187500.02235174447,1730655716.614689,1730655715.7209268,6000
24613.67393895077,-97960.09635449604,26234.37657766063,-187500.02235174447,-187500.02235174447,-187500.02235174447,-187500.02235174447,-187500.02235174447,1730655716.6177545,1730655715.7209268,6000
24563.784845326525,-97938.68338330789,26333.59597129774,-187500.02235174447,-187500.02235174447,-187500.02235174447,-187500.02235174447,-187500.02235174447,1730655716.6215055,1730655715.7209268,6000
24536.605124068872,-97963.0691365086,26187.4826177934,-187500.02235174447,-187500.02235174447,-187500.02235174447,-187500.02235174447,-187500.02235174447,1730655716.625842,1730655715.7209268,6000
24661.30550638503,-97990.56178218864,26123.57898039568,-187500.02235174447,-187500.02235174447,-187500.02235174447,-187500.02235174447,-187500.02235174447,1730655716.6295755,1730655715.7209268,6000
24762.111873878464,-97994.3839304905,26222.91013275506,-187500.02235174447,-187500.02235174447,-187500.02235174447,-187500.02235174447,-187500.02235174447,1730655716.6338024,1730655715.7209268,6000
24634.2151921052,-97972.5239244132,26292.044078355324,-187500.02235174447,-187500.02235174447,-187500.02235174447,-187500.02235174447,-187500.02235174447,1730655716.637525,1730655715.7209268,6000
24491.722821202617,-97948.54050261264,26286.746714919416,-187500.02235174447,-187500.02235174447,-187500.02235174447,-187500.02235174447,-187500.02235174447,1730655716.642806,1730655715.7209268,6000
24518.14258314879,-97944.15956069942,26352.997285484947,-187500.02235174447,-187500.02235174447,-187500.02235174447,-187500.02235174447,-187500.02235174447,1730655716.645544,1730655715.7209268,6000
24506.81024870995,-97974.2226569918,26242.646723109094,-187500.02235174447,-187500.02235174447,-187500.02235174447,-187500.02235174447,-187500.02235174447,1730655716.6498508,1730655715.7209268,6000
24581.487426935128,-97965.55018014315,26118.371023937587,-187500.02235174447,-187500.02235174447,-187500.02235174447,-187500.02235174447,-187500.02235174447,1730655716.6536367,1730655715.7209268,6000
24647.626238778383,-97973.23918023576,26202.95002495647,-187500.02235174447,-187500.02235174447,-187500.02235174447,-187500.02235174447,-187500.02235174447,1730655716.657605,1730655715.7209268,6000
24651.56014580252,-98025.81048319464,26241.14915623059,-187500.02235174447,-187500.02235174447,-187500.02235174447,-187500.02235174447,-187500.02235174447,1730655716.661594,1730655715.7209268,6000
24622.569933243984,-97995.61327643551,26249.843984823703,-187500.02235174447,-187500.02235174447,-187500.02235174447,-187500.02235174447,-187500.02235174447,1730655716.6657703,1730655715.7209268,6000
24652.476567325182,-97977.10603202654,26257.24241223841,-187500.02235174447,-187500.02235174447,-187500.02235174447,-187500.02235174447,-187500.02235174447,1730655716.6687596,1730655715.7209268,6000
24662.98188721918,-97969.372328445,26280.599985194207,-187500.02235174447,-187500.02235174447,-187500.02235174447,-187500.02235174447,-187500.02235174447,1730655716.6728408,1730655715.7209268,6000
24592.14920904031,-98008.86786089752,26259.187014006024,-187500.02235174447,-187500.02235174447,-187500.02235174447,-187500.02235174447,-187500.02235174447,1730655716.676793,1730655715.7209268,6000
24636.718587484196,-98019.14966334698,26099.707317317407,-187500.02235174447,-187500.02235174447,-187500.02235174447,-187500.02235174447,-187500.02235174447,1730655716.681811,1730655715.7209268,6000
24674.582442591483,-97987.83486936508,26212.874199494625,-187500.02235174447,-187500.02235174447,-187500.02235174447,-187500.02235174447,-187500.02235174447,1730655716.6858332,1730655715.7209268,6000
24623.866334422397,-97953.07790673707,26284.98092710745,-187500.02235174447,-187500.02235174447,-187500.02235174447,-187500.02235174447,-187500.02235174447,1730655716.689746,1730655715.7209268,6000
24561.84024355892,-97985.39852921946,26324.677625260072,-187500.02235174447,-187500.02235174447,-187500.02235174447,-187500.02235174447,-187500.02235174447,1730655716.6938107,1730655715.7209268,6000
24505.44679229817,-97998.58605844808,26317.0109769119,-187500.02235174447,-187500.02235174447,-187500.02235174447,-187500.02235174447,-187500.02235174447,1730655716.6978035,1730655715.7209268,6000
24594.138514296832,-98004.97865736231,26273.4027234796,-187500.02235174447,-187500.02235174447,-187500.02235174447,-187500.02235174447,-187500.02235174447,1730655716.700912,1730655715.7209268,6000
24668.9721547332,-97997.89315436996,26162.582774470186,-187500.02235174447,-187500.02235174447,-187500.02235174447,-187500.02235174447,-187500.02235174447,1730655716.7047143,1730655715.7209268,6000
24665.44057910926,-97986.40435771996,26154.379684255087,-187500.02235174447,-187500.02235174447,-187500.02235174447,-187500.02235174447,-187500.02235174447,1730655716.7098577,1730655715.7209268,6000
24607.72837492566,-97983.0739477961,26232.297865426288,-187500.02235174447,-187500.02235174447,-187500.02235174447,-187500.02235174447,-187500.02235174447,1730655716.7138195,1730655715.7209268,6000
24551.849013787392,-98013.3382097886,26264.37261871965,-187500.02235174447,-187500.02235174447,-187500.02235174447,-187500.02235174447,-187500.02235174447,1730655716.7179,1730655715.7209268,6000
24613.048090106025,-97973.08271802458,26296.24620631292,-187500.02235174447,-187500.02235174447,-187500.02235174447,-187500.02235174447,-187500.02235174447,1730655716.7218747,1730655715.7209268,6000
24587.54474968252,-97964.25377896472,26231.58260960372,-187500.02235174447,-187500.02235174447,-187500.02235174447,-187500.02235174447,-187500.02235174447,1730655716.7258885,1730655715.7209268,6000
24616.043223863035,-97967.8747615665,26212.829496005717,-187500.02235174447,-187500.02235174447,-187500.02235174447,-187500.02235174447,-187500.02235174447,1730655716.7287831,1730655715.7209268,6000
24669.463893111217,-97967.45007842184,26279.035363082334,-187500.02235174447,-187500.02235174447,-187500.02235174447,-187500.02235174447,-187500.02235174447,1730655716.7327063,1730655715.7209268,6000
24592.886816607337,-97960.09635449604,26297.69906970252,-187500.02235174447,-187500.02235174447,-187500.02235174447,-187500.02235174447,-187500.02235174447,1730655716.7376883,1730655715.7209268,6000
24562.577851125938,-97957.5259038837,26283.05867708429,-187500.02235174447,-187500.02235174447,-187500.02235174447,-187500.02235174447,-187500.02235174447,1730655716.7418451,1730655715.7209268,6000
24596.172523042267,-97948.56285435712,26253.263801725367,-187500.02235174447,-187500.02235174447,-187500.02235174447,-187500.02235174447,-187500.02235174447,1730655716.7456615,1730655715.7209268,6000
24556.162900467265,-97986.9184478424,26180.06183863424,-187500.02235174447,-187500.02235174447,-187500.02235174447,-187500.02235174447,-187500.02235174447,1730655716.74873,1730655715.7209268,6000
24547.132795707323,-97961.75038358576,26156.614858700617,-187500.02235174447,-187500.02235174447,-187500.02235174447,-187500.02235174447,-187500.02235174447,1730655716.752768,1730655715.7209268,6000
24628.291979824546,-97926.09935117952,26161.80046341425,-187500.02235174447,-187500.02235174447,-187500.02235174447,-187500.02235174447,-187500.02235174447,1730655716.756943,1730655715.7209268,6000
24744.65516145887,-97927.06047619112,26197.13857139809,-187500.02235174447,-187500.02235174447,-187500.02235174447,-187500.02235174447,-187500.02235174447,1730655716.7609844,1730655715.7209268,6000
24721.36464373644,-97932.64841230492,26297.87788365816,-187500.02235174447,-187500.02235174447,-187500.02235174447,-187500.02235174447,-187500.02235174447,1730655716.7650208,1730655715.7209268,6000
24649.280267868075,-97914.23057487376,26325.728157249472,-187500.02235174447,-187500.02235174447,-187500.02235174447,-187500.02235174447,-187500.02235174447,1730655716.769764,1730655715.7209268,6000
24541.120176448843,-97921.80781624412,26253.755540103382,-187500.02235174447,-187500.02235174447,-187500.02235174447,-187500.02235174447,-187500.02235174447,1730655716.7739997,1730655715.7209268,6000
24585.66720314827,-97932.42489486038,26218.12685944162,-187500.02235174447,-187500.02235174447,-187500.02235174447,-187500.02235174447,-187500.02235174447,1730655716.7767851,1730655715.7209268,6000
24620.24535182063,-97934.14597918343,26278.20834853749,-187500.02235174447,-187500.02235174447,-187500.02235174447,-187500.02235174447,-187500.02235174447,1730655716.78078,1730655715.7209268,6000
24593.91499685228,-97920.39965634342,26278.230700281943,-187500.02235174447,-187500.02235174447,-187500.02235174447,-187500.02235174447,-187500.02235174447,1730655716.7848983,1730655715.7209268,6000
24600.28524402204,-97907.54740328164,26218.2386181639,-187500.02235174447,-187500.02235174447,-187500.02235174447,-187500.02235174447,-187500.02235174447,1730655716.788776,1730655715.7209268,6000
24572.859653575382,-97903.72525497976,26218.52919084182,-187500.02235174447,-187500.02235174447,-187500.02235174447,-187500.02235174447,-187500.02235174447,1730655716.79277,1730655715.7209268,6000
24587.2541770046,-97957.79412481716,26265.937240831525,-187500.02235174447,-187500.02235174447,-187500.02235174447,-187500.02235174447,-187500.02235174447,1730655716.7978628,1730655715.7209268,6000
24556.252307445087,-97946.79706654514,26242.15498473108,-187500.02235174447,-187500.02235174447,-187500.02235174447,-187500.02235174447,-187500.02235174447,1730655716.801958,1730655715.7209268,6000
24610.16471507129,-97895.0080746422,26237.77404281784,-187500.02235174447,-187500.02235174447,-187500.02235174447,-187500.02235174447,-187500.02235174447,1730655716.805237,1730655715.7209268,6000
24634.05872989401,-97892.19175484082,26254.29198197031,-187500.02235174447,-187500.02235174447,-187500.02235174447,-187500.02235174447,-187500.02235174447,1730655716.8088117,1730655715.7209268,6000
24550.016170742056,-97891.74471995172,26207.263911636343,-187500.02235174447,-187500.02235174447,-187500.02235174447,-187500.02235174447,-187500.02235174447,1730655716.81283,1730655715.7209268,6000
24534.012321712056,-97884.0110163702,26222.261932165853,-187500.02235174447,-187500.02235174447,-187500.02235174447,-187500.02235174447,-187500.02235174447,1730655716.816904,1730655715.7209268,6000
24588.975261327658,-97868.14127780692,26250.492185412902,-187500.02235174447,-187500.02235174447,-187500.02235174447,-187500.02235174447,-187500.02235174447,1730655716.8207877,1730655715.7209268,6000
24664.54650933105,-97891.52120250717,26206.392193602587,-187500.02235174447,-187500.02235174447,-187500.02235174447,-187500.02235174447,-187500.02235174447,1730655716.8269296,1730655715.7209268,6000
24632.35999731541,-97921.2713743772,26264.01499080837,-187500.02235174447,-187500.02235174447,-187500.02235174447,-187500.02235174447,-187500.02235174447,1730655716.8298495,1730655715.7209268,6000
24524.24460938509,-97936.7164297958,26216.42812686302,-187500.02235174447,-187500.02235174447,-187500.02235174447,-187500.02235174447,-187500.02235174447,1730655716.8339086,1730655715.7209268,6000
24583.36497346937,-97948.69696482384,26256.05776978228,-187500.02235174447,-187500.02235174447,-187500.02235174447,-187500.02235174447,-187500.02235174447,1730655716.8369937,1730655715.7209268,6000
24591.031621817547,-97961.75038358576,26289.47362774296,-187500.02235174447,-187500.02235174447,-187500.02235174447,-187500.02235174447,-187500.02235174447,1730655716.8408563,1730655715.7209268,6000
24609.78473541555,-97989.7347676438,26183.57106251372,-187500.02235174447,-187500.02235174447,-187500.02235174447,-187500.02235174447,-187500.02235174447,1730655716.8450105,1730655715.7209268,6000
24656.49988132714,-97941.03031647568,26188.08611489369,-187500.02235174447,-187500.02235174447,-187500.02235174447,-187500.02235174447,-187500.02235174447,1730655716.848899,1730655715.7209268,6000
24617.093755852435,-97923.93123196736,26315.40165131112,-187500.02235174447,-187500.02235174447,-187500.02235174447,-187500.02235174447,-187500.02235174447,1730655716.8538284,1730655715.7209268,6000
24587.09771479341,-97969.34997670054,26281.35994450569,-187500.02235174447,-187500.02235174447,-187500.02235174447,-187500.02235174447,-187500.02235174447,1730655716.8570044,1730655715.7209268,6000
24609.874142393368,-97964.63375862048,26186.923824182013,-187500.02235174447,-187500.02235174447,-187500.02235174447,-187500.02235174447,-187500.02235174447,1730655716.860882,1730655715.7209268,6000
24612.131668583355,-97947.62408109,26203.39705984557,-187500.02235174447,-187500.02235174447,-187500.02235174447,-187500.02235174447,-187500.02235174447,1730655716.8649545,1730655715.7209268,6000
24605.113220824387,-97959.44815390684,26230.196801447488,-187500.02235174447,-187500.02235174447,-187500.02235174447,-187500.02235174447,-187500.02235174447,1730655716.8689375,1730655715.7209268,6000
24629.007235647117,-97947.82524679007,26258.896441328103,-187500.02235174447,-187500.02235174447,-187500.02235174447,-187500.02235174447,-187500.02235174447,1730655716.872891,1730655715.7209268,6000
24602.431011489756,-97959.4705056513,26243.25022020939,-187500.02235174447,-187500.02235174447,-187500.02235174447,-187500.02235174447,-187500.02235174447,1730655716.8768492,1730655715.7209268,6000
24593.892645107822,-97943.53371185467,26245.15011848809,-187500.02235174447,-187500.02235174447,-187500.02235174447,-187500.02235174447,-187500.02235174447,1730655716.880901,1730655715.7209268,6000
24565.93061279424,-97949.43457239086,26210.46021109345,-187500.02235174447,-187500.02235174447,-187500.02235174447,-187500.02235174447,-187500.02235174447,1730655716.884914,1730655715.7209268,6000
24601.53694171154,-97935.82236001758,26254.269630225856,-187500.02235174447,-187500.02235174447,-187500.02235174447,-187500.02235174447,-187500.02235174447,1730655716.8878777,1730655715.7209268,6000
24606.543732469527,-97920.24319413224,26261.35513321819,-187500.02235174447,-187500.02235174447,-187500.02235174447,-187500.02235174447,-187500.02235174447,1730655716.8929124,1730655715.7209268,6000
24591.92569159576,-97931.0614384486,26238.511650384866,-187500.02235174447,-187500.02235174447,-187500.02235174447,-187500.02235174447,-187500.02235174447,1730655716.896906,1730655715.7209268,6000
24631.376520559374,-97985.08560479707,26231.359092159164,-187500.02235174447,-187500.02235174447,-187500.02235174447,-187500.02235174447,-187500.02235174447,1730655716.9008954,1730655715.7209268,6000
24590.2046072727,-97967.89711331096,26224.497106611387,-187500.02235174447,-187500.02235174447,-187500.02235174447,-187500.02235174447,-187500.02235174447,1730655716.905072,1730655715.7209268,6000
24600.5087614666,-97933.22955766076,26225.94997000098,-187500.02235174447,-187500.02235174447,-187500.02235174447,-187500.02235174447,-187500.02235174447,1730655716.9089348,1730655715.7209268,6000
24570.08803726292,-97967.29361621066,26234.66715033855,-187500.02235174447,-187500.02235174447,-187500.02235174447,-187500.02235174447,-187500.02235174447,1730655716.9128926,1730655715.7209268,6000
24605.940235369235,-97955.4248399049,26247.273534211345,-187500.02235174447,-187500.02235174447,-187500.02235174447,-187500.02235174447,-187500.02235174447,1730655716.9159596,1730655715.7209268,6000
24588.57292992746,-97964.16437198692,26257.17535700505,-187500.02235174447,-187500.02235174447,-187500.02235174447,-187500.02235174447,-187500.02235174447,1730655716.92094,1730655715.7209268,6000
24550.843185286903,-97964.94668304286,26279.415342738077,-187500.02235174447,-187500.02235174447,-187500.02235174447,-187500.02235174447,-187500.02235174447,1730655716.9250388,1730655715.7209268,6000
24587.924729338258,-97930.90497623742,26253.375560447643,-187500.02235174447,-187500.02235174447,-187500.02235174447,-187500.02235174447,-187500.02235174447,1730655716.928947,1730655715.7209268,6000
24595.72548815316,-97949.25575843525,26209.49908608188,-187500.02235174447,-187500.02235174447,-187500.02235174447,-187500.02235174447,-187500.02235174447,1730655716.9351127,1730655715.7209268,6000
24570.602127385395,-97970.64637787896,26187.37085907112,-187500.02235174447,-187500.02235174447,-187500.02235174447,-187500.02235174447,-187500.02235174447,1730655716.937967,1730655715.7209268,6000
24583.43202870274,-98007.2808870412,26172.350486797157,-187500.02235174447,-187500.02235174447,-187500.02235174447,-187500.02235174447,-187500.02235174447,1730655716.940985,1730655715.7209268,6000
24642.82061372049,-97948.62990959048,26218.68565305301,-187500.02235174447,-187500.02235174447,-187500.02235174447,-187500.02235174447,-187500.02235174447,1730655716.944994,1730655715.7209268,6000
24663.45127385274,-97917.53863305316,26278.81184563778,-187500.02235174447,-187500.02235174447,-187500.02235174447,-187500.02235174447,-187500.02235174447,1730655716.949056,1730655715.7209268,6000
24556.6993423342,-97966.2207324768,26277.001354336902,-187500.02235174447,-187500.02235174447,-187500.02235174447,-187500.02235174447,-187500.02235174447,1730655716.9531052,1730655715.7209268,6000
24613.472773250676,-97961.75038358576,26245.843022566205,-187500.02235174447,-187500.02235174447,-187500.02235174447,-187500.02235174447,-187500.02235174447,1730655716.9570992,1730655715.7209268,6000
24598.184180043245,-97953.9719765153,26238.399891662582,-187500.02235174447,-187500.02235174447,-187500.02235174447,-187500.02235174447,-187500.02235174447,1730655716.96098,1730655715.7209268,6000
24550.731426564627,-97951.0215462472,26227.089908968203,-187500.02235174447,-187500.02235174447,-187500.02235174447,-187500.02235174447,-187500.02235174447,1730655716.964151,1730655715.7209268,6000
24601.58164520045,-97972.9262558134,26225.94997000098,-187500.02235174447,-187500.02235174447,-187500.02235174447,-187500.02235174447,-187500.02235174447,1730655716.968142,1730655715.7209268,6000
24619.954779142718,-97958.4646771508,26242.467909153453,-187500.02235174447,-187500.02235174447,-187500.02235174447,-187500.02235174447,-187500.02235174447,1730655716.9720385,1730655715.7209268,6000
24587.857674104893,-97973.9767878028,26237.32700792873,-187500.02235174447,-187500.02235174447,-187500.02235174447,-187500.02235174447,-187500.02235174447,1730655716.9760568,1730655715.7209268,6000
24592.596243929416,-97973.64151163596,26271.03343856733,-187500.02235174447,-187500.02235174447,-187500.02235174447,-187500.02235174447,-187500.02235174447,1730655716.9810672,1730655715.7209268,6000
24575.76538035457,-97960.29752019617,26253.800243592294,-187500.02235174447,-187500.02235174447,-187500.02235174447,-187500.02235174447,-187500.02235174447,1730655716.9850516,1730655715.7209268,6000
24593.49031370763,-97966.17602898787,26205.274606379822,-187500.02235174447,-187500.02235174447,-187500.02235174447,-187500.02235174447,-187500.02235174447,1730655716.9890852,1730655715.7209268,6000
24644.653456765827,-97950.0604212356,26211.84601924968,-187500.02235174447,-187500.02235174447,-187500.02235174447,-187500.02235174447,-187500.02235174447,1730655716.9920971,1730655715.7209268,6000
24652.767140003103,-97946.95352875632,26271.21225252298,-187500.02235174447,-187500.02235174447,-187500.02235174447,-187500.02235174447,-187500.02235174447,1730655716.9960935,1730655715.7209268,6000
24609.315348781987,-97937.00700247372,26315.468706544485,-187500.02235174447,-187500.02235174447,-187500.02235174447,-187500.02235174447,-187500.02235174447,1730655717.000106,1730655715.7209268,6000
24586.11423803738,-97958.75524982873,26243.831365565227,-187500.02235174447,-187500.02235174447,-187500.02235174447,-187500.02235174447,-187500.02235174447,1730655717.0040953,1730655715.7209268,6000
24537.275676402533,-97951.84856079204,26235.76238581686,-187500.02235174447,-187500.02235174447,-187500.02235174447,-187500.02235174447,-187500.02235174447,1730655717.0091147,1730655715.7209268,6000
24563.606031370884,-97924.49002557877,26224.65356882257,-187500.02235174447,-187500.02235174447,-187500.02235174447,-187500.02235174447,-187500.02235174447,1730655717.0130851,1730655715.7209268,6000
24653.72826501468,-97928.53569132516,26212.024833205323,-187500.02235174447,-187500.02235174447,-187500.02235174447,-187500.02235174447,-187500.02235174447,1730655717.0170848,1730655715.7209268,6000
24638.68554099626,-97940.04683971964,26215.556408829263,-187500.02235174447,-187500.02235174447,-187500.02235174447,-187500.02235174447,-187500.02235174447,1730655717.0201385,1730655715.7209268,6000
24541.1425281933,-97979.6764826389,26206.66041453605,-187500.02235174447,-187500.02235174447,-187500.02235174447,-187500.02235174447,-187500.02235174447,1730655717.024158,1730655715.7209268,6000
24581.17450251276,-97960.2751684517,26235.18124046102,-187500.02235174447,-187500.02235174447,-187500.02235174447,-187500.02235174447,-187500.02235174447,1730655717.028252,1730655715.7209268,6000
24620.51357275409,-97939.08571470808,26213.254179150365,-187500.02235174447,-187500.02235174447,-187500.02235174447,-187500.02235174447,-187500.02235174447,1730655717.0322094,1730655715.7209268,6000
24643.379407331875,-97942.59493858754,26262.450368696496,-187500.02235174447,-187500.02235174447,-187500.02235174447,-187500.02235174447,-187500.02235174447,1730655717.037155,1730655715.7209268,6000
24613.71864243968,-97945.09833396654,26260.550470417795,-187500.02235174447,-187500.02235174447,-187500.02235174447,-187500.02235174447,-187500.02235174447,1730655717.0411158,1730655715.7209268,6000
24588.61763341637,-97953.07790673707,26206.213379646942,-187500.02235174447,-187500.02235174447,-187500.02235174447,-187500.02235174447,-187500.02235174447,1730655717.0452757,1730655715.7209268,6000
24606.990767358635,-97955.2236742048,26252.503842413884,-187500.02235174447,-187500.02235174447,-187500.02235174447,-187500.02235174447,-187500.02235174447,1730655717.0482676,1730655715.7209268,6000
24584.23669150313,-97931.0167349597,26264.77495011985,-187500.02235174447,-187500.02235174447,-187500.02235174447,-187500.02235174447,-187500.02235174447,1730655717.0523314,1730655715.7209268,6000
24632.69527348224,-97926.65814479093,26228.945103757997,-187500.02235174447,-187500.02235174447,-187500.02235174447,-187500.02235174447,-187500.02235174447,1730655717.0562763,1730655715.7209268,6000
24629.49897402513,-97944.5618920996,26250.089854012716,-187500.02235174447,-187500.02235174447,-187500.02235174447,-187500.02235174447,-187500.02235174447,1730655717.0601585,1730655715.7209268,6000
24606.096697580422,-97943.39960138794,26255.498976170897,-187500.02235174447,-187500.02235174447,-187500.02235174447,-187500.02235174447,-187500.02235174447,1730655717.0651824,1730655715.7209268,6000
24580.01221180108,-97931.64258380444,26228.18514444651,-187500.02235174447,-187500.02235174447,-187500.02235174447,-187500.02235174447,-187500.02235174447,1730655717.0692384,1730655715.7209268,6000
24573.485502420128,-97938.99630773024,26217.545714085783,-187500.02235174447,-187500.02235174447,-187500.02235174447,-187500.02235174447,-187500.02235174447,1730655717.0722027,1730655715.7209268,6000
24614.791526173536,-97929.98855471476,26225.27941766732,-187500.02235174447,-187500.02235174447,-187500.02235174447,-187500.02235174447,-187500.02235174447,1730655717.0761948,1730655715.7209268,6000
24631.68944498175,-97895.2092403423,26236.18706896151,-187500.02235174447,-187500.02235174447,-187500.02235174447,-187500.02235174447,-187500.02235174447,1730655717.0802755,1730655715.7209268,6000
24566.310592449976,-97891.23062982924,26286.83612189724,-187500.02235174447,-187500.02235174447,-187500.02235174447,-187500.02235174447,-187500.02235174447,1730655717.084303,1730655715.7209268,6000
24618.39015703084,-97887.96727513876,26235.404757905577,-187500.02235174447,-187500.02235174447,-187500.02235174447,-187500.02235174447,-187500.02235174447,1730655717.0904932,1730655715.7209268,6000
24591.00927007309,-97891.99058914073,26241.462080652964,-187500.02235174447,-187500.02235174447,-187500.02235174447,-187500.02235174447,-187500.02235174447,1730655717.0933256,1730655715.7209268,6000
24544.249420672582,-97903.54644102413,26223.692443810996,-187500.02235174447,-187500.02235174447,-187500.02235174447,-187500.02235174447,-187500.02235174447,1730655717.0973337,1730655715.7209268,6000
24581.19685425721,-97910.63194401644,26222.753670543872,-187500.02235174447,-187500.02235174447,-187500.02235174447,-187500.02235174447,-187500.02235174447,1730655717.1004996,1730655715.7209268,6000
24610.477639493663,-97940.3150606531,26239.67394109654,-187500.02235174447,-187500.02235174447,-187500.02235174447,-187500.02235174447,-187500.02235174447,1730655717.1043005,1730655715.7209268,6000
24598.161828298787,-97958.867008551,26230.934409014517,-187500.02235174447,-187500.02235174447,-187500.02235174447,-187500.02235174447,-187500.02235174447,1730655717.108374,1730655715.7209268,6000
24589.690517150226,-97902.56296426809,26239.226906207437,-187500.02235174447,-187500.02235174447,-187500.02235174447,-187500.02235174447,-187500.02235174447,1730655717.1122673,1730655715.7209268,6000
24602.40865974529,-97920.623173788,26240.07627249673,-187500.02235174447,-187500.02235174447,-187500.02235174447,-187500.02235174447,-187500.02235174447,1730655717.116295,1730655715.7209268,6000
24621.3629390434,-97912.0624556616,26229.77211830284,-187500.02235174447,-187500.02235174447,-187500.02235174447,-187500.02235174447,-187500.02235174447,1730655717.1204553,1730655715.7209268,6000
24621.742918699136,-97905.9157259364,26254.314333714767,-187500.02235174447,-187500.02235174447,-187500.02235174447,-187500.02235174447,-187500.02235174447,1730655717.125291,1730655715.7209268,6000
24648.25208762313,-97896.01390314268,26262.2492029964,-187500.02235174447,-187500.02235174447,-187500.02235174447,-187500.02235174447,-187500.02235174447,1730655717.1282673,1730655715.7209268,6000
24659.673829039795,-97879.0489291011,26242.42320566454,-187500.02235174447,-187500.02235174447,-187500.02235174447,-187500.02235174447,-187500.02235174447,1730655717.1323168,1730655715.7209268,6000
24628.60490424692,-97893.97989439726,26246.06654001076,-187500.02235174447,-187500.02235174447,-187500.02235174447,-187500.02235174447,-187500.02235174447,1730655717.1363328,1730655715.7209268,6000
24609.069479592978,-97896.63975198744,26210.840190749197,-187500.02235174447,-187500.02235174447,-187500.02235174447,-187500.02235174447,-187500.02235174447,1730655717.1405132,1730655715.7209268,6000
24587.00830781559,-97888.0566821166,26240.1433277301,-187500.02235174447,-187500.02235174447,-187500.02235174447,-187500.02235174447,-187500.02235174447,1730655717.1443436,1730655715.7209268,6000
24582.470903691163,-97881.7534901802,26239.562182374262,-187500.02235174447,-187500.02235174447,-187500.02235174447,-187500.02235174447,-187500.02235174447,1730655717.1483102,1730655715.7209268,6000
24582.58266241344,-97904.52991778016,26225.27941766732,-187500.02235174447,-187500.02235174447,-187500.02235174447,-187500.02235174447,-187500.02235174447,1730655717.1523433,1730655715.7209268,6000
24578.22407224465,-97879.54066747912,26282.54458696182,-187500.02235174447,-187500.02235174447,-187500.02235174447,-187500.02235174447,-187500.02235174447,1730655717.1553402,1730655715.7209268,6000
24624.000444889123,-97861.5475131926,26233.88483928261,-187500.02235174447,-187500.02235174447,-187500.02235174447,-187500.02235174447,-187500.02235174447,1730655717.159337,1730655715.7209268,6000
24612.757517428105,-97897.64558048792,26186.99087941538,-187500.02235174447,-187500.02235174447,-187500.02235174447,-187500.02235174447,-187500.02235174447,1730655717.1654024,1730655715.7209268,6000
24636.89740143984,-97939.95743274182,26233.482507882414,-187500.02235174447,-187500.02235174447,-187500.02235174447,-187500.02235174447,-187500.02235174447,1730655717.1683512,1730655715.7209268,6000
24571.943232052712,-97933.69894429432,26264.1491012751,-187500.02235174447,-187500.02235174447,-187500.02235174447,-187500.02235174447,-187500.02235174447,1730655717.172362,1730655715.7209268,6000
24570.24449947411,-97914.07411266258,26250.87216506865,-187500.02235174447,-187500.02235174447,-187500.02235174447,-187500.02235174447,-187500.02235174447,1730655717.1764092,1730655715.7209268,6000
24605.91788362478,-97901.57948751206,26234.533039871814,-187500.02235174447,-187500.02235174447,-187500.02235174447,-187500.02235174447,-187500.02235174447,1730655717.1806133,1730655715.7209268,6000
24597.06659282048,-97893.84578393052,26219.73618504241,-187500.02235174447,-187500.02235174447,-187500.02235174447,-187500.02235174447,-187500.02235174447,1730655717.1834033,1730655715.7209268,6000
24580.079267034445,-97903.30057183512,26254.82842383724,-187500.02235174447,-187500.02235174447,-187500.02235174447,-187500.02235174447,-187500.02235174447,1730655717.1874096,1730655715.7209268,6000
24584.52726418105,-97933.18485417186,26261.802168107293,-187500.02235174447,-187500.02235174447,-187500.02235174447,-187500.02235174447,-187500.02235174447,1730655717.1923609,1730655715.7209268,6000
24591.121028795365,-97942.23731067628,26220.116164698145,-187500.02235174447,-187500.02235174447,-187500.02235174447,-187500.02235174447,-187500.02235174447,1730655717.1965013,1730655715.7209268,6000
24644.78756723256,-97887.31907454957,26234.64479859409,-187500.02235174447,-187500.02235174447,-187500.02235174447,-187500.02235174447,-187500.02235174447,1730655717.2006297,1730655715.7209268,6000
24651.537794058066,-97879.33950177905,26222.86542926615,-187500.02235174447,-187500.02235174447,-187500.02235174447,-187500.02235174447,-187500.02235174447,1730655717.2044497,1730655715.7209268,6000
24577.508816422083,-97909.5590602826,26210.32610062672,-187500.02235174447,-187500.02235174447,-187500.02235174447,-187500.02235174447,-187500.02235174447,1730655717.2084067,1730655715.7209268,6000
24575.60891814338,-97891.11887110696,26217.299844896777,-187500.02235174447,-187500.02235174447,-187500.02235174447,-187500.02235174447,-187500.02235174447,1730655717.2114146,1730655715.7209268,6000
24634.05872989401,-97914.8564237185,26192.35529808465,-187500.02235174447,-187500.02235174447,-187500.02235174447,-187500.02235174447,-187500.02235174447,1730655717.2154124,1730655715.7209268,6000
24644.206421876723,-97943.48900836577,26244.18899347651,-187500.02235174447,-187500.02235174447,-187500.02235174447,-187500.02235174447,-187500.02235174447,1730655717.2204,1730655715.7209268,6000
24576.324173965957,-97888.43666177234,26272.64276416812,-187500.02235174447,-187500.02235174447,-187500.02235174447,-187500.02235174447,-187500.02235174447,1730655717.2244444,1730655715.7209268,6000
24587.410639215785,-97885.5085832487,26260.505766928884,-187500.02235174447,-187500.02235174447,-187500.02235174447,-187500.02235174447,-187500.02235174447,1730655717.2285092,1730655715.7209268,6000
24616.847886663425,-97898.94198166631,26259.2987727283,-187500.02235174447,-187500.02235174447,-187500.02235174447,-187500.02235174447,-187500.02235174447,1730655717.232499,1730655715.7209268,6000
24585.22016825917,-97920.44435983234,26267.077179798747,-187500.02235174447,-187500.02235174447,-187500.02235174447,-187500.02235174447,-187500.02235174447,1730655717.235544,1730655715.7209268,6000
24607.840133647936,-97945.94770025584,26216.53988558529,-187500.02235174447,-187500.02235174447,-187500.02235174447,-187500.02235174447,-187500.02235174447,1730655717.2415612,1730655715.7209268,6000
24664.90413724233,-97909.6037637715,26202.972376700924,-187500.02235174447,-187500.02235174447,-187500.02235174447,-187500.02235174447,-187500.02235174447,1730655717.2445629,1730655715.7209268,6000
24618.0101773751,-97927.28399363566,26232.655493337574,-187500.02235174447,-187500.02235174447,-187500.02235174447,-187500.02235174447,-187500.02235174447,1730655717.2484698,1730655715.7209268,6000
24581.91211007978,-97938.25870016322,26236.72351082844,-187500.02235174447,-187500.02235174447,-187500.02235174447,-187500.02235174447,-187500.02235174447,1730655717.2525554,1730655715.7209268,6000
24580.39219145682,-97931.7096390378,26228.09573746869,-187500.02235174447,-187500.02235174447,-187500.02235174447,-187500.02235174447,-187500.02235174447,1730655717.2564847,1730655715.7209268,6000
24583.655546147293,-97927.2616418912,26278.185996793032,-187500.02235174447,-187500.02235174447,-187500.02235174447,-187500.02235174447,-187500.02235174447,1730655717.2595012,1730655715.7209268,6000
24572.367915197363,-97919.08090342056,26239.495127140897,-187500.02235174447,-187500.02235174447,-187500.02235174447,-187500.02235174447,-187500.02235174447,1730655717.2635255,1730655715.7209268,6000
24585.86836884837,-97892.63878972991,26199.194931887974,-187500.02235174447,-187500.02235174447,-187500.02235174447,-187500.02235174447,-187500.02235174447,1730655717.267666,1730655715.7209268,6000
24634.617523505392,-97897.77969095466,26219.914998998047,-187500.02235174447,-187500.02235174447,-187500.02235174447,-187500.02235174447,-187500.02235174447,1730655717.271538,1730655715.7209268,6000
24678.069314726512,-97902.56296426809,26253.397912192097,-187500.02235174447,-187500.02235174447,-187500.02235174447,-187500.02235174447,-187500.02235174447,1730655717.2765338,1730655715.7209268,6000
24598.184180043245,-97924.53472906766,26244.211345220967,-187500.02235174447,-187500.02235174447,-187500.02235174447,-187500.02235174447,-187500.02235174447,1730655717.2806735,1730655715.7209268,6000
24561.66142960327,-97899.72429272228,26230.263856680856,-187500.02235174447,-187500.02235174447,-187500.02235174447,-187500.02235174447,-187500.02235174447,1730655717.284691,1730655715.7209268,6000
24620.60297973192,-97901.91476367888,26191.908263195543,-187500.02235174447,-187500.02235174447,-187500.02235174447,-187500.02235174447,-187500.02235174447,1730655717.2875612,1730655715.7209268,6000
24611.39406101633,-97908.41912131538,26260.48341518443,-187500.02235174447,-187500.02235174447,-187500.02235174447,-187500.02235174447,-187500.02235174447,1730655717.291676,1730655715.7209268,6000
24595.85959861989,-97908.93321143783,26255.476624426443,-187500.02235174447,-187500.02235174447,-187500.02235174447,-187500.02235174447,-187500.02235174447,1730655717.2955651,1730655715.7209268,6000
24609.3600522709,-97876.2996645331,26239.33866492971,-187500.02235174447,-187500.02235174447,-187500.02235174447,-187500.02235174447,-187500.02235174447,1730655717.2995987,1730655715.7209268,6000
24595.501970708607,-97877.1490308224,26233.437804393507,-187500.02235174447,-187500.02235174447,-187500.02235174447,-187500.02235174447,-187500.02235174447,1730655717.303564,1730655715.7209268,6000
24589.95873808369,-97895.34335080902,26216.80810651876,-187500.02235174447,-187500.02235174447,-187500.02235174447,-187500.02235174447,-187500.02235174447,1730655717.308638,1730655715.7209268,6000
24606.521380725077,-97890.06833911756,26234.82361254974,-187500.02235174447,-187500.02235174447,-187500.02235174447,-187500.02235174447,-187500.02235174447,1730655717.312605,1730655715.7209268,6000
24626.727357712676,-97898.69611247732,26255.051941281792,-187500.02235174447,-187500.02235174447,-187500.02235174447,-187500.02235174447,-187500.02235174447,1730655717.3156457,1730655715.7209268,6000
24632.427052548774,-97914.34233359604,26224.362996144653,-187500.02235174447,-187500.02235174447,-187500.02235174447,-187500.02235174447,-187500.02235174447,1730655717.3196929,1730655715.7209268,6000
24635.221020605688,-97887.095557105,26243.697255098494,-187500.02235174447,-187500.02235174447,-187500.02235174447,-187500.02235174447,-187500.02235174447,1730655717.3236694,1730655715.7209268,6000
24634.84104094995,-97881.5076209912,26232.856659037672,-187500.02235174447,-187500.02235174447,-187500.02235174447,-187500.02235174447,-187500.02235174447,1730655717.3276212,1730655715.7209268,6000
24624.223962333675,-97891.74471995172,26197.5856062872,-187500.02235174447,-187500.02235174447,-187500.02235174447,-187500.02235174447,-187500.02235174447,1730655717.3317144,1730655715.7209268,6000
24598.541807954527,-97866.28608301713,26205.207551146457,-187500.02235174447,-187500.02235174447,-187500.02235174447,-187500.02235174447,-187500.02235174447,1730655717.336617,1730655715.7209268,6000
24585.197816514712,-97884.07807160357,26227.268722923844,-187500.02235174447,-187500.02235174447,-187500.02235174447,-187500.02235174447,-187500.02235174447,1730655717.340747,1730655715.7209268,6000
24591.031621817547,-97910.90016494993,26208.94029247049,-187500.02235174447,-187500.02235174447,-187500.02235174447,-187500.02235174447,-187500.02235174447,1730655717.3437283,1730655715.7209268,6000
24592.953871840706,-97918.03037143116,26230.979112503424,-187500.02235174447,-187500.02235174447,-187500.02235174447,-187500.02235174447,-187500.02235174447,1730655717.3476686,1730655715.7209268,6000
24594.49614220812,-97931.866101249,26251.542717402303,-187500.02235174447,-187500.02235174447,-187500.02235174447,-187500.02235174447,-187500.02235174447,1730655717.3516867,1730655715.7209268,6000
24620.40181403182,-97896.99737989872,26267.077179798747,-187500.02235174447,-187500.02235174447,-187500.02235174447,-187500.02235174447,-187500.02235174447,1730655717.3556778,1730655715.7209268,6000
24606.454325491708,-97892.54938275211,26219.512667597854,-187500.02235174447,-187500.02235174447,-187500.02235174447,-187500.02235174447,-187500.02235174447,1730655717.3597214,1730655715.7209268,6000
24594.831418374943,-97905.31222883608,26207.84505699218,-187500.02235174447,-187500.02235174447,-187500.02235174447,-187500.02235174447,-187500.02235174447,1730655717.3647952,1730655715.7209268,6000
24622.793450688536,-97894.851612431,26238.444595151497,-187500.02235174447,-187500.02235174447,-187500.02235174447,-187500.02235174447,-187500.02235174447,1730655717.367794,1730655715.7209268,6000
24629.946008914238,-97895.0080746422,26266.67484839855,-187500.02235174447,-187500.02235174447,-187500.02235174447,-187500.02235174447,-187500.02235174447,1730655717.3707347,1730655715.7209268,6000
24612.15402032781,-97893.53285950817,26231.023815992336,-187500.02235174447,-187500.02235174447,-187500.02235174447,-187500.02235174447,-187500.02235174447,1730655717.3757105,1730655715.7209268,6000
24646.39689283334,-97881.46291750229,26190.41069631704,-187500.02235174447,-187500.02235174447,-187500.02235174447,-187500.02235174447,-187500.02235174447,1730655717.3797617,1730655715.7209268,6000
24626.77206120158,-97893.68932171931,26260.706932628986,-187500.02235174447,-187500.02235174447,-187500.02235174447,-187500.02235174447,-187500.02235174447,1730655717.3838046,1730655715.7209268,6000
24584.43785720323,-97854.26084450015,26274.028572324347,-187500.02235174447,-187500.02235174447,-187500.02235174447,-187500.02235174447,-187500.02235174447,1730655717.3877645,1730655715.7209268,6000
24565.885909305325,-97863.29094926012,26232.208458448466,-187500.02235174447,-187500.02235174447,-187500.02235174447,-187500.02235174447,-187500.02235174447,1730655717.3927493,1730655715.7209268,6000
24611.975206372168,-97899.0537403886,26218.14921118608,-187500.02235174447,-187500.02235174447,-187500.02235174447,-187500.02235174447,-187500.02235174447,1730655717.3957653,1730655715.7209268,6000
24642.03830266456,-97923.864176734,26234.443632894,-187500.02235174447,-187500.02235174447,-187500.02235174447,-187500.02235174447,-187500.02235174447,1730655717.399026,1730655715.7209268,6000
24625.989750145647,-97869.92941736334,26238.57870561823,-187500.02235174447,-187500.02235174447,-187500.02235174447,-187500.02235174447,-187500.02235174447,1730655717.4037883,1730655715.7209268,6000
24611.43876450524,-97867.76129815118,26252.637952880617,-187500.02235174447,-187500.02235174447,-187500.02235174447,-187500.02235174447,-187500.02235174447,1730655717.4080324,1730655715.7209268,6000
24621.519401254583,-97886.8049844271,26205.185199402,-187500.02235174447,-187500.02235174447,-187500.02235174447,-187500.02235174447,-187500.02235174447,1730655717.4119587,1730655715.7209268,6000
24671.45319836774,-97924.44532208984,26201.497161566876,-187500.02235174447,-187500.02235174447,-187500.02235174447,-187500.02235174447,-187500.02235174447,1730655717.416068,1730655715.7209268,6000
24600.28524402204,-97929.85444424802,26253.97905754793,-187500.02235174447,-187500.02235174447,-187500.02235174447,-187500.02235174447,-187500.02235174447,1730655717.4198785,1730655715.7209268,6000
24557.124025478846,-97913.04593241763,26245.66420861056,-187500.02235174447,-187500.02235174447,-187500.02235174447,-187500.02235174447,-187500.02235174447,1730655717.42388,1730655715.7209268,6000
24589.131723538845,-97918.2091853868,26221.85960076566,-187500.02235174447,-187500.02235174447,-187500.02235174447,-187500.02235174447,-187500.02235174447,1730655717.4268732,1730655715.7209268,6000
24595.792543386528,-97922.8136447446,26243.80901382077,-187500.02235174447,-187500.02235174447,-187500.02235174447,-187500.02235174447,-187500.02235174447,1730655717.4320147,1730655715.7209268,6000
24588.550578183007,-97937.7669617852,26218.886818753104,-187500.02235174447,-187500.02235174447,-187500.02235174447,-187500.02235174447,-187500.02235174447,1730655717.436036,1730655715.7209268,6000
24599.10060156591,-97944.7630577997,26206.19102790249,-187500.02235174447,-187500.02235174447,-187500.02235174447,-187500.02235174447,-187500.02235174447,1730655717.4400308,1730655715.7209268,6000
24617.29492155253,-97949.34516541303,26221.703138554472,-187500.02235174447,-187500.02235174447,-187500.02235174447,-187500.02235174447,-187500.02235174447,1730655717.444029,1730655715.7209268,6000
24625.609770489904,-97900.68541773384,26262.495072185407,-187500.02235174447,-187500.02235174447,-187500.02235174447,-187500.02235174447,-187500.02235174447,1730655717.4481297,1730655715.7209268,6000
24621.474697765672,-97934.99534547274,26227.78281304632,-187500.02235174447,-187500.02235174447,-187500.02235174447,-187500.02235174447,-187500.02235174447,1730655717.4509242,1730655715.7209268,6000
24637.389139817853,-97949.1663514574,26203.44176333449,-187500.02235174447,-187500.02235174447,-187500.02235174447,-187500.02235174447,-187500.02235174447,1730655717.4548557,1730655715.7209268,6000
24607.817781903483,-97935.59884257305,26212.695385538984,-187500.02235174447,-187500.02235174447,-187500.02235174447,-187500.02235174447,-187500.02235174447,1730655717.460032,1730655715.7209268,6000
24616.937293641247,-97940.113894953,26257.66709538306,-187500.02235174447,-187500.02235174447,-187500.02235174447,-187500.02235174447,-187500.02235174447,1730655717.4640143,1730655715.7209268,6000
24631.71179672621,-97914.8564237185,26263.925583830547,-187500.02235174447,-187500.02235174447,-187500.02235174447,-187500.02235174447,-187500.02235174447,1730655717.4681413,1730655715.7209268,6000
24646.262782366608,-97878.7583564232,26228.408661891062,-187500.02235174447,-187500.02235174447,-187500.02235174447,-187500.02235174447,-187500.02235174447,1730655717.4720109,1730655715.7209268,6000
24612.33283428345,-97902.54061252363,26210.32610062672,-187500.02235174447,-187500.02235174447,-187500.02235174447,-187500.02235174447,-187500.02235174447,1730655717.4761512,1730655715.7209268,6000
24620.1112413539,-97926.65814479093,26225.99467348989,-187500.02235174447,-187500.02235174447,-187500.02235174447,-187500.02235174447,-187500.02235174447,1730655717.4789283,1730655715.7209268,6000
24598.832380632448,-97919.99732494324,26245.194821977,-187500.02235174447,-187500.02235174447,-187500.02235174447,-187500.02235174447,-187500.02235174447,1730655717.4830978,1730655715.7209268,6000
24586.09188629292,-97931.97785997127,26222.86542926615,-187500.02235174447,-187500.02235174447,-187500.02235174447,-187500.02235174447,-187500.02235174447,1730655717.487939,1730655715.7209268,6000
24588.99761307211,-97919.72910400976,26222.70896705496,-187500.02235174447,-187500.02235174447,-187500.02235174447,-187500.02235174447,-187500.02235174447,1730655717.4921043,1730655715.7209268,6000
24619.0607093645,-97958.95641552882,26224.675920567028,-187500.02235174447,-187500.02235174447,-187500.02235174447,-187500.02235174447,-187500.02235174447,1730655717.4959068,1730655715.7209268,6000
24622.63698847735,-97997.1331950585,26222.0384147213,-187500.02235174447,-187500.02235174447,-187500.02235174447,-187500.02235174447,-187500.02235174447,1730655717.499992,1730655715.7209268,6000
24597.759496898598,-97934.14597918343,26201.295995866774,-187500.02235174447,-187500.02235174447,-187500.02235174447,-187500.02235174447,-187500.02235174447,1730655717.50309,1730655715.7209268,6000
24609.51651448209,-97918.79033074265,26212.42716460552,-187500.02235174447,-187500.02235174447,-187500.02235174447,-187500.02235174447,-187500.02235174447,1730655717.507208,1730655715.7209268,6000
24617.45138376372,-97908.03914165964,26240.92563878604,-187500.02235174447,-187500.02235174447,-187500.02235174447,-187500.02235174447,-187500.02235174447,1730655717.5110707,1730655715.7209268,6000
24602.833342889942,-97926.2111099018,26253.934354059023,-187500.02235174447,-187500.02235174447,-187500.02235174447,-187500.02235174447,-187500.02235174447,1730655717.5151956,1730655715.7209268,6000
24595.881950364343,-97928.84861574753,26204.268777879333,-187500.02235174447,-187500.02235174447,-187500.02235174447,-187500.02235174447,-187500.02235174447,1730655717.520059,1730655715.7209268,6000
24610.56704647148,-97942.66199382092,26186.47678929291,-187500.02235174447,-187500.02235174447,-187500.02235174447,-187500.02235174447,-187500.02235174447,1730655717.5241044,1730655715.7209268,6000
24630.571857758983,-97957.70471783934,26223.46892636644,-187500.02235174447,-187500.02235174447,-187500.02235174447,-187500.02235174447,-187500.02235174447,1730655717.5283165,1730655715.7209268,6000
24625.095680367434,-97953.48023813729,26244.993656276903,-187500.02235174447,-187500.02235174447,-187500.02235174447,-187500.02235174447,-187500.02235174447,1730655717.5311885,1730655715.7209268,6000
24676.34823040345,-97978.6706541384,26256.907136071582,-187500.02235174447,-187500.02235174447,-187500.02235174447,-187500.02235174447,-187500.02235174447,1730655717.5352151,1730655715.7209268,6000
24623.15107859982,-97950.90978752491,26236.947028272996,-187500.02235174447,-187500.02235174447,-187500.02235174447,-187500.02235174447,-187500.02235174447,1730655717.5391517,1730655715.7209268,6000
24589.66816540577,-97941.3208891536,26209.834362248705,-187500.02235174447,-187500.02235174447,-187500.02235174447,-187500.02235174447,-187500.02235174447,1730655717.5436947,1730655715.7209268,6000
24593.17738928525,-97960.18576147388,26218.90917049756,-187500.02235174447,-187500.02235174447,-187500.02235174447,-187500.02235174447,-187500.02235174447,1730655717.548228,1730655715.7209268,6000
24572.792598342014,-97952.00502300324,26238.176374218037,-187500.02235174447,-187500.02235174447,-187500.02235174447,-187500.02235174447,-187500.02235174447,1730655717.5521932,1730655715.7209268,6000
24596.06076431999,-97930.18972041486,26219.467964108942,-187500.02235174447,-187500.02235174447,-187500.02235174447,-187500.02235174447,-187500.02235174447,1730655717.5563383,1730655715.7209268,6000
24630.996540903638,-97947.13234271198,26199.440801076988,-187500.02235174447,-187500.02235174447,-187500.02235174447,-187500.02235174447,-187500.02235174447,1730655717.5593233,1730655715.7209268,6000
24649.101453912437,-97929.22859540328,26238.936333529517,-187500.02235174447,-187500.02235174447,-187500.02235174447,-187500.02235174447,-187500.02235174447,1730655717.563038,1730655715.7209268,6000
24632.248238593133,-97894.09165311953,26281.91873811707,-187500.02235174447,-187500.02235174447,-187500.02235174447,-187500.02235174447,-187500.02235174447,1730655717.5671384,1730655715.7209268,6000
24594.563197441483,-97910.56488878308,26240.299789941288,-187500.02235174447,-187500.02235174447,-187500.02235174447,-187500.02235174447,-187500.02235174447,1730655717.571071,1730655715.7209268,6000
24587.54474968252,-97916.82337723058,26220.47379260943,-187500.02235174447,-187500.02235174447,-187500.02235174447,-187500.02235174447,-187500.02235174447,1730655717.5752804,1730655715.7209268,6000
24617.674901208276,-97922.0089819442,26217.56806583024,-187500.02235174447,-187500.02235174447,-187500.02235174447,-187500.02235174447,-187500.02235174447,1730655717.580356,1730655715.7209268,6000
24666.93814598777,-97919.08090342056,26238.176374218037,-187500.02235174447,-187500.02235174447,-187500.02235174447,-187500.02235174447,-187500.02235174447,1730655717.5833592,1730655715.7209268,6000
24649.1685091458,-97942.08084846508,26234.555391616275,-187500.02235174447,-187500.02235174447,-187500.02235174447,-187500.02235174447,-187500.02235174447,1730655717.5870488,1730655715.7209268,6000
24594.02675557456,-97975.25083723674,26217.88099025261,-187500.02235174447,-187500.02235174447,-187500.02235174447,-187500.02235174447,-187500.02235174447,1730655717.5912943,1730655715.7209268,6000
24577.598223399906,-97926.97106921328,26201.09483016668,-187500.02235174447,-187500.02235174447,-187500.02235174447,-187500.02235174447,-187500.02235174447,1730655717.5951955,1730655715.7209268,6000
24624.78275594506,-97903.14410962391,26222.53015309932,-187500.02235174447,-187500.02235174447,-187500.02235174447,-187500.02235174447,-187500.02235174447,1730655717.599259,1730655715.7209268,6000
24626.615598990396,-97909.6037637715,26242.2443917089,-187500.02235174447,-187500.02235174447,-187500.02235174447,-187500.02235174447,-187500.02235174447,1730655717.6031473,1730655715.7209268,6000
24600.41935448877,-97916.2645836192,26251.02862727984,-187500.02235174447,-187500.02235174447,-187500.02235174447,-187500.02235174447,-187500.02235174447,1730655717.6082504,1730655715.7209268,6000
24595.09963930841,-97906.09453989204,26249.41930167905,-187500.02235174447,-187500.02235174447,-187500.02235174447,-187500.02235174447,-187500.02235174447,1730655717.6112044,1730655715.7209268,6000
24623.55341000002,-97903.56879276858,26212.42716460552,-187500.02235174447,-187500.02235174447,-187500.02235174447,-187500.02235174447,-187500.02235174447,1730655717.6153588,1730655715.7209268,6000
24634.03637814956,-97923.88652847846,26190.16482712804,-187500.02235174447,-187500.02235174447,-187500.02235174447,-187500.02235174447,-187500.02235174447,1730655717.6192796,1730655715.7209268,6000
24635.62335200588,-97935.82236001758,26206.079269180213,-187500.02235174447,-187500.02235174447,-187500.02235174447,-187500.02235174447,-187500.02235174447,1730655717.6232755,1730655715.7209268,6000
24613.53982848404,-97906.02748465868,26218.506839097365,-187500.02235174447,-187500.02235174447,-187500.02235174447,-187500.02235174447,-187500.02235174447,1730655717.6273024,1730655715.7209268,6000
24617.138459341342,-97911.19073762784,26237.23760095091,-187500.02235174447,-187500.02235174447,-187500.02235174447,-187500.02235174447,-187500.02235174447,1730655717.631234,1730655715.7209268,6000
24649.03439867907,-97929.40740935892,26233.437804393507,-187500.02235174447,-187500.02235174447,-187500.02235174447,-187500.02235174447,-187500.02235174447,1730655717.6363344,1730655715.7209268,6000
24659.718532528703,-97920.3102493656,26216.986920474403,-187500.02235174447,-187500.02235174447,-187500.02235174447,-187500.02235174447,-187500.02235174447,1730655717.6392553,1730655715.7209268,6000
24616.803183174517,-97916.53280455264,26225.77115604534,-187500.02235174447,-187500.02235174447,-187500.02235174447,-187500.02235174447,-187500.02235174447,1730655717.64334,1730655715.7209268,6000
24589.17642702776,-97924.42297034536,26221.390214132098,-187500.02235174447,-187500.02235174447,-187500.02235174447,-187500.02235174447,-187500.02235174447,1730655717.647157,1730655715.7209268,6000
24584.3037467365,-97927.2169384023,26245.08306325472,-187500.02235174447,-187500.02235174447,-187500.02235174447,-187500.02235174447,-187500.02235174447,1730655717.653302,1730655715.7209268,6000
24609.51651448209,-97904.41815905788,26247.13942374461,-187500.02235174447,-187500.02235174447,-187500.02235174447,-187500.02235174447,-187500.02235174447,1730655717.656262,1730655715.7209268,6000
24629.07429088048,-97905.87102244748,26204.73816451289,-187500.02235174447,-187500.02235174447,-187500.02235174447,-187500.02235174447,-187500.02235174447,1730655717.6602733,1730655715.7209268,6000
24631.197706603733,-97905.5580980251,26225.61469383415,-187500.02235174447,-187500.02235174447,-187500.02235174447,-187500.02235174447,-187500.02235174447,1730655717.663164,1730655715.7209268,6000
24587.16477002678,-97917.78450224215,26245.06071151027,-187500.02235174447,-187500.02235174447,-187500.02235174447,-187500.02235174447,-187500.02235174447,1730655717.666374,1730655715.7209268,6000
24589.221130516664,-97896.32682756506,26221.077289709723,-187500.02235174447,-187500.02235174447,-187500.02235174447,-187500.02235174447,-187500.02235174447,1730655717.670159,1730655715.7209268,6000
24611.19289531623,-97881.39586226892,26209.34262387069,-187500.02235174447,-187500.02235174447,-187500.02235174447,-187500.02235174447,-187500.02235174447,1730655717.6752405,1730655715.7209268,6000
24629.946008914238,-97957.3247381836,26210.90724598256,-187500.02235174447,-187500.02235174447,-187500.02235174447,-187500.02235174447,-187500.02235174447,1730655717.6791954,1730655715.7209268,6000
24613.29395929503,-97934.10127569451,26222.150173443577,-187500.02235174447,-187500.02235174447,-187500.02235174447,-187500.02235174447,-187500.02235174447,1730655717.6834335,1730655715.7209268,6000
24607.996595859124,-97926.47933083528,26230.196801447488,-187500.02235174447,-187500.02235174447,-187500.02235174447,-187500.02235174447,-187500.02235174447,1730655717.687323,1730655715.7209268,6000
24606.186104558245,-97895.9021444204,26228.162792702056,-187500.02235174447,-187500.02235174447,-187500.02235174447,-187500.02235174447,-187500.02235174447,1730655717.6915104,1730655715.7209268,6000
24603.63800569034,-97906.94390618132,26214.66233905105,-187500.02235174447,-187500.02235174447,-187500.02235174447,-187500.02235174447,-187500.02235174447,1730655717.6946657,1730655715.7209268,6000
24622.50287801062,-97922.14309241094,26211.19781866048,-187500.02235174447,-187500.02235174447,-187500.02235174447,-187500.02235174447,-187500.02235174447,1730655717.6983664,1730655715.7209268,6000
24633.58934326045,-97907.99443817072,26239.94216203,-187500.02235174447,-187500.02235174447,-187500.02235174447,-187500.02235174447,-187500.02235174447,1730655717.703684,1730655715.7209268,6000
24620.893552409834,-97903.43468230184,26242.222039964443,-187500.02235174447,-187500.02235174447,-187500.02235174447,-187500.02235174447,-187500.02235174447,1730655717.7076082,1730655715.7209268,6000
24646.061616666517,-97919.77380749868,26194.366955085632,-187500.02235174447,-187500.02235174447,-187500.02235174447,-187500.02235174447,-187500.02235174447,1730655717.7112892,1730655715.7209268,6000
24668.74863728865,-97903.8146619576,26206.258083135854,-187500.02235174447,-187500.02235174447,-187500.02235174447,-187500.02235174447,-187500.02235174447,1730655717.7155805,1730655715.7209268,6000
24594.607900930398,-97948.98753750176,26259.00820005038,-187500.02235174447,-187500.02235174447,-187500.02235174447,-187500.02235174447,-187500.02235174447,1730655717.7194996,1730655715.7209268,6000
24586.27070024857,-97929.49681633672,26235.315350927754,-187500.02235174447,-187500.02235174447,-187500.02235174447,-187500.02235174447,-187500.02235174447,1730655717.7223132,1730655715.7209268,6000
24599.547636455016,-97913.2023946288,26208.91794072604,-187500.02235174447,-187500.02235174447,-187500.02235174447,-187500.02235174447,-187500.02235174447,1730655717.7263885,1730655715.7209268,6000
24617.00434887461,-97952.00502300324,26196.289205108787,-187500.02235174447,-187500.02235174447,-187500.02235174447,-187500.02235174447,-187500.02235174447,1730655717.7314644,1730655715.7209268,6000
24638.93141018527,-97944.02545023269,26224.45240312248,-187500.02235174447,-187500.02235174447,-187500.02235174447,-187500.02235174447,-187500.02235174447,1730655717.735464,1730655715.7209268,6000
24639.624314263383,-97917.98566794224,26231.0908712257,-187500.02235174447,-187500.02235174447,-187500.02235174447,-187500.02235174447,-187500.02235174447,1730655717.7394557,1730655715.7209268,6000
24610.58939821594,-97920.2208423878,26211.309577382755,-187500.02235174447,-187500.02235174447,-187500.02235174447,-187500.02235174447,-187500.02235174447,1730655717.7424276,1730655715.7209268,6000
24594.49614220812,-97921.360781355,26195.52924579731,-187500.02235174447,-187500.02235174447,-187500.02235174447,-187500.02235174447,-187500.02235174447,1730655717.7463603,1730655715.7209268,6000
24629.29780832503,-97956.74359282776,26194.45636206345,-187500.02235174447,-187500.02235174447,-187500.02235174447,-187500.02235174447,-187500.02235174447,1730655717.7505393,1730655715.7209268,6000
24660.836119751468,-97931.32965938209,26207.934463970003,-187500.02235174447,-187500.02235174447,-187500.02235174447,-187500.02235174447,-187500.02235174447,1730655717.754325,1730655715.7209268,6000
24631.845907192936,-97908.5085282932,26251.98975229141,-187500.02235174447,-187500.02235174447,-187500.02235174447,-187500.02235174447,-187500.02235174447,1730655717.7593884,1730655715.7209268,6000
24636.986808417656,-97937.5657960851,26260.997505306903,-187500.02235174447,-187500.02235174447,-187500.02235174447,-187500.02235174447,-187500.02235174447,1730655717.763497,1730655715.7209268,6000
24608.73420342615,-97929.58622331456,26247.42999642253,-187500.02235174447,-187500.02235174447,-187500.02235174447,-187500.02235174447,-187500.02235174447,1730655717.7675743,1730655715.7209268,6000
24584.77313337006,-97969.46173542282,26214.215304161942,-187500.02235174447,-187500.02235174447,-187500.02235174447,-187500.02235174447,-187500.02235174447,1730655717.7703948,1730655715.7209268,6000
24606.32021502497,-97945.38890664444,26185.538016025785,-187500.02235174447,-187500.02235174447,-187500.02235174447,-187500.02235174447,-187500.02235174447,1730655717.7745397,1730655715.7209268,6000
24634.8633926944,-97926.88166223546,26219.69148155349,-187500.02235174447,-187500.02235174447,-187500.02235174447,-187500.02235174447,-187500.02235174447,1730655717.778335,1730655715.7209268,6000
24633.76815721609,-97950.10512472452,26232.543734615298,-187500.02235174447,-187500.02235174447,-187500.02235174447,-187500.02235174447,-187500.02235174447,1730655717.7825627,1730655715.7209268,6000
24609.51651448209,-97953.30142418164,26237.550525373284,-187500.02235174447,-187500.02235174447,-187500.02235174447,-187500.02235174447,-187500.02235174447,1730655717.7873735,1730655715.7209268,6000
24634.483413038663,-97920.93609821035,26251.20744123548,-187500.02235174447,-187500.02235174447,-187500.02235174447,-187500.02235174447,-187500.02235174447,1730655717.7915237,1730655715.7209268,6000
24666.133483187376,-97961.86214230802,26230.755595058872,-187500.02235174447,-187500.02235174447,-187500.02235174447,-187500.02235174447,-187500.02235174447,1730655717.7953918,1730655715.7209268,6000
24627.77788970207,-97946.6182525895,26229.72741481393,-187500.02235174447,-187500.02235174447,-187500.02235174447,-187500.02235174447,-187500.02235174447,1730655717.7986548,1730655715.7209268,6000
24582.42620020225,-97931.39671461545,26206.81687674724,-187500.02235174447,-187500.02235174447,-187500.02235174447,-187500.02235174447,-187500.02235174447,1730655717.802632,1730655715.7209268,6000
24599.793505644026,-97925.3170401236,26210.32610062672,-187500.02235174447,-187500.02235174447,-187500.02235174447,-187500.02235174447,-187500.02235174447,1730655717.8066516,1730655715.7209268,6000
24630.68361648126,-97915.63873477445,26220.63025482062,-187500.02235174447,-187500.02235174447,-187500.02235174447,-187500.02235174447,-187500.02235174447,1730655717.81064,1730655715.7209268,6000
24629.007235647117,-97925.9205372239,26211.823667505225,-187500.02235174447,-187500.02235174447,-187500.02235174447,-187500.02235174447,-187500.02235174447,1730655717.8146932,1730655715.7209268,6000
24606.32021502497,-97956.6765375944,26213.164772172546,-187500.02235174447,-187500.02235174447,-187500.02235174447,-187500.02235174447,-187500.02235174447,1730655717.8195417,1730655715.7209268,6000
24619.61950297588,-97945.3665549,26210.035527948803,-187500.02235174447,-187500.02235174447,-187500.02235174447,-187500.02235174447,-187500.02235174447,1730655717.8236392,1730655715.7209268,6000
24633.119956626888,-97940.62798507548,26206.61571104714,-187500.02235174447,-187500.02235174447,-187500.02235174447,-187500.02235174447,-187500.02235174447,1730655717.826678,1730655715.7209268,6000
24600.620520188877,-97941.74557229824,26224.63121707812,-187500.02235174447,-187500.02235174447,-187500.02235174447,-187500.02235174447,-187500.02235174447,1730655717.83067,1730655715.7209268,6000
24593.020927074067,-97915.59403128554,26211.443687849485,-187500.02235174447,-187500.02235174447,-187500.02235174447,-187500.02235174447,-187500.02235174447,1730655717.834566,1730655715.7209268,6000
24620.960607643203,-97919.77380749868,26221.47962110992,-187500.02235174447,-187500.02235174447,-187500.02235174447,-187500.02235174447,-187500.02235174447,1730655717.8385918,1730655715.7209268,6000
24613.763345928597,-97918.4103510869,26221.81489727675,-187500.02235174447,-187500.02235174447,-187500.02235174447,-187500.02235174447,-187500.02235174447,1730655717.8426983,1730655715.7209268,6000
24612.69046219474,-97915.43756907436,26201.251292377867,-187500.02235174447,-187500.02235174447,-187500.02235174447,-187500.02235174447,-187500.02235174447,1730655717.8476467,1730655715.7209268,6000
24613.71864243968,-97912.9118219509,26209.074402937225,-187500.02235174447,-187500.02235174447,-187500.02235174447,-187500.02235174447,-187500.02235174447,1730655717.8506155,1730655715.7209268,6000
24623.866334422397,-97988.5277734432,26224.318292655746,-187500.02235174447,-187500.02235174447,-187500.02235174447,-187500.02235174447,-187500.02235174447,1730655717.8545315,1730655715.7209268,6000
24645.435767821764,-97933.29661289412,26232.52138287084,-187500.02235174447,-187500.02235174447,-187500.02235174447,-187500.02235174447,-187500.02235174447,1730655717.8586888,1730655715.7209268,6000
24628.56020075801,-97886.42500477136,26219.266798408844,-187500.02235174447,-187500.02235174447,-187500.02235174447,-187500.02235174447,-187500.02235174447,1730655717.862518,1730655715.7209268,6000
24596.77602014256,-97902.00417065671,26212.494219838885,-187500.02235174447,-187500.02235174447,-187500.02235174447,-187500.02235174447,-187500.02235174447,1730655717.8667493,1730655715.7209268,6000
24603.526246968064,-97906.25100210322,26210.57196981573,-187500.02235174447,-187500.02235174447,-187500.02235174447,-187500.02235174447,-187500.02235174447,1730655717.87054,1730655715.7209268,6000
24608.3095202815,-97909.44730156031,26206.19102790249,-187500.02235174447,-187500.02235174447,-187500.02235174447,-187500.02235174447,-187500.02235174447,1730655717.8757124,1730655715.7209268,6000
24619.284226809054,-97933.5648338276,26222.32898739922,-187500.02235174447,-187500.02235174447,-187500.02235174447,-187500.02235174447,-187500.02235174447,1730655717.8785732,1730655715.7209268,6000
24619.84302042044,-97916.08576966356,26228.22984793542,-187500.02235174447,-187500.02235174447,-187500.02235174447,-187500.02235174447,-187500.02235174447,1730655717.8825867,1730655715.7209268,6000
24635.086910138954,-97931.53082508215,26224.76532754485,-187500.02235174447,-187500.02235174447,-187500.02235174447,-187500.02235174447,-187500.02235174447,1730655717.8867855,1730655715.7209268,6000
24617.674901208276,-97927.2616418912,26217.14338268559,-187500.02235174447,-187500.02235174447,-187500.02235174447,-187500.02235174447,-187500.02235174447,1730655717.8917823,1730655715.7209268,6000
24613.29395929503,-97900.14897586692,26218.506839097365,-187500.02235174447,-187500.02235174447,-187500.02235174447,-187500.02235174447,-187500.02235174447,1730655717.894776,1730655715.7209268,6000
24613.69629069523,-97891.74471995172,26202.592397045184,-187500.02235174447,-187500.02235174447,-187500.02235174447,-187500.02235174447,-187500.02235174447,1730655717.8987775,1730655715.7209268,6000
24633.723453727183,-97921.1596156549,26195.37278358612,-187500.02235174447,-187500.02235174447,-187500.02235174447,-187500.02235174447,-187500.02235174447,1730655717.9025955,1730655715.7209268,6000
24633.723453727183,-97928.75920876973,26204.022908690324,-187500.02235174447,-187500.02235174447,-187500.02235174447,-187500.02235174447,-187500.02235174447,1730655717.9067,1730655715.7209268,6000
24627.330854812964,-97939.4656943638,26216.875161752127,-187500.02235174447,-187500.02235174447,-187500.02235174447,-187500.02235174447,-187500.02235174447,1730655717.9108815,1730655715.7209268,6000
24657.483358083173,-97963.40441267545,26221.52432459883,-187500.02235174447,-187500.02235174447,-187500.02235174447,-187500.02235174447,-187500.02235174447,1730655717.9158328,1730655715.7209268,6000
24605.56025571349,-97920.69022902136,26224.877086267126,-187500.02235174447,-187500.02235174447,-187500.02235174447,-187500.02235174447,-187500.02235174447,1730655717.919802,1730655715.7209268,6000
24625.78858444555,-97945.05363047765,26225.167658945044,-187500.02235174447,-187500.02235174447,-187500.02235174447,-187500.02235174447,-187500.02235174447,1730655717.9227705,1730655715.7209268,6000
24656.23166039368,-97939.17512168588,26226.73228105692,-187500.02235174447,-187500.02235174447,-187500.02235174447,-187500.02235174447,-187500.02235174447,1730655717.9267108,1730655715.7209268,6000
24606.744898169625,-97918.03037143116,26209.029699448314,-187500.02235174447,-187500.02235174447,-187500.02235174447,-187500.02235174447,-187500.02235174447,1730655717.9307013,1730655715.7209268,6000
24584.1025810364,-97939.08571470808,26186.25327184836,-187500.02235174447,-187500.02235174447,-187500.02235174447,-187500.02235174447,-187500.02235174447,1730655717.93481,1730655715.7209268,6000
24615.9091133963,-97958.91171203992,26249.598115634697,-187500.02235174447,-187500.02235174447,-187500.02235174447,-187500.02235174447,-187500.02235174447,1730655717.938836,1730655715.7209268,6000
24611.081136593955,-97999.86010788204,26251.81093833577,-187500.02235174447,-187500.02235174447,-187500.02235174447,-187500.02235174447,-187500.02235174447,1730655717.9428153,1730655715.7209268,6000
24607.214284803187,-98006.07389284062,26216.025795462825,-187500.02235174447,-187500.02235174447,-187500.02235174447,-187500.02235174447,-187500.02235174447,1730655717.9467497,1730655715.7209268,6000
24624.35807280041,-97948.56285435712,26214.08119369521,-187500.02235174447,-187500.02235174447,-187500.02235174447,-187500.02235174447,-187500.02235174447,1730655717.9496794,1730655715.7209268,6000
24613.159848828294,-97950.0604212356,26227.827516535228,-187500.02235174447,-187500.02235174447,-187500.02235174447,-187500.02235174447,-187500.02235174447,1730655717.9536529,1730655715.7209268,6000
24602.475714978664,-97945.612424089,26213.81297276175,-187500.02235174447,-187500.02235174447,-187500.02235174447,-187500.02235174447,-187500.02235174447,1730655717.9597092,1730655715.7209268,6000
24620.960607643203,-97926.72520002427,26218.57389433073,-187500.02235174447,-187500.02235174447,-187500.02235174447,-187500.02235174447,-187500.02235174447,1730655717.96276,1730655715.7209268,6000
24665.1723581758,-97948.69696482384,26183.57106251372,-187500.02235174447,-187500.02235174447,-187500.02235174447,-187500.02235174447,-187500.02235174447,1730655717.966821,1730655715.7209268,6000
24677.39876239285,-97969.39468018946,26220.9878827319,-187500.02235174447,-187500.02235174447,-187500.02235174447,-187500.02235174447,-187500.02235174447,1730655717.9706855,1730655715.7209268,6000
24591.23278751764,-97962.21977021932,26264.752598375395,-187500.02235174447,-187500.02235174447,-187500.02235174447,-187500.02235174447,-187500.02235174447,1730655717.9748528,1730655715.7209268,6000
24574.82660708745,-97984.7279768858,26208.80618200376,-187500.02235174447,-187500.02235174447,-187500.02235174447,-187500.02235174447,-187500.02235174447,1730655717.9777389,1730655715.7209268,6000
24591.948043340213,-98005.1798230624,26182.721696224417,-187500.02235174447,-187500.02235174447,-187500.02235174447,-187500.02235174447,-187500.02235174447,1730655717.9817624,1730655715.7209268,6000
24602.989805101133,-97957.05651725012,26201.787734244797,-187500.02235174447,-187500.02235174447,-187500.02235174447,-187500.02235174447,-187500.02235174447,1730655717.9866824,1730655715.7209268,6000
24621.3629390434,-97964.38788943148,26220.585551331707,-187500.02235174447,-187500.02235174447,-187500.02235174447,-187500.02235174447,-187500.02235174447,1730655717.9907432,1730655715.7209268,6000
24615.506781996108,-97958.71054633982,26204.24642613488,-187500.02235174447,-187500.02235174447,-187500.02235174447,-187500.02235174447,-187500.02235174447,1730655717.9948533,1730655715.7209268,6000
24618.948950642225,-97970.46756392332,26203.30765286776,-187500.02235174447,-187500.02235174447,-187500.02235174447,-187500.02235174447,-187500.02235174447,1730655717.9977565,1730655715.7209268,6000
24639.691369496748,-97951.71445032532,26216.53988558529,-187500.02235174447,-187500.02235174447,-187500.02235174447,-187500.02235174447,-187500.02235174447,1730655718.001864,1730655715.7209268,6000
24622.167601843787,-97971.33928195709,26222.48544961041,-187500.02235174447,-187500.02235174447,-187500.02235174447,-187500.02235174447,-187500.02235174447,1730655718.0057962,1730655715.7209268,6000
24608.91301738179,-97969.64054937848,26210.013176204346,-187500.02235174447,-187500.02235174447,-187500.02235174447,-187500.02235174447,-187500.02235174447,1730655718.0098443,1730655715.7209268,6000
24605.38144175785,-97985.44323270836,26191.84120796218,-187500.02235174447,-187500.02235174447,-187500.02235174447,-187500.02235174447,-187500.02235174447,1730655718.0148213,1730655715.7209268,6000
24661.819596507503,-97957.8164765616,26199.32904235471,-187500.02235174447,-187500.02235174447,-187500.02235174447,-187500.02235174447,-187500.02235174447,1730655718.0190413,1730655715.7209268,6000
24668.435712866278,-97967.11480225502,26268.977078077445,-187500.02235174447,-187500.02235174447,-187500.02235174447,-187500.02235174447,-187500.02235174447,1730655718.0231616,1730655715.7209268,6000
24596.418392231277,-97966.10897375453,26238.444595151497,-187500.02235174447,-187500.02235174447,-187500.02235174447,-187500.02235174447,-187500.02235174447,1730655718.0260606,1730655715.7209268,6000
24617.943122141736,-97948.40639214592,26206.19102790249,-187500.02235174447,-187500.02235174447,-187500.02235174447,-187500.02235174447,-187500.02235174447,1730655718.0298414,1730655715.7209268,6000
24628.67195948028,-97966.89128481048,26216.09285069619,-187500.02235174447,-187500.02235174447,-187500.02235174447,-187500.02235174447,-187500.02235174447,1730655718.034331,1730655715.7209268,6000
24615.417375018285,-98001.49178522728,26217.56806583024,-187500.02235174447,-187500.02235174447,-187500.02235174447,-187500.02235174447,-187500.02235174447,1730655718.03781,1730655715.7209268,6000
24648.78852949006,-98016.84743366808,26211.51074308285,-187500.02235174447,-187500.02235174447,-187500.02235174447,-187500.02235174447,-187500.02235174447,1730655718.0430708,1730655715.7209268,6000
24657.99744820565,-97972.79214534668,26198.61378653214,-187500.02235174447,-187500.02235174447,-187500.02235174447,-187500.02235174447,-187500.02235174447,1730655718.0470345,1730655715.7209268,6000
24584.259043247588,-97980.41409020592,26200.1337051551,-187500.02235174447,-187500.02235174447,-187500.02235174447,-187500.02235174447,-187500.02235174447,1730655718.0522835,1730655715.7209268,6000
24578.38053445584,-97989.3771397325,26227.98397874641,-187500.02235174447,-187500.02235174447,-187500.02235174447,-187500.02235174447,-187500.02235174447,1730655718.0559871,1730655715.7209268,6000
24589.511703194585,-97995.54622120217,26229.749766558383,-187500.02235174447,-187500.02235174447,-187500.02235174447,-187500.02235174447,-187500.02235174447,1730655718.059034,1730655715.7209268,6000
24590.763400884083,-97987.9689798318,26208.44855409248,-187500.02235174447,-187500.02235174447,-187500.02235174447,-187500.02235174447,-187500.02235174447,1730655718.0618207,1730655715.7209268,6000
24604.710889424197,-97991.56761068912,26181.55940551274,-187500.02235174447,-187500.02235174447,-187500.02235174447,-187500.02235174447,-187500.02235174447,1730655718.0661569,1730655715.7209268,6000
24630.48245078116,-98003.883421884,26193.070553907222,-187500.02235174447,-187500.02235174447,-187500.02235174447,-187500.02235174447,-187500.02235174447,1730655718.070856,1730655715.7209268,6000
24656.857509238424,-97987.74546238726,26221.971359487936,-187500.02235174447,-187500.02235174447,-187500.02235174447,-187500.02235174447,-187500.02235174447,1730655718.075032,1730655715.7209268,6000
24622.12289835488,-97956.4306684054,26240.47860389693,-187500.02235174447,-187500.02235174447,-187500.02235174447,-187500.02235174447,-187500.02235174447,1730655718.078859,1730655715.7209268,6000
24631.577686259472,-97976.9272180709,26205.721641268927,-187500.02235174447,-187500.02235174447,-187500.02235174447,-187500.02235174447,-187500.02235174447,1730655718.08211,1730655715.7209268,6000
24623.843982677936,-98027.3304018176,26238.06461549576,-187500.02235174447,-187500.02235174447,-187500.02235174447,-187500.02235174447,-187500.02235174447,1730655718.085984,1730655715.7209268,6000
24589.91403459478,-97996.2838287692,26234.66715033855,-187500.02235174447,-187500.02235174447,-187500.02235174447,-187500.02235174447,-187500.02235174447,1730655718.0899804,1730655715.7209268,6000
24612.48929649464,-97953.5249416262,26211.13076342711,-187500.02235174447,-187500.02235174447,-187500.02235174447,-187500.02235174447,-187500.02235174447,1730655718.0940368,1730655715.7209268,6000
24637.187974117754,-97957.99529051724,26205.162847657542,-187500.02235174447,-187500.02235174447,-187500.02235174447,-187500.02235174447,-187500.02235174447,1730655718.0981653,1730655715.7209268,6000
24640.65249450833,-97966.51130515472,26215.53405708481,-187500.02235174447,-187500.02235174447,-187500.02235174447,-187500.02235174447,-187500.02235174447,1730655718.103231,1730655715.7209268,6000
24587.500046193607,-97973.3732907025,26216.29401639629,-187500.02235174447,-187500.02235174447,-187500.02235174447,-187500.02235174447,-187500.02235174447,1730655718.106055,1730655715.7209268,6000
24576.27947047704,-97996.03795958018,26220.25027516488,-187500.02235174447,-187500.02235174447,-187500.02235174447,-187500.02235174447,-187500.02235174447,1730655718.1100843,1730655715.7209268,6000
24609.96354937119,-97986.0243780642,26221.703138554472,-187500.02235174447,-187500.02235174447,-187500.02235174447,-187500.02235174447,-187500.02235174447,1730655718.1141272,1730655715.7209268,6000
24631.53298277056,-97964.32083419812,26205.81104824675,-187500.02235174447,-187500.02235174447,-187500.02235174447,-187500.02235174447,-187500.02235174447,1730655718.1181047,1730655715.7209268,6000
24644.87697421038,-97976.10020352605,26187.013231159835,-187500.02235174447,-187500.02235174447,-187500.02235174447,-187500.02235174447,-187500.02235174447,1730655718.1219475,1730655715.7209268,6000
24637.85852645141,-97964.2761307092,26211.75661227186,-187500.02235174447,-187500.02235174447,-187500.02235174447,-187500.02235174447,-187500.02235174447,1730655718.1261177,1730655715.7209268,6000
24620.960607643203,-97980.369386717,26215.198780917977,-187500.02235174447,-187500.02235174447,-187500.02235174447,-187500.02235174447,-187500.02235174447,1730655718.131096,1730655715.7209268,6000
24600.5087614666,-98003.95047711737,26206.79452500278,-187500.02235174447,-187500.02235174447,-187500.02235174447,-187500.02235174447,-187500.02235174447,1730655718.1341028,1730655715.7209268,6000
