Fp1,Fp2,C3,C4,P7,P8,O1,O2,time_board,time_marker,marker
-1331.0910858024463,-187500.02235174447,3112.3463049347765,-187500.02235174447,-187500.02235174447,-187500.02235174447,-187500.02235174447,-187500.02235174447,1729114250.4750626,1729114250.2156737,2000
-1490.4590237687855,-187500.02235174447,3124.215081240545,-187500.02235174447,-187500.02235174447,-187500.02235174447,-187500.02235174447,-187500.02235174447,1729114250.4751377,1729114250.2156737,2000
-1505.5911547650285,-187500.02235174447,3104.076159486313,-187500.02235174447,-187500.02235174447,-187500.02235174447,-187500.02235174447,-187500.02235174447,1729114250.4751923,1729114250.2156737,2000
-1344.4797807311752,-187500.02235174447,3089.435766868087,-187500.02235174447,-187500.02235174447,-187500.02235174447,-187500.02235174447,-187500.02235174447,1729114250.4752114,1729114250.2156737,2000
-1315.869547828382,-187500.02235174447,3108.010066510447,-187500.02235174447,-187500.02235174447,-187500.02235174447,-187500.02235174447,-187500.02235174447,1729114250.475237,1729114250.2156737,2000
-1477.9420468738135,-187500.02235174447,3110.4240549116203,-187500.02235174447,-187500.02235174447,-187500.02235174447,-187500.02235174447,-187500.02235174447,1729114250.4752948,1729114250.2156737,2000
-1537.5541493361177,-187500.02235174447,3099.09172047278,-187500.02235174447,-187500.02235174447,-187500.02235174447,-187500.02235174447,-187500.02235174447,1729114250.4753966,1729114250.2156737,2000
-1370.1842868547783,-187500.02235174447,3100.8351565402936,-187500.02235174447,-187500.02235174447,-187500.02235174447,-187500.02235174447,-187500.02235174447,1729114250.475408,1729114250.2156737,2000
-1297.675227841762,-187500.02235174447,3115.5873078807963,-187500.02235174447,-187500.02235174447,-187500.02235174447,-187500.02235174447,-187500.02235174447,1729114250.475415,1729114250.2156737,2000
-1442.2910144675989,-187500.02235174447,3128.148988264679,-187500.02235174447,-187500.02235174447,-187500.02235174447,-187500.02235174447,-187500.02235174447,1729114250.475422,1729114250.2156737,2000
-1533.8437597565369,-187500.02235174447,3119.722380605028,-187500.02235174447,-187500.02235174447,-187500.02235174447,-187500.02235174447,-187500.02235174447,1729114250.4754288,1729114250.2156737,2000
-1393.5865632994849,-187500.02235174447,3100.5445838623746,-187500.02235174447,-187500.02235174447,-187500.02235174447,-187500.02235174447,-187500.02235174447,1729114250.475438,1729114250.2156737,2000
-1294.6577423402955,-187500.02235174447,3105.864299042737,-187500.02235174447,-187500.02235174447,-187500.02235174447,-187500.02235174447,-187500.02235174447,1729114250.4754453,1729114250.2156737,2000
-1423.672011336328,-187500.02235174447,3115.9672875365363,-187500.02235174447,-187500.02235174447,-187500.02235174447,-187500.02235174447,-187500.02235174447,1729114250.475452,1729114250.2156737,2000
-1545.5560738511174,-187500.02235174447,3114.8049968248606,-187500.02235174447,-187500.02235174447,-187500.02235174447,-187500.02235174447,-187500.02235174447,1729114250.475459,1729114250.2156737,2000
-1427.5835666160067,-187500.02235174447,3098.3317611612997,-187500.02235174447,-187500.02235174447,-187500.02235174447,-187500.02235174447,-187500.02235174447,1729114250.4754658,1729114250.2156737,2000
-1295.9541435187034,-187500.02235174447,3093.302618658855,-187500.02235174447,-187500.02235174447,-187500.02235174447,-187500.02235174447,-187500.02235174447,1729114250.4754727,1729114250.2156737,2000
-1388.7585864971384,-187500.02235174447,3127.5454911643856,-187500.02235174447,-187500.02235174447,-187500.02235174447,-187500.02235174447,-187500.02235174447,1729114250.4754803,1729114250.2156737,2000
-1546.628957584972,-187500.02235174447,3121.33170620581,-187500.02235174447,-187500.02235174447,-187500.02235174447,-187500.02235174447,-187500.02235174447,1729114250.4754872,1729114250.2156737,2000
-1468.8672386249589,-187500.02235174447,3102.712703074539,-187500.02235174447,-187500.02235174447,-187500.02235174447,-187500.02235174447,-187500.02235174447,1729114250.475494,1729114250.2156737,2000
-1309.9686872921811,-187500.02235174447,3095.13546170419,-187500.02235174447,-187500.02235174447,-187500.02235174447,-187500.02235174447,-187500.02235174447,1729114250.475501,1729114250.2156737,2000
-1348.614853455407,-187500.02235174447,3104.366732164232,-187500.02235174447,-187500.02235174447,-187500.02235174447,-187500.02235174447,-187500.02235174447,1729114250.475508,1729114250.2156737,2000
-1521.058561928101,-187500.02235174447,3117.241336970489,-187500.02235174447,-187500.02235174447,-187500.02235174447,-187500.02235174447,-187500.02235174447,1729114250.475515,1729114250.2156737,2000
-1494.7505587042044,-187500.02235174447,3100.723397818017,-187500.02235174447,-187500.02235174447,-187500.02235174447,-187500.02235174447,-187500.02235174447,1729114250.4755216,1729114250.2156737,2000
-1321.7257048756726,-187500.02235174447,3101.058673984847,-187500.02235174447,-187500.02235174447,-187500.02235174447,-187500.02235174447,-187500.02235174447,1729114250.4755285,1729114250.2156737,2000
-1323.9832310656586,-187500.02235174447,3121.4881684169973,-187500.02235174447,-187500.02235174447,-187500.02235174447,-187500.02235174447,-187500.02235174447,1729114250.4755356,1729114250.2156737,2000
-1493.051826125601,-187500.02235174447,3127.2549184864665,-187500.02235174447,-187500.02235174447,-187500.02235174447,-187500.02235174447,-187500.02235174447,1729114250.4755423,1729114250.2156737,2000
-1516.2976403591206,-187500.02235174447,3105.6407815981847,-187500.02235174447,-187500.02235174447,-187500.02235174447,-187500.02235174447,-187500.02235174447,1729114250.4755492,1729114250.2156737,2000
-1346.066754587502,-187500.02235174447,3095.8954210156708,-187500.02235174447,-187500.02235174447,-187500.02235174447,-187500.02235174447,-187500.02235174447,1729114250.475556,1729114250.2156737,2000
-1314.8860710723486,-187500.02235174447,3111.563993878841,-187500.02235174447,-187500.02235174447,-187500.02235174447,-187500.02235174447,-187500.02235174447,1729114250.475563,1729114250.2156737,2000
-1472.9576078602802,-187500.02235174447,3118.850662571271,-187500.02235174447,-187500.02235174447,-187500.02235174447,-187500.02235174447,-187500.02235174447,1729114250.4755695,1729114250.2156737,2000
-1519.628050282961,-187500.02235174447,3110.334647933799,-187500.02235174447,-187500.02235174447,-187500.02235174447,-187500.02235174447,-187500.02235174447,1729114250.4755769,1729114250.2156737,2000
-1349.8218476559937,-187500.02235174447,3088.988731978981,-187500.02235174447,-187500.02235174447,-187500.02235174447,-187500.02235174447,-187500.02235174447,1729114250.4755836,1729114250.2156737,2000
-1302.033818010547,-187500.02235174447,3101.9303920186035,-187500.02235174447,-187500.02235174447,-187500.02235174447,-187500.02235174447,-187500.02235174447,1729114250.4755907,1729114250.2156737,2000
-1471.8400206375147,-187500.02235174447,3106.646610098673,-187500.02235174447,-187500.02235174447,-187500.02235174447,-187500.02235174447,-187500.02235174447,1729114250.4755998,1729114250.2156737,2000
-1556.3296146785754,-187500.02235174447,3106.244278698478,-187500.02235174447,-187500.02235174447,-187500.02235174447,-187500.02235174447,-187500.02235174447,1729114250.4756105,1729114250.2156737,2000
-1393.0501214325573,-187500.02235174447,3095.5154413599303,-187500.02235174447,-187500.02235174447,-187500.02235174447,-187500.02235174447,-187500.02235174447,1729114250.4756176,1729114250.2156737,2000
-1290.3438556604217,-187500.02235174447,3101.66217108514,-187500.02235174447,-187500.02235174447,-187500.02235174447,-187500.02235174447,-187500.02235174447,1729114250.4756243,1729114250.2156737,2000
-1419.9169182678363,-187500.02235174447,3116.391970681187,-187500.02235174447,-187500.02235174447,-187500.02235174447,-187500.02235174447,-187500.02235174447,1729114250.4756317,1729114250.2156737,2000
-1536.4142103688969,-187500.02235174447,3117.420150926132,-187500.02235174447,-187500.02235174447,-187500.02235174447,-187500.02235174447,-187500.02235174447,1729114250.4756386,1729114250.2156737,2000
-1440.5028749111743,-187500.02235174447,3099.047016983869,-187500.02235174447,-187500.02235174447,-187500.02235174447,-187500.02235174447,-187500.02235174447,1729114250.4756453,1729114250.2156737,2000
-1285.4264718802538,-187500.02235174447,3107.0489414988688,-187500.02235174447,-187500.02235174447,-187500.02235174447,-187500.02235174447,-187500.02235174447,1729114250.4756525,1729114250.2156737,2000
-1364.9092751633257,-187500.02235174447,3130.831197599316,-187500.02235174447,-187500.02235174447,-187500.02235174447,-187500.02235174447,-187500.02235174447,1729114250.475659,1729114250.2156737,2000
-1530.3568876215086,-187500.02235174447,3124.460950429553,-187500.02235174447,-187500.02235174447,-187500.02235174447,-187500.02235174447,-187500.02235174447,1729114250.4756658,1729114250.2156737,2000
-1466.7214711572494,-187500.02235174447,3098.6223338392183,-187500.02235174447,-187500.02235174447,-187500.02235174447,-187500.02235174447,-187500.02235174447,1729114250.4756727,1729114250.2156737,2000
-1309.6557628698067,-187500.02235174447,3095.291923915377,-187500.02235174447,-187500.02235174447,-187500.02235174447,-187500.02235174447,-187500.02235174447,1729114250.4756796,1729114250.2156737,2000
-1358.0025861266358,-187500.02235174447,3116.4143224256427,-187500.02235174447,-187500.02235174447,-187500.02235174447,-187500.02235174447,-187500.02235174447,1729114250.4756863,1729114250.2156737,2000
-1521.7514660062154,-187500.02235174447,3114.983810780503,-187500.02235174447,-187500.02235174447,-187500.02235174447,-187500.02235174447,-187500.02235174447,1729114250.4756932,1729114250.2156737,2000
-1497.4327680388417,-187500.02235174447,3098.152947205657,-187500.02235174447,-187500.02235174447,-187500.02235174447,-187500.02235174447,-187500.02235174447,1729114250.4757,1729114250.2156737,2000
-1328.8559113569154,-187500.02235174447,3093.4590808700423,-187500.02235174447,-187500.02235174447,-187500.02235174447,-187500.02235174447,-187500.02235174447,1729114250.4757075,1729114250.2156737,2000
-1335.315565504499,-187500.02235174447,3111.4522351565643,-187500.02235174447,-187500.02235174447,-187500.02235174447,-187500.02235174447,-187500.02235174447,1729114250.4757144,1729114250.2156737,2000
-1499.8467564400146,-187500.02235174447,3120.1023602607684,-187500.02235174447,-187500.02235174447,-187500.02235174447,-187500.02235174447,-187500.02235174447,1729114250.4757216,1729114250.2156737,2000
-1519.7845124941484,-187500.02235174447,3104.277325186411,-187500.02235174447,-187500.02235174447,-187500.02235174447,-187500.02235174447,-187500.02235174447,1729114250.4757285,1729114250.2156737,2000
-1348.5701499664965,-187500.02235174447,3092.833232025293,-187500.02235174447,-187500.02235174447,-187500.02235174447,-187500.02235174447,-187500.02235174447,1729114250.4757354,1729114250.2156737,2000
-1311.3768471928654,-187500.02235174447,3106.914831032137,-187500.02235174447,-187500.02235174447,-187500.02235174447,-187500.02235174447,-187500.02235174447,1729114250.475742,1729114250.2156737,2000
-1475.1927823058109,-187500.02235174447,3114.559127635852,-187500.02235174447,-187500.02235174447,-187500.02235174447,-187500.02235174447,-187500.02235174447,1729114250.4757493,1729114250.2156737,2000
-1541.577463338073,-187500.02235174447,3096.856546027249,-187500.02235174447,-187500.02235174447,-187500.02235174447,-187500.02235174447,-187500.02235174447,1729114250.475756,1729114250.2156737,2000
-1384.0647201615238,-187500.02235174447,3090.3521883907547,-187500.02235174447,-187500.02235174447,-187500.02235174447,-187500.02235174447,-187500.02235174447,1729114250.4757628,1729114250.2156737,2000
-1294.9483150182148,-187500.02235174447,3102.176261207612,-187500.02235174447,-187500.02235174447,-187500.02235174447,-187500.02235174447,-187500.02235174447,1729114250.4757695,1729114250.2156737,2000
-1435.741953342194,-187500.02235174447,3107.4512728990644,-187500.02235174447,-187500.02235174447,-187500.02235174447,-187500.02235174447,-187500.02235174447,1729114250.4757764,1729114250.2156737,2000
-1548.6853180748606,-187500.02235174447,3104.5455461198744,-187500.02235174447,-187500.02235174447,-187500.02235174447,-187500.02235174447,-187500.02235174447,1729114250.4757853,1729114250.2156737,2000
-1410.0374472185908,-187500.02235174447,3095.180165193101,-187500.02235174447,-187500.02235174447,-187500.02235174447,-187500.02235174447,-187500.02235174447,1729114250.4757924,1729114250.2156737,2000
-1297.7199313306728,-187500.02235174447,3113.687409602095,-187500.02235174447,-187500.02235174447,-187500.02235174447,-187500.02235174447,-187500.02235174447,1729114250.475799,1729114250.2156737,2000
-1417.681743822306,-187500.02235174447,3128.752485364972,-187500.02235174447,-187500.02235174447,-187500.02235174447,-187500.02235174447,-187500.02235174447,1729114250.475806,1729114250.2156737,2000
-1554.988510011257,-187500.02235174447,3119.297697460377,-187500.02235174447,-187500.02235174447,-187500.02235174447,-187500.02235174447,-187500.02235174447,1729114250.475813,1729114250.2156737,2000
-1433.5514823855738,-187500.02235174447,3103.427958897109,-187500.02235174447,-187500.02235174447,-187500.02235174447,-187500.02235174447,-187500.02235174447,1729114250.47582,1729114250.2156737,2000
-1294.367169662377,-187500.02235174447,3102.779758307905,-187500.02235174447,-187500.02235174447,-187500.02235174447,-187500.02235174447,-187500.02235174447,1729114250.4758267,1729114250.2156737,2000
-1379.8625922039262,-187500.02235174447,3113.240374712989,-187500.02235174447,-187500.02235174447,-187500.02235174447,-187500.02235174447,-187500.02235174447,1729114250.475834,1729114250.2156737,2000
-1534.44725685683,-187500.02235174447,3112.8380433127936,-187500.02235174447,-187500.02235174447,-187500.02235174447,-187500.02235174447,-187500.02235174447,1729114250.4758408,1729114250.2156737,2000
-1473.4046427493863,-187500.02235174447,3099.8293280398048,-187500.02235174447,-187500.02235174447,-187500.02235174447,-187500.02235174447,-187500.02235174447,1729114250.4758475,1729114250.2156737,2000
-1313.321448960477,-187500.02235174447,3097.817671038827,-187500.02235174447,-187500.02235174447,-187500.02235174447,-187500.02235174447,-187500.02235174447,1729114250.4758544,1729114250.2156737,2000
-1354.9851006251697,-187500.02235174447,3112.122787490224,-187500.02235174447,-187500.02235174447,-187500.02235174447,-187500.02235174447,-187500.02235174447,1729114250.4758613,1729114250.2156737,2000
-1522.8467014845255,-187500.02235174447,3115.0285142694133,-187500.02235174447,-187500.02235174447,-187500.02235174447,-187500.02235174447,-187500.02235174447,1729114250.4758682,1729114250.2156737,2000
-1504.2053466087991,-187500.02235174447,3098.3541129057544,-187500.02235174447,-187500.02235174447,-187500.02235174447,-187500.02235174447,-187500.02235174447,1729114250.475875,1729114250.2156737,2000
-1337.394277738843,-187500.02235174447,3089.2122494235336,-187500.02235174447,-187500.02235174447,-187500.02235174447,-187500.02235174447,-187500.02235174447,1729114250.475882,1729114250.2156737,2000
-1329.2358910126557,-187500.02235174447,3111.8322148123048,-187500.02235174447,-187500.02235174447,-187500.02235174447,-187500.02235174447,-187500.02235174447,1729114250.4758887,1729114250.2156737,2000
-1495.1975935933106,-187500.02235174447,3123.946860307081,-187500.02235174447,-187500.02235174447,-187500.02235174447,-187500.02235174447,-187500.02235174447,1729114250.475896,1729114250.2156737,2000
-1528.8816724874584,-187500.02235174447,3104.992581008981,-187500.02235174447,-187500.02235174447,-187500.02235174447,-187500.02235174447,-187500.02235174447,1729114250.4759028,1729114250.2156737,2000
-1361.1988855837449,-187500.02235174447,3089.3240081458102,-187500.02235174447,-187500.02235174447,-187500.02235174447,-187500.02235174447,-187500.02235174447,1729114250.4759097,1729114250.2156737,2000
-1319.4234751967758,-187500.02235174447,3105.976057765014,-187500.02235174447,-187500.02235174447,-187500.02235174447,-187500.02235174447,-187500.02235174447,1729114250.4759164,1729114250.2156737,2000
-1477.092680584512,-187500.02235174447,3113.7097613465503,-187500.02235174447,-187500.02235174447,-187500.02235174447,-187500.02235174447,-187500.02235174447,1729114250.4759233,1729114250.2156737,2000
-1547.411268640908,-187500.02235174447,3105.2831536869,-187500.02235174447,-187500.02235174447,-187500.02235174447,-187500.02235174447,-187500.02235174447,1729114250.4759307,1729114250.2156737,2000
-1402.482557592697,-187500.02235174447,3079.802165007849,-187500.02235174447,-187500.02235174447,-187500.02235174447,-187500.02235174447,-187500.02235174447,1729114250.4759376,1729114250.2156737,2000
-1313.1873384937453,-187500.02235174447,3095.9624762490366,-187500.02235174447,-187500.02235174447,-187500.02235174447,-187500.02235174447,-187500.02235174447,1729114250.4759445,1729114250.2156737,2000
-1432.545653885085,-187500.02235174447,3122.225775984022,-187500.02235174447,-187500.02235174447,-187500.02235174447,-187500.02235174447,-187500.02235174447,1729114250.4759514,1729114250.2156737,2000
-1547.567730852095,-187500.02235174447,3106.8030723098605,-187500.02235174447,-187500.02235174447,-187500.02235174447,-187500.02235174447,-187500.02235174447,1729114250.4759583,1729114250.2156737,2000
-1426.7342003267051,-187500.02235174447,3066.435821823576,-187500.02235174447,-187500.02235174447,-187500.02235174447,-187500.02235174447,-187500.02235174447,1729114250.4759653,1729114250.2156737,2000
-1286.0746724694577,-187500.02235174447,3068.402775335643,-187500.02235174447,-187500.02235174447,-187500.02235174447,-187500.02235174447,-187500.02235174447,1729114250.475972,1729114250.2156737,2000
-1403.376627370909,-187500.02235174447,3117.4425026705867,-187500.02235174447,-187500.02235174447,-187500.02235174447,-187500.02235174447,-187500.02235174447,1729114250.4759789,1729114250.2156737,2000
-1554.1167919775,-187500.02235174447,3134.6756976456286,-187500.02235174447,-187500.02235174447,-187500.02235174447,-187500.02235174447,-187500.02235174447,1729114250.475986,1729114250.2156737,2000
-1448.5495029150848,-187500.02235174447,3108.7700258219274,-187500.02235174447,-187500.02235174447,-187500.02235174447,-187500.02235174447,-187500.02235174447,1729114250.475993,1729114250.2156737,2000
-1290.5673731049744,-187500.02235174447,3105.2831536869,-187500.02235174447,-187500.02235174447,-187500.02235174447,-187500.02235174447,-187500.02235174447,1729114250.4759996,1729114250.2156737,2000
-1372.7994409560492,-187500.02235174447,3115.788473580894,-187500.02235174447,-187500.02235174447,-187500.02235174447,-187500.02235174447,-187500.02235174447,1729114250.4760067,1729114250.2156737,2000
-1529.9545562213132,-187500.02235174447,3115.699066603073,-187500.02235174447,-187500.02235174447,-187500.02235174447,-187500.02235174447,-187500.02235174447,1729114250.4760137,1729114250.2156737,2000
-1477.0479770956013,-187500.02235174447,3098.376464650209,-187500.02235174447,-187500.02235174447,-187500.02235174447,-187500.02235174447,-187500.02235174447,1729114250.4760213,1729114250.2156737,2000
-1313.5449664050302,-187500.02235174447,3094.174336692612,-187500.02235174447,-187500.02235174447,-187500.02235174447,-187500.02235174447,-187500.02235174447,1729114250.4760284,1729114250.2156737,2000
-1349.285405789066,-187500.02235174447,3107.920659532626,-187500.02235174447,-187500.02235174447,-187500.02235174447,-187500.02235174447,-187500.02235174447,1729114250.4760354,1729114250.2156737,2000
-1514.4647973137853,-187500.02235174447,3112.793339823883,-187500.02235174447,-187500.02235174447,-187500.02235174447,-187500.02235174447,-187500.02235174447,1729114250.4760425,1729114250.2156737,2000
-1507.9380879328355,-187500.02235174447,3095.5154413599303,-187500.02235174447,-187500.02235174447,-187500.02235174447,-187500.02235174447,-187500.02235174447,1729114250.4760492,1729114250.2156737,2000
-1333.438018970253,-187500.02235174447,3087.5582203338413,-187500.02235174447,-187500.02235174447,-187500.02235174447,-187500.02235174447,-187500.02235174447,1729114250.476056,1729114250.2156737,2000
-1334.779123637572,-187500.02235174447,3095.224868682011,-187500.02235174447,-187500.02235174447,-187500.02235174447,-187500.02235174447,-187500.02235174447,1729114250.4760628,1729114250.2156737,2000
-1504.115939630978,-187500.02235174447,3106.1325199762014,-187500.02235174447,-187500.02235174447,-187500.02235174447,-187500.02235174447,-187500.02235174447,1729114250.4760697,1729114250.2156737,2000
-1544.1926174393436,-187500.02235174447,3085.077176699302,-187500.02235174447,-187500.02235174447,-187500.02235174447,-187500.02235174447,-187500.02235174447,1729114250.4760773,1729114250.2156737,2000
-1368.418499042809,-187500.02235174447,3072.426089337598,-187500.02235174447,-187500.02235174447,-187500.02235174447,-187500.02235174447,-187500.02235174447,1729114250.4760842,1729114250.2156737,2000
-1297.9210970307706,-187500.02235174447,3094.08492971479,-187500.02235174447,-187500.02235174447,-187500.02235174447,-187500.02235174447,-187500.02235174447,1729114250.476091,1729114250.2156737,2000
-1458.8760088534366,-187500.02235174447,3107.943011277081,-187500.02235174447,-187500.02235174447,-187500.02235174447,-187500.02235174447,-187500.02235174447,1729114250.4760983,1729114250.2156737,2000
-1553.6474053439383,-187500.02235174447,3108.7029705885616,-187500.02235174447,-187500.02235174447,-187500.02235174447,-187500.02235174447,-187500.02235174447,1729114250.4761095,1729114250.2156737,2000
-1385.8305079734932,-187500.02235174447,3100.9022117736595,-187500.02235174447,-187500.02235174447,-187500.02235174447,-187500.02235174447,-187500.02235174447,1729114250.4761183,1729114250.2156737,2000
-1304.3136959449882,-187500.02235174447,3100.3881216511872,-187500.02235174447,-187500.02235174447,-187500.02235174447,-187500.02235174447,-187500.02235174447,1729114250.4761276,1729114250.2156737,2000
-1440.5475784000848,-187500.02235174447,3109.3735229222207,-187500.02235174447,-187500.02235174447,-187500.02235174447,-187500.02235174447,-187500.02235174447,1729114250.4761376,1729114250.2156737,2000
-1546.9418820073463,-187500.02235174447,3095.873069271215,-187500.02235174447,-187500.02235174447,-187500.02235174447,-187500.02235174447,-187500.02235174447,1729114250.476146,1729114250.2156737,2000
-1413.770188542627,-187500.02235174447,3098.2647059279334,-187500.02235174447,-187500.02235174447,-187500.02235174447,-187500.02235174447,-187500.02235174447,1729114250.4761555,1729114250.2156737,2000
-1307.2417744686336,-187500.02235174447,3082.506726086942,-187500.02235174447,-187500.02235174447,-187500.02235174447,-187500.02235174447,-187500.02235174447,1729114250.4761655,1729114250.2156737,2000
-1403.0860546929905,-187500.02235174447,3108.3453426772767,-187500.02235174447,-187500.02235174447,-187500.02235174447,-187500.02235174447,-187500.02235174447,1729114250.4761744,1729114250.2156737,2000
-1531.6085853110058,-187500.02235174447,3121.890499817193,-187500.02235174447,-187500.02235174447,-187500.02235174447,-187500.02235174447,-187500.02235174447,1729114250.4761827,1729114250.2156737,2000
-1449.085944782012,-187500.02235174447,3099.784624550894,-187500.02235174447,-187500.02235174447,-187500.02235174447,-187500.02235174447,-187500.02235174447,1729114250.4761896,1729114250.2156737,2000
-1299.843347053927,-187500.02235174447,3096.856546027249,-187500.02235174447,-187500.02235174447,-187500.02235174447,-187500.02235174447,-187500.02235174447,1729114250.4761963,1729114250.2156737,2000
-1370.5642665105186,-187500.02235174447,3113.66505785764,-187500.02235174447,-187500.02235174447,-187500.02235174447,-187500.02235174447,-187500.02235174447,1729114250.4762044,1729114250.2156737,2000
-1525.1042276745115,-187500.02235174447,3116.90606080366,-187500.02235174447,-187500.02235174447,-187500.02235174447,-187500.02235174447,-187500.02235174447,1729114250.4762113,1729114250.2156737,2000
-1485.541639988618,-187500.02235174447,3097.527098360908,-187500.02235174447,-187500.02235174447,-187500.02235174447,-187500.02235174447,-187500.02235174447,1729114250.4762204,1729114250.2156737,2000
-1321.9492223202255,-187500.02235174447,3089.435766868087,-187500.02235174447,-187500.02235174447,-187500.02235174447,-187500.02235174447,-187500.02235174447,1729114250.9546976,1729114250.2156737,2000
-1349.911254633815,-187500.02235174447,3105.529022875908,-187500.02235174447,-187500.02235174447,-187500.02235174447,-187500.02235174447,-187500.02235174447,1729114250.9547431,1729114250.2156737,2000
-1518.8457392270254,-187500.02235174447,3109.66409560014,-187500.02235174447,-187500.02235174447,-187500.02235174447,-187500.02235174447,-187500.02235174447,1729114250.9547594,1729114250.2156737,2000
-1526.1100561750004,-187500.02235174447,3081.590304564274,-187500.02235174447,-187500.02235174447,-187500.02235174447,-187500.02235174447,-187500.02235174447,1729114250.95479,1729114250.2156737,2000
-1347.8548941439265,-187500.02235174447,3063.373632833199,-187500.02235174447,-187500.02235174447,-187500.02235174447,-187500.02235174447,-187500.02235174447,1729114250.954806,1729114250.2156737,2000
-1322.195091509234,-187500.02235174447,3101.9303920186035,-187500.02235174447,-187500.02235174447,-187500.02235174447,-187500.02235174447,-187500.02235174447,1729114250.9548311,1729114250.2156737,2000
-1529.9545562213132,-187500.02235174447,3085.948894733059,-187500.02235174447,-187500.02235174447,-187500.02235174447,-187500.02235174447,-187500.02235174447,1729114250.9548569,1729114250.2156737,2000
-1598.8426326325696,-187500.02235174447,3060.5796647762854,-187500.02235174447,-187500.02235174447,-187500.02235174447,-187500.02235174447,-187500.02235174447,1729114250.954941,1729114250.2156737,2000
-1360.0812983609794,-187500.02235174447,3119.320049204832,-187500.02235174447,-187500.02235174447,-187500.02235174447,-187500.02235174447,-187500.02235174447,1729114250.9549518,1729114250.2156737,2000
-1260.2137041346675,-187500.02235174447,3111.0052002674583,-187500.02235174447,-187500.02235174447,-187500.02235174447,-187500.02235174447,-187500.02235174447,1729114250.9549725,1729114250.2156737,2000
-1387.708054507739,-187500.02235174447,3106.8701275432263,-187500.02235174447,-187500.02235174447,-187500.02235174447,-187500.02235174447,-187500.02235174447,1729114250.9549973,1729114250.2156737,2000
-1426.0636479930458,-187500.02235174447,3188.63280876074,-187500.02235174447,-187500.02235174447,-187500.02235174447,-187500.02235174447,-187500.02235174447,1729114250.9550233,1729114250.2156737,2000
-1372.2182956002111,-187500.02235174447,3175.422927787653,-187500.02235174447,-187500.02235174447,-187500.02235174447,-187500.02235174447,-187500.02235174447,1729114250.95503,1729114250.2156737,2000
-1260.1913523902122,-187500.02235174447,3241.204111719622,-187500.02235174447,-187500.02235174447,-187500.02235174447,-187500.02235174447,-187500.02235174447,1729114250.9550364,1729114250.2156737,2000
-1377.448603802753,-187500.02235174447,3115.073217758324,-187500.02235174447,-187500.02235174447,-187500.02235174447,-187500.02235174447,-187500.02235174447,1729114250.9550655,1729114250.2156737,2000
-1439.7652673441492,-187500.02235174447,3198.847555976815,-187500.02235174447,-187500.02235174447,-187500.02235174447,-187500.02235174447,-187500.02235174447,1729114250.9550767,1729114250.2156737,2000
-1282.520745101064,-187500.02235174447,3298.625743225305,-187500.02235174447,-187500.02235174447,-187500.02235174447,-187500.02235174447,-187500.02235174447,1729114250.9550831,1729114250.2156737,2000
-1205.0272470745144,-187500.02235174447,3233.291594182443,-187500.02235174447,-187500.02235174447,-187500.02235174447,-187500.02235174447,-187500.02235174447,1729114250.9550898,1729114250.2156737,2000
-1394.6147435444288,-187500.02235174447,3160.938997380614,-187500.02235174447,-187500.02235174447,-187500.02235174447,-187500.02235174447,-187500.02235174447,1729114250.9550965,1729114250.2156737,2000
-1537.73296329176,-187500.02235174447,3100.656342584651,-187500.02235174447,-187500.02235174447,-187500.02235174447,-187500.02235174447,-187500.02235174447,1729114250.9551027,1729114250.2156737,2000
-1355.2756733030883,-187500.02235174447,3106.981886265503,-187500.02235174447,-187500.02235174447,-187500.02235174447,-187500.02235174447,-187500.02235174447,1729114250.9551096,1729114250.2156737,2000
-1131.8029322389284,-187500.02235174447,3223.7026958111164,-187500.02235174447,-187500.02235174447,-187500.02235174447,-187500.02235174447,-187500.02235174447,1729114250.955116,1729114250.2156737,2000
-1289.6062480933963,-187500.02235174447,3229.8717772807813,-187500.02235174447,-187500.02235174447,-187500.02235174447,-187500.02235174447,-187500.02235174447,1729114250.9551225,1729114250.2156737,2000
-1513.7942449801262,-187500.02235174447,3109.66409560014,-187500.02235174447,-187500.02235174447,-187500.02235174447,-187500.02235174447,-187500.02235174447,1729114250.955129,1729114250.2156737,2000
-1514.5318525471512,-187500.02235174447,3057.562179274819,-187500.02235174447,-187500.02235174447,-187500.02235174447,-187500.02235174447,-187500.02235174447,1729114250.955135,1729114250.2156737,2000
-1342.1999027967338,-187500.02235174447,3108.144176977179,-187500.02235174447,-187500.02235174447,-187500.02235174447,-187500.02235174447,-187500.02235174447,1729114250.9551425,1729114250.2156737,2000
-1289.2709719265667,-187500.02235174447,3179.4015383006977,-187500.02235174447,-187500.02235174447,-187500.02235174447,-187500.02235174447,-187500.02235174447,1729114250.955149,1729114250.2156737,2000
-1450.3376424715093,-187500.02235174447,3215.5443090849294,-187500.02235174447,-187500.02235174447,-187500.02235174447,-187500.02235174447,-187500.02235174447,1729114250.9551556,1729114250.2156737,2000
-1465.0450903231017,-187500.02235174447,3149.584311197318,-187500.02235174447,-187500.02235174447,-187500.02235174447,-187500.02235174447,-187500.02235174447,1729114250.955162,1729114250.2156737,2000
-1264.1923146477122,-187500.02235174447,3128.037229542402,-187500.02235174447,-187500.02235174447,-187500.02235174447,-187500.02235174447,-187500.02235174447,1729114250.9551685,1729114250.2156737,2000
-1238.286642824011,-187500.02235174447,3128.126636520223,-187500.02235174447,-187500.02235174447,-187500.02235174447,-187500.02235174447,-187500.02235174447,1729114250.955175,1729114250.2156737,2000
-1363.8587431739263,-187500.02235174447,3209.554041570907,-187500.02235174447,-187500.02235174447,-187500.02235174447,-187500.02235174447,-187500.02235174447,1729114250.9551814,1729114250.2156737,2000
-1460.507686198674,-187500.02235174447,3150.903064120181,-187500.02235174447,-187500.02235174447,-187500.02235174447,-187500.02235174447,-187500.02235174447,1729114250.955188,1729114250.2156737,2000
-1379.907295692837,-187500.02235174447,3039.211397077012,-187500.02235174447,-187500.02235174447,-187500.02235174447,-187500.02235174447,-187500.02235174447,1729114250.9551945,1729114250.2156737,2000
-1272.2165909071673,-187500.02235174447,3096.074234971313,-187500.02235174447,-187500.02235174447,-187500.02235174447,-187500.02235174447,-187500.02235174447,1729114250.955201,1729114250.2156737,2000
-1426.7342003267051,-187500.02235174447,3143.459933216564,-187500.02235174447,-187500.02235174447,-187500.02235174447,-187500.02235174447,-187500.02235174447,1729114250.955207,1729114250.2156737,2000
-1541.6892220603493,-187500.02235174447,3175.5123347654744,-187500.02235174447,-187500.02235174447,-187500.02235174447,-187500.02235174447,-187500.02235174447,1729114250.955214,1729114250.2156737,2000
-1400.9179354808257,-187500.02235174447,3181.0555673903905,-187500.02235174447,-187500.02235174447,-187500.02235174447,-187500.02235174447,-187500.02235174447,1729114250.9552207,1729114250.2156737,2000
-1266.6063030488854,-187500.02235174447,3216.2819166519544,-187500.02235174447,-187500.02235174447,-187500.02235174447,-187500.02235174447,-187500.02235174447,1729114250.955227,1729114250.2156737,2000
-1383.4612230612306,-187500.02235174447,3170.237323074022,-187500.02235174447,-187500.02235174447,-187500.02235174447,-187500.02235174447,-187500.02235174447,1729114250.9552336,1729114250.2156737,2000
-1509.7709309781708,-187500.02235174447,3102.176261207612,-187500.02235174447,-187500.02235174447,-187500.02235174447,-187500.02235174447,-187500.02235174447,1729114250.95524,1729114250.2156737,2000
-1270.160230417279,-187500.02235174447,3253.654033381228,-187500.02235174447,-187500.02235174447,-187500.02235174447,-187500.02235174447,-187500.02235174447,1729114250.9552464,1729114250.2156737,2000
-1210.1905000436902,-187500.02235174447,3127.590194653296,-187500.02235174447,-187500.02235174447,-187500.02235174447,-187500.02235174447,-187500.02235174447,1729114250.955253,1729114250.2156737,2000
-1398.8168715020263,-187500.02235174447,3132.909909833659,-187500.02235174447,-187500.02235174447,-187500.02235174447,-187500.02235174447,-187500.02235174447,1729114250.9552631,1729114250.2156737,2000
-1579.3519114675416,-187500.02235174447,3061.361975832221,-187500.02235174447,-187500.02235174447,-187500.02235174447,-187500.02235174447,-187500.02235174447,1729114250.9552698,1729114250.2156737,2000
-1506.6640384988832,-187500.02235174447,3054.3658798177103,-187500.02235174447,-187500.02235174447,-187500.02235174447,-187500.02235174447,-187500.02235174447,1729114250.9552765,1729114250.2156737,2000
-1255.3410238434103,-187500.02235174447,3139.168398281145,-187500.02235174447,-187500.02235174447,-187500.02235174447,-187500.02235174447,-187500.02235174447,1729114250.9552836,1729114250.2156737,2000
-1367.8150019425157,-187500.02235174447,3176.6075702437843,-187500.02235174447,-187500.02235174447,-187500.02235174447,-187500.02235174447,-187500.02235174447,1729114250.95529,1729114250.2156737,2000
-1593.9699523413126,-187500.02235174447,3067.9333887020816,-187500.02235174447,-187500.02235174447,-187500.02235174447,-187500.02235174447,-187500.02235174447,1729114250.9552965,1729114250.2156737,2000
-1556.9778152677793,-187500.02235174447,3029.2872225388555,-187500.02235174447,-187500.02235174447,-187500.02235174447,-187500.02235174447,-187500.02235174447,1729114250.9553027,1729114250.2156737,2000
-1274.6082275638853,-187500.02235174447,3230.8999575257253,-187500.02235174447,-187500.02235174447,-187500.02235174447,-187500.02235174447,-187500.02235174447,1729114250.9553092,1729114250.2156737,2000
-1258.5596750449747,-187500.02235174447,3273.614141179817,-187500.02235174447,-187500.02235174447,-187500.02235174447,-187500.02235174447,-187500.02235174447,1729114250.955316,1729114250.2156737,2000
-1491.2636865691766,-187500.02235174447,3150.6795466756284,-187500.02235174447,-187500.02235174447,-187500.02235174447,-187500.02235174447,-187500.02235174447,1729114250.9553225,1729114250.2156737,2000
-1565.3820711829749,-187500.02235174447,3050.990766404959,-187500.02235174447,-187500.02235174447,-187500.02235174447,-187500.02235174447,-187500.02235174447,1729114250.9553287,1729114250.2156737,2000
-1333.1250945478791,-187500.02235174447,3178.172192355656,-187500.02235174447,-187500.02235174447,-187500.02235174447,-187500.02235174447,-187500.02235174447,1729114250.9553351,1729114250.2156737,2000
-1216.4713402356315,-187500.02235174447,3254.391640948253,-187500.02235174447,-187500.02235174447,-187500.02235174447,-187500.02235174447,-187500.02235174447,1729114250.9553416,1729114250.2156737,2000
-1458.3619187309646,-187500.02235174447,3103.6738280861173,-187500.02235174447,-187500.02235174447,-187500.02235174447,-187500.02235174447,-187500.02235174447,1729114250.955348,1729114250.2156737,2000
-1584.537516181173,-187500.02235174447,3014.020981075881,-187500.02235174447,-187500.02235174447,-187500.02235174447,-187500.02235174447,-187500.02235174447,1729114250.9553547,1729114250.2156737,2000
-1390.3679120979205,-187500.02235174447,3092.56501109183,-187500.02235174447,-187500.02235174447,-187500.02235174447,-187500.02235174447,-187500.02235174447,1729114250.9553611,1729114250.2156737,2000
-1278.4974310991088,-187500.02235174447,3134.966270323547,-187500.02235174447,-187500.02235174447,-187500.02235174447,-187500.02235174447,-187500.02235174447,1729114250.9553676,1729114250.2156737,2000
-1440.2123022332553,-187500.02235174447,3129.5794999098184,-187500.02235174447,-187500.02235174447,-187500.02235174447,-187500.02235174447,-187500.02235174447,1729114250.955374,1729114250.2156737,2000
-1574.0321962871787,-187500.02235174447,3080.137441174679,-187500.02235174447,-187500.02235174447,-187500.02235174447,-187500.02235174447,-187500.02235174447,1729114250.9553804,1729114250.2156737,2000
-1419.5369386120965,-187500.02235174447,3115.363790436243,-187500.02235174447,-187500.02235174447,-187500.02235174447,-187500.02235174447,-187500.02235174447,1729114250.9553869,1729114250.2156737,2000
-1284.0630154684802,-187500.02235174447,3147.237378029511,-187500.02235174447,-187500.02235174447,-187500.02235174447,-187500.02235174447,-187500.02235174447,1729114250.9553933,1729114250.2156737,2000
-1430.6234038619286,-187500.02235174447,3086.3512261332544,-187500.02235174447,-187500.02235174447,-187500.02235174447,-187500.02235174447,-187500.02235174447,1729114250.9553995,1729114250.2156737,2000
-1543.7902860391482,-187500.02235174447,3088.072310456313,-187500.02235174447,-187500.02235174447,-187500.02235174447,-187500.02235174447,-187500.02235174447,1729114250.9554064,1729114250.2156737,2000
-1380.2425718596664,-187500.02235174447,3183.402500558198,-187500.02235174447,-187500.02235174447,-187500.02235174447,-187500.02235174447,-187500.02235174447,1729114250.9554129,1729114250.2156737,2000
-1252.5694075309525,-187500.02235174447,3065.787621234372,-187500.02235174447,-187500.02235174447,-187500.02235174447,-187500.02235174447,-187500.02235174447,1729114250.9554193,1729114250.2156737,2000
-1405.9470779832695,-187500.02235174447,3101.3268949183102,-187500.02235174447,-187500.02235174447,-187500.02235174447,-187500.02235174447,-187500.02235174447,1729114250.9554403,1729114250.2156737,2000
-1590.2595627617316,-187500.02235174447,3118.1354067487014,-187500.02235174447,-187500.02235174447,-187500.02235174447,-187500.02235174447,-187500.02235174447,1729114250.9554467,1729114250.2156737,2000
-1470.6777299258388,-187500.02235174447,3216.8630620077925,-187500.02235174447,-187500.02235174447,-187500.02235174447,-187500.02235174447,-187500.02235174447,1729114250.9554534,1729114250.2156737,2000
-1267.768593760561,-187500.02235174447,3211.9009747387145,-187500.02235174447,-187500.02235174447,-187500.02235174447,-187500.02235174447,-187500.02235174447,1729114250.95546,1729114250.2156737,2000
-1298.7034080867063,-187500.02235174447,3199.786329243938,-187500.02235174447,-187500.02235174447,-187500.02235174447,-187500.02235174447,-187500.02235174447,1729114250.9554665,1729114250.2156737,2000
-1525.8865387304472,-187500.02235174447,3113.5085956464527,-187500.02235174447,-187500.02235174447,-187500.02235174447,-187500.02235174447,-187500.02235174447,1729114250.9554727,1729114250.2156737,2000
-1539.0070127257125,-187500.02235174447,3067.821629979805,-187500.02235174447,-187500.02235174447,-187500.02235174447,-187500.02235174447,-187500.02235174447,1729114250.9554794,1729114250.2156737,2000
-1306.034780268047,-187500.02235174447,3203.96610545708,-187500.02235174447,-187500.02235174447,-187500.02235174447,-187500.02235174447,-187500.02235174447,1729114250.9554858,1729114250.2156737,2000
-1292.8696027838712,-187500.02235174447,3159.374375268743,-187500.02235174447,-187500.02235174447,-187500.02235174447,-187500.02235174447,-187500.02235174447,1729114250.9554925,1729114250.2156737,2000
-1482.1665265758666,-187500.02235174447,3091.08979595778,-187500.02235174447,-187500.02235174447,-187500.02235174447,-187500.02235174447,-187500.02235174447,1729114250.9554987,1729114250.2156737,2000
-1557.9389402793577,-187500.02235174447,3039.993708132948,-187500.02235174447,-187500.02235174447,-187500.02235174447,-187500.02235174447,-187500.02235174447,1729114250.9555051,1729114250.2156737,2000
-1344.412725497809,-187500.02235174447,3135.4803604460194,-187500.02235174447,-187500.02235174447,-187500.02235174447,-187500.02235174447,-187500.02235174447,1729114250.9555116,1729114250.2156737,2000
-1316.517748417586,-187500.02235174447,3156.1557240671787,-187500.02235174447,-187500.02235174447,-187500.02235174447,-187500.02235174447,-187500.02235174447,1729114250.955518,1729114250.2156737,2000
-1454.5621221735623,-187500.02235174447,3143.728154150028,-187500.02235174447,-187500.02235174447,-187500.02235174447,-187500.02235174447,-187500.02235174447,1729114250.9555244,1729114250.2156737,2000
-1582.928190580391,-187500.02235174447,3052.17540886109,-187500.02235174447,-187500.02235174447,-187500.02235174447,-187500.02235174447,-187500.02235174447,1729114250.955531,1729114250.2156737,2000
-1396.6264005454066,-187500.02235174447,3147.1926745406004,-187500.02235174447,-187500.02235174447,-187500.02235174447,-187500.02235174447,-187500.02235174447,1729114250.9555373,1729114250.2156737,2000
-1301.5197278880748,-187500.02235174447,3120.7729125944275,-187500.02235174447,-187500.02235174447,-187500.02235174447,-187500.02235174447,-187500.02235174447,1729114250.9555435,1729114250.2156737,2000
-1365.2445513301554,-187500.02235174447,3137.559072680363,-187500.02235174447,-187500.02235174447,-187500.02235174447,-187500.02235174447,-187500.02235174447,1729114250.95555,1729114250.2156737,2000
-1595.4228157309076,-187500.02235174447,2994.373797699666,-187500.02235174447,-187500.02235174447,-187500.02235174447,-187500.02235174447,-187500.02235174447,1729114250.9555566,1729114250.2156737,2000
-1471.348282259498,-187500.02235174447,3100.410473395643,-187500.02235174447,-187500.02235174447,-187500.02235174447,-187500.02235174447,-187500.02235174447,1729114250.9555633,1729114250.2156737,2000
-1276.1504979313015,-187500.02235174447,3216.4383788631417,-187500.02235174447,-187500.02235174447,-187500.02235174447,-187500.02235174447,-187500.02235174447,1729114250.9555695,1729114250.2156737,2000
-1363.0764321179906,-187500.02235174447,3167.7115759505723,-187500.02235174447,-187500.02235174447,-187500.02235174447,-187500.02235174447,-187500.02235174447,1729114250.9555764,1729114250.2156737,2000
-1553.960329766313,-187500.02235174447,3081.6126563087296,-187500.02235174447,-187500.02235174447,-187500.02235174447,-187500.02235174447,-187500.02235174447,1729114250.9555829,1729114250.2156737,2000
-1473.002311349191,-187500.02235174447,3147.7738198964385,-187500.02235174447,-187500.02235174447,-187500.02235174447,-187500.02235174447,-187500.02235174447,1729114250.9555898,1729114250.2156737,2000
-1252.457648808676,-187500.02235174447,3213.465596850586,-187500.02235174447,-187500.02235174447,-187500.02235174447,-187500.02235174447,-187500.02235174447,1729114250.9555964,1729114250.2156737,2000
-1371.771260711105,-187500.02235174447,3160.335500280321,-187500.02235174447,-187500.02235174447,-187500.02235174447,-187500.02235174447,-187500.02235174447,1729114250.955603,1729114250.2156737,2000
-1633.309022582653,-187500.02235174447,3014.445664220532,-187500.02235174447,-187500.02235174447,-187500.02235174447,-187500.02235174447,-187500.02235174447,1729114250.955609,1729114250.2156737,2000
-1524.7913032521371,-187500.02235174447,3076.4494033395536,-187500.02235174447,-187500.02235174447,-187500.02235174447,-187500.02235174447,-187500.02235174447,1729114250.9556155,1729114250.2156737,2000
-1279.9279427442484,-187500.02235174447,3221.914556254692,-187500.02235174447,-187500.02235174447,-187500.02235174447,-187500.02235174447,-187500.02235174447,1729114250.955622,1729114250.2156737,2000
-1360.3048158055326,-187500.02235174447,3129.6465551431843,-187500.02235174447,-187500.02235174447,-187500.02235174447,-187500.02235174447,-187500.02235174447,1729114250.9556284,1729114250.2156737,2000
-1508.7874542221373,-187500.02235174447,3078.684577785084,-187500.02235174447,-187500.02235174447,-187500.02235174447,-187500.02235174447,-187500.02235174447,1729114250.955635,1729114250.2156737,2000
-1528.8369689985475,-187500.02235174447,3077.410528351132,-187500.02235174447,-187500.02235174447,-187500.02235174447,-187500.02235174447,-187500.02235174447,1729114250.9556415,1729114250.2156737,2000
-1402.0131709591356,-187500.02235174447,3071.733185259484,-187500.02235174447,-187500.02235174447,-187500.02235174447,-187500.02235174447,-187500.02235174447,1729114250.955648,1729114250.2156737,2000
-1331.1134375469014,-187500.02235174447,3232.755152315516,-187500.02235174447,-187500.02235174447,-187500.02235174447,-187500.02235174447,-187500.02235174447,1729114250.9556544,1729114250.2156737,2000
-1507.893384443925,-187500.02235174447,3130.451217943576,-187500.02235174447,-187500.02235174447,-187500.02235174447,-187500.02235174447,-187500.02235174447,1729114250.9556608,1729114250.2156737,2000
-1553.1109634770112,-187500.02235174447,3092.855583769749,-187500.02235174447,-187500.02235174447,-187500.02235174447,-187500.02235174447,-187500.02235174447,1729114250.9556673,1729114250.2156737,2000
-1309.2981349585218,-187500.02235174447,3209.486986337541,-187500.02235174447,-187500.02235174447,-187500.02235174447,-187500.02235174447,-187500.02235174447,1729114250.9556737,1729114250.2156737,2000
-1264.259369881078,-187500.02235174447,3188.945733183114,-187500.02235174447,-187500.02235174447,-187500.02235174447,-187500.02235174447,-187500.02235174447,1729114250.95568,1729114250.2156737,2000
-1493.8788406704475,-187500.02235174447,3103.2491449414665,-187500.02235174447,-187500.02235174447,-187500.02235174447,-187500.02235174447,-187500.02235174447,1729114250.9556866,1729114250.2156737,2000
-1576.8038125996368,-187500.02235174447,3072.493144570964,-187500.02235174447,-187500.02235174447,-187500.02235174447,-187500.02235174447,-187500.02235174447,1729114250.9556932,1729114250.2156737,2000
-1416.89943276637,-187500.02235174447,3081.2773801419,-187500.02235174447,-187500.02235174447,-187500.02235174447,-187500.02235174447,-187500.02235174447,1729114250.9556997,1729114250.2156737,2000
-1276.485774098131,-187500.02235174447,3158.6144159572623,-187500.02235174447,-187500.02235174447,-187500.02235174447,-187500.02235174447,-187500.02235174447,1729114250.955706,1729114250.2156737,2000
-1409.1433774403786,-187500.02235174447,3173.1877533421225,-187500.02235174447,-187500.02235174447,-187500.02235174447,-187500.02235174447,-187500.02235174447,1729114250.955713,1729114250.2156737,2000
-1610.756112427248,-187500.02235174447,3065.184124134079,-187500.02235174447,-187500.02235174447,-187500.02235174447,-187500.02235174447,-187500.02235174447,1729114250.9557197,1729114250.2156737,2000
-1437.5300928986185,-187500.02235174447,3065.3629380897214,-187500.02235174447,-187500.02235174447,-187500.02235174447,-187500.02235174447,-187500.02235174447,1729114250.955726,1729114250.2156737,2000
-1293.3613411618878,-187500.02235174447,3178.9992069005025,-187500.02235174447,-187500.02235174447,-187500.02235174447,-187500.02235174447,-187500.02235174447,1729114250.955734,1729114250.2156737,2000
-1430.71281083975,-187500.02235174447,3129.780665609916,-187500.02235174447,-187500.02235174447,-187500.02235174447,-187500.02235174447,-187500.02235174447,1729114250.9557407,1729114250.2156737,2000
-1569.8524200740362,-187500.02235174447,3114.6485346136733,-187500.02235174447,-187500.02235174447,-187500.02235174447,-187500.02235174447,-187500.02235174447,1729114250.955747,1729114250.2156737,2000
-1477.964398618269,-187500.02235174447,3112.5474706348746,-187500.02235174447,-187500.02235174447,-187500.02235174447,-187500.02235174447,-187500.02235174447,1729114250.9557536,1729114250.2156737,2000
-1317.5012251736196,-187500.02235174447,3153.8311426438268,-187500.02235174447,-187500.02235174447,-187500.02235174447,-187500.02235174447,-187500.02235174447,1729114250.95576,1729114250.2156737,2000
-1371.8830194333816,-187500.02235174447,3110.7146275895398,-187500.02235174447,-187500.02235174447,-187500.02235174447,-187500.02235174447,-187500.02235174447,1729114250.9557664,1729114250.2156737,2000
-1588.8961063499578,-187500.02235174447,3080.584476063785,-187500.02235174447,-187500.02235174447,-187500.02235174447,-187500.02235174447,-187500.02235174447,1729114250.9557729,1729114250.2156737,2000
-1511.0002769232128,-187500.02235174447,3134.273366245433,-187500.02235174447,-187500.02235174447,-187500.02235174447,-187500.02235174447,-187500.02235174447,1729114251.435444,1729114250.2156737,2000
-1306.839443068438,-187500.02235174447,3126.472607430531,-187500.02235174447,-187500.02235174447,-187500.02235174447,-187500.02235174447,-187500.02235174447,1729114251.4354908,1729114250.2156737,2000
-1374.7663944681162,-187500.02235174447,3096.7671390494274,-187500.02235174447,-187500.02235174447,-187500.02235174447,-187500.02235174447,-187500.02235174447,1729114251.4355464,1729114250.2156737,2000
-1525.0818759300562,-187500.02235174447,3042.5865104897634,-187500.02235174447,-187500.02235174447,-187500.02235174447,-187500.02235174447,-187500.02235174447,1729114251.4356008,1729114250.2156737,2000
-1508.6533437554056,-187500.02235174447,3113.5085956464527,-187500.02235174447,-187500.02235174447,-187500.02235174447,-187500.02235174447,-187500.02235174447,1729114251.4356244,1729114250.2156737,2000
-1305.453634912209,-187500.02235174447,3204.524899068463,-187500.02235174447,-187500.02235174447,-187500.02235174447,-187500.02235174447,-187500.02235174447,1729114251.4356792,1729114250.2156737,2000
-1304.716027345184,-187500.02235174447,3132.8428546002933,-187500.02235174447,-187500.02235174447,-187500.02235174447,-187500.02235174447,-187500.02235174447,1729114251.4357395,1729114250.2156737,2000
-1495.108186615489,-187500.02235174447,3133.1334272782124,-187500.02235174447,-187500.02235174447,-187500.02235174447,-187500.02235174447,-187500.02235174447,1729114251.435746,1729114250.2156737,2000
-1596.2721820202091,-187500.02235174447,3102.086854229791,-187500.02235174447,-187500.02235174447,-187500.02235174447,-187500.02235174447,-187500.02235174447,1729114251.4357526,1729114250.2156737,2000
-1425.7283718262163,-187500.02235174447,3146.365659995754,-187500.02235174447,-187500.02235174447,-187500.02235174447,-187500.02235174447,-187500.02235174447,1729114251.435759,1729114250.2156737,2000
-1317.4341699402537,-187500.02235174447,3128.394857453687,-187500.02235174447,-187500.02235174447,-187500.02235174447,-187500.02235174447,-187500.02235174447,1729114251.4357655,1729114250.2156737,2000
-1418.2405374336884,-187500.02235174447,3177.05460513289,-187500.02235174447,-187500.02235174447,-187500.02235174447,-187500.02235174447,-187500.02235174447,1729114251.4357722,1729114250.2156737,2000
-1529.216948654288,-187500.02235174447,3115.073217758324,-187500.02235174447,-187500.02235174447,-187500.02235174447,-187500.02235174447,-187500.02235174447,1729114251.435779,1729114250.2156737,2000
-1426.3989241598756,-187500.02235174447,3082.9314092315926,-187500.02235174447,-187500.02235174447,-187500.02235174447,-187500.02235174447,-187500.02235174447,1729114251.4357858,1729114250.2156737,2000
-1335.6731934157842,-187500.02235174447,3120.817616083338,-187500.02235174447,-187500.02235174447,-187500.02235174447,-187500.02235174447,-187500.02235174447,1729114251.4357922,1729114250.2156737,2000
-1470.0295293366348,-187500.02235174447,3085.6806737995958,-187500.02235174447,-187500.02235174447,-187500.02235174447,-187500.02235174447,-187500.02235174447,1729114251.4358032,1729114250.2156737,2000
-1572.1322980084776,-187500.02235174447,3087.8040895228496,-187500.02235174447,-187500.02235174447,-187500.02235174447,-187500.02235174447,-187500.02235174447,1729114251.43581,1729114250.2156737,2000
-1441.0393167781017,-187500.02235174447,3100.9245635181146,-187500.02235174447,-187500.02235174447,-187500.02235174447,-187500.02235174447,-187500.02235174447,1729114251.4358163,1729114250.2156737,2000
-1309.8122250809938,-187500.02235174447,3106.8701275432263,-187500.02235174447,-187500.02235174447,-187500.02235174447,-187500.02235174447,-187500.02235174447,1729114251.4358227,1729114250.2156737,2000
-1351.3194145344992,-187500.02235174447,3112.726284590517,-187500.02235174447,-187500.02235174447,-187500.02235174447,-187500.02235174447,-187500.02235174447,1729114251.4358292,1729114250.2156737,2000
-1506.7757972211598,-187500.02235174447,3155.86515138926,-187500.02235174447,-187500.02235174447,-187500.02235174447,-187500.02235174447,-187500.02235174447,1729114251.4358356,1729114250.2156737,2000
-1525.215986396788,-187500.02235174447,3153.473514732542,-187500.02235174447,-187500.02235174447,-187500.02235174447,-187500.02235174447,-187500.02235174447,1729114251.435842,1729114250.2156737,2000
-1412.384380386398,-187500.02235174447,3063.4406880665647,-187500.02235174447,-187500.02235174447,-187500.02235174447,-187500.02235174447,-187500.02235174447,1729114251.4358485,1729114250.2156737,2000
-1377.5603625250296,-187500.02235174447,3111.4522351565643,-187500.02235174447,-187500.02235174447,-187500.02235174447,-187500.02235174447,-187500.02235174447,1729114251.4358592,1729114250.2156737,2000
-1514.6659630138831,-187500.02235174447,3071.867295726216,-187500.02235174447,-187500.02235174447,-187500.02235174447,-187500.02235174447,-187500.02235174447,1729114251.435866,1729114250.2156737,2000
-1506.1052448875005,-187500.02235174447,3146.142142551201,-187500.02235174447,-187500.02235174447,-187500.02235174447,-187500.02235174447,-187500.02235174447,1729114251.4358723,1729114250.2156737,2000
-1313.16498674929,-187500.02235174447,3187.425814560153,-187500.02235174447,-187500.02235174447,-187500.02235174447,-187500.02235174447,-187500.02235174447,1729114251.4358788,1729114250.2156737,2000
-1336.746077149639,-187500.02235174447,3099.9187350176257,-187500.02235174447,-187500.02235174447,-187500.02235174447,-187500.02235174447,-187500.02235174447,1729114251.4358852,1729114250.2156737,2000
-1493.9011924149029,-187500.02235174447,3101.2821914293995,-187500.02235174447,-187500.02235174447,-187500.02235174447,-187500.02235174447,-187500.02235174447,1729114251.435892,1729114250.2156737,2000
-1513.056637413101,-187500.02235174447,3122.493996917486,-187500.02235174447,-187500.02235174447,-187500.02235174447,-187500.02235174447,-187500.02235174447,1729114251.4358983,1729114250.2156737,2000
-1359.254283816133,-187500.02235174447,3140.487151204008,-187500.02235174447,-187500.02235174447,-187500.02235174447,-187500.02235174447,-187500.02235174447,1729114251.4359047,1729114250.2156737,2000
-1339.271824273089,-187500.02235174447,3147.4385437296087,-187500.02235174447,-187500.02235174447,-187500.02235174447,-187500.02235174447,-187500.02235174447,1729114251.4359112,1729114250.2156737,2000
-1491.2413348247212,-187500.02235174447,3107.3171624323327,-187500.02235174447,-187500.02235174447,-187500.02235174447,-187500.02235174447,-187500.02235174447,1729114251.4359176,1729114250.2156737,2000
-1544.9302250063688,-187500.02235174447,3106.0654647428355,-187500.02235174447,-187500.02235174447,-187500.02235174447,-187500.02235174447,-187500.02235174447,1729114251.4359243,1729114250.2156737,2000
-1408.5622320845405,-187500.02235174447,3137.156741280168,-187500.02235174447,-187500.02235174447,-187500.02235174447,-187500.02235174447,-187500.02235174447,1729114251.4359307,1729114250.2156737,2000
-1326.0619433000022,-187500.02235174447,3176.942846410614,-187500.02235174447,-187500.02235174447,-187500.02235174447,-187500.02235174447,-187500.02235174447,1729114251.4359372,1729114250.2156737,2000
-1515.5823845365508,-187500.02235174447,3110.066427000336,-187500.02235174447,-187500.02235174447,-187500.02235174447,-187500.02235174447,-187500.02235174447,1729114251.4359436,1729114250.2156737,2000
-1614.1312258399996,-187500.02235174447,3034.2046063190232,-187500.02235174447,-187500.02235174447,-187500.02235174447,-187500.02235174447,-187500.02235174447,1729114251.4359505,1729114250.2156737,2000
-1425.2589851926548,-187500.02235174447,3084.630141810196,-187500.02235174447,-187500.02235174447,-187500.02235174447,-187500.02235174447,-187500.02235174447,1729114251.4359565,1729114250.2156737,2000
-1294.8142045514828,-187500.02235174447,3154.166418810656,-187500.02235174447,-187500.02235174447,-187500.02235174447,-187500.02235174447,-187500.02235174447,1729114251.435963,1729114250.2156737,2000
-1436.479560909219,-187500.02235174447,3072.582551548785,-187500.02235174447,-187500.02235174447,-187500.02235174447,-187500.02235174447,-187500.02235174447,1729114251.4359694,1729114250.2156737,2000
-1575.2168387433098,-187500.02235174447,3078.37165336271,-187500.02235174447,-187500.02235174447,-187500.02235174447,-187500.02235174447,-187500.02235174447,1729114251.435976,1729114250.2156737,2000
-1480.512497486174,-187500.02235174447,3082.149098175657,-187500.02235174447,-187500.02235174447,-187500.02235174447,-187500.02235174447,-187500.02235174447,1729114251.4359825,1729114250.2156737,2000
-1261.1301256573352,-187500.02235174447,3100.9245635181146,-187500.02235174447,-187500.02235174447,-187500.02235174447,-187500.02235174447,-187500.02235174447,1729114251.435989,1729114250.2156737,2000
-1355.9238738922922,-187500.02235174447,3213.197375917122,-187500.02235174447,-187500.02235174447,-187500.02235174447,-187500.02235174447,-187500.02235174447,1729114251.435995,1729114250.2156737,2000
-1577.7872893556705,-187500.02235174447,3149.964290853058,-187500.02235174447,-187500.02235174447,-187500.02235174447,-187500.02235174447,-187500.02235174447,1729114251.4360015,1729114250.2156737,2000
-1456.5514274300847,-187500.02235174447,3214.0243904619683,-187500.02235174447,-187500.02235174447,-187500.02235174447,-187500.02235174447,-187500.02235174447,1729114251.436008,1729114250.2156737,2000
-1327.000716567125,-187500.02235174447,3138.9225290921368,-187500.02235174447,-187500.02235174447,-187500.02235174447,-187500.02235174447,-187500.02235174447,1729114251.4360144,1729114250.2156737,2000
-1422.4426653912865,-187500.02235174447,3065.586455534274,-187500.02235174447,-187500.02235174447,-187500.02235174447,-187500.02235174447,-187500.02235174447,1729114251.4360209,1729114250.2156737,2000
-1565.0020915272346,-187500.02235174447,3061.1831618765787,-187500.02235174447,-187500.02235174447,-187500.02235174447,-187500.02235174447,-187500.02235174447,1729114251.4360273,1729114250.2156737,2000
-1533.5531870786176,-187500.02235174447,3081.4785458419974,-187500.02235174447,-187500.02235174447,-187500.02235174447,-187500.02235174447,-187500.02235174447,1729114251.436034,1729114250.2156737,2000
-1315.3107542169994,-187500.02235174447,3144.1975407835894,-187500.02235174447,-187500.02235174447,-187500.02235174447,-187500.02235174447,-187500.02235174447,1729114251.4360452,1729114250.2156737,2000
-1338.131885305868,-187500.02235174447,3161.788363669916,-187500.02235174447,-187500.02235174447,-187500.02235174447,-187500.02235174447,-187500.02235174447,1729114251.4360516,1729114250.2156737,2000
-1534.8272365125702,-187500.02235174447,3067.195781135056,-187500.02235174447,-187500.02235174447,-187500.02235174447,-187500.02235174447,-187500.02235174447,1729114251.436058,1729114250.2156737,2000
-1571.1711729968993,-187500.02235174447,3002.152204770113,-187500.02235174447,-187500.02235174447,-187500.02235174447,-187500.02235174447,-187500.02235174447,1729114251.4360652,1729114250.2156737,2000
-1395.3747028559094,-187500.02235174447,3159.106154335279,-187500.02235174447,-187500.02235174447,-187500.02235174447,-187500.02235174447,-187500.02235174447,1729114251.4360716,1729114250.2156737,2000
-1328.5653386789966,-187500.02235174447,3185.9282476816475,-187500.02235174447,-187500.02235174447,-187500.02235174447,-187500.02235174447,-187500.02235174447,1729114251.436078,1729114250.2156737,2000
-1453.3998314618864,-187500.02235174447,3089.636932568185,-187500.02235174447,-187500.02235174447,-187500.02235174447,-187500.02235174447,-187500.02235174447,1729114251.4360857,1729114250.2156737,2000
-1559.794135069148,-187500.02235174447,3047.1686181031014,-187500.02235174447,-187500.02235174447,-187500.02235174447,-187500.02235174447,-187500.02235174447,1729114251.436092,1729114250.2156737,2000
-1459.837133865015,-187500.02235174447,3104.8584705422486,-187500.02235174447,-187500.02235174447,-187500.02235174447,-187500.02235174447,-187500.02235174447,1729114251.4360988,1729114250.2156737,2000
-1311.063922770491,-187500.02235174447,3194.041930918924,-187500.02235174447,-187500.02235174447,-187500.02235174447,-187500.02235174447,-187500.02235174447,1729114251.4361053,1729114250.2156737,2000
-1387.439833574275,-187500.02235174447,3226.83194003486,-187500.02235174447,-187500.02235174447,-187500.02235174447,-187500.02235174447,-187500.02235174447,1729114251.4361117,1729114250.2156737,2000
-1554.6532338444274,-187500.02235174447,3070.6155980367184,-187500.02235174447,-187500.02235174447,-187500.02235174447,-187500.02235174447,-187500.02235174447,1729114251.436118,1729114250.2156737,2000
-1450.5611599160625,-187500.02235174447,3103.003275752458,-187500.02235174447,-187500.02235174447,-187500.02235174447,-187500.02235174447,-187500.02235174447,1729114251.4361243,1729114250.2156737,2000
-1294.3224661734662,-187500.02235174447,3158.7038229350837,-187500.02235174447,-187500.02235174447,-187500.02235174447,-187500.02235174447,-187500.02235174447,1729114251.4361308,1729114250.2156737,2000
-1427.315345682543,-187500.02235174447,3066.0334904233805,-187500.02235174447,-187500.02235174447,-187500.02235174447,-187500.02235174447,-187500.02235174447,1729114251.4361377,1729114250.2156737,2000
-1612.7677694282258,-187500.02235174447,3021.7546846574173,-187500.02235174447,-187500.02235174447,-187500.02235174447,-187500.02235174447,-187500.02235174447,1729114251.436144,1729114250.2156737,2000
-1462.8099158775708,-187500.02235174447,3110.0887787447905,-187500.02235174447,-187500.02235174447,-187500.02235174447,-187500.02235174447,-187500.02235174447,1729114251.4361503,1729114250.2156737,2000
-1293.2048789507007,-187500.02235174447,3198.691093765628,-187500.02235174447,-187500.02235174447,-187500.02235174447,-187500.02235174447,-187500.02235174447,1729114251.436157,1729114250.2156737,2000
-1363.769336196105,-187500.02235174447,3135.592119168296,-187500.02235174447,-187500.02235174447,-187500.02235174447,-187500.02235174447,-187500.02235174447,1729114251.4361637,1729114250.2156737,2000
-1556.150800722933,-187500.02235174447,3106.914831032137,-187500.02235174447,-187500.02235174447,-187500.02235174447,-187500.02235174447,-187500.02235174447,1729114251.43617,1729114250.2156737,2000
-1530.1333701769556,-187500.02235174447,3111.586345623296,-187500.02235174447,-187500.02235174447,-187500.02235174447,-187500.02235174447,-187500.02235174447,1729114251.4361763,1729114250.2156737,2000
-1336.5672631939965,-187500.02235174447,3150.9924710980026,-187500.02235174447,-187500.02235174447,-187500.02235174447,-187500.02235174447,-187500.02235174447,1729114251.436183,1729114250.2156737,2000
-1385.964618440225,-187500.02235174447,3088.698159301062,-187500.02235174447,-187500.02235174447,-187500.02235174447,-187500.02235174447,-187500.02235174447,1729114251.436191,1729114250.2156737,2000
-1568.3325014510754,-187500.02235174447,3073.387214349176,-187500.02235174447,-187500.02235174447,-187500.02235174447,-187500.02235174447,-187500.02235174447,1729114251.4361973,1729114250.2156737,2000
-1560.1294112359776,-187500.02235174447,3162.2130468145665,-187500.02235174447,-187500.02235174447,-187500.02235174447,-187500.02235174447,-187500.02235174447,1729114251.436204,1729114250.2156737,2000
-1303.8219575669716,-187500.02235174447,3182.06139589088,-187500.02235174447,-187500.02235174447,-187500.02235174447,-187500.02235174447,-187500.02235174447,1729114251.436211,1729114250.2156737,2000
-1322.910347331804,-187500.02235174447,3159.597892713296,-187500.02235174447,-187500.02235174447,-187500.02235174447,-187500.02235174447,-187500.02235174447,1729114251.4362175,1729114250.2156737,2000
-1523.8525299850144,-187500.02235174447,3096.297752415866,-187500.02235174447,-187500.02235174447,-187500.02235174447,-187500.02235174447,-187500.02235174447,1729114251.436224,1729114250.2156737,2000
-1573.1157747645111,-187500.02235174447,3046.36395530271,-187500.02235174447,-187500.02235174447,-187500.02235174447,-187500.02235174447,-187500.02235174447,1729114251.4362304,1729114250.2156737,2000
-1367.3679670534095,-187500.02235174447,3099.561107106341,-187500.02235174447,-187500.02235174447,-187500.02235174447,-187500.02235174447,-187500.02235174447,1729114251.4362369,1729114250.2156737,2000
-1289.382730648843,-187500.02235174447,3089.1898976790785,-187500.02235174447,-187500.02235174447,-187500.02235174447,-187500.02235174447,-187500.02235174447,1729114251.4362433,1729114250.2156737,2000
-1506.7087419877937,-187500.02235174447,3127.85841558676,-187500.02235174447,-187500.02235174447,-187500.02235174447,-187500.02235174447,-187500.02235174447,1729114251.4362495,1729114250.2156737,2000
-1568.1313357509775,-187500.02235174447,3139.816598870349,-187500.02235174447,-187500.02235174447,-187500.02235174447,-187500.02235174447,-187500.02235174447,1729114251.436256,1729114250.2156737,2000
-1381.4719178047085,-187500.02235174447,3131.658212144162,-187500.02235174447,-187500.02235174447,-187500.02235174447,-187500.02235174447,-187500.02235174447,1729114251.4362624,1729114250.2156737,2000
-1297.6528760973067,-187500.02235174447,3174.126526609245,-187500.02235174447,-187500.02235174447,-187500.02235174447,-187500.02235174447,-187500.02235174447,1729114251.4362688,1729114250.2156737,2000
-1421.8391682909928,-187500.02235174447,3143.303471005377,-187500.02235174447,-187500.02235174447,-187500.02235174447,-187500.02235174447,-187500.02235174447,1729114251.4362752,1729114250.2156737,2000
-1559.1906379688548,-187500.02235174447,3095.180165193101,-187500.02235174447,-187500.02235174447,-187500.02235174447,-187500.02235174447,-187500.02235174447,1729114251.4362817,1729114250.2156737,2000
-1438.6923836102944,-187500.02235174447,3127.1878632531007,-187500.02235174447,-187500.02235174447,-187500.02235174447,-187500.02235174447,-187500.02235174447,1729114251.436288,1729114250.2156737,2000
-1330.3087747465104,-187500.02235174447,3162.771840425949,-187500.02235174447,-187500.02235174447,-187500.02235174447,-187500.02235174447,-187500.02235174447,1729114251.4362948,1729114250.2156737,2000
-1439.027659777124,-187500.02235174447,3131.322935977332,-187500.02235174447,-187500.02235174447,-187500.02235174447,-187500.02235174447,-187500.02235174447,1729114251.4363017,1729114250.2156737,2000
-1582.0564725466338,-187500.02235174447,3145.650404173184,-187500.02235174447,-187500.02235174447,-187500.02235174447,-187500.02235174447,-187500.02235174447,1729114251.4363077,1729114250.2156737,2000
-1491.286038313632,-187500.02235174447,3053.4494582950424,-187500.02235174447,-187500.02235174447,-187500.02235174447,-187500.02235174447,-187500.02235174447,1729114251.436314,1729114250.2156737,2000
-1290.7238353161615,-187500.02235174447,3152.490037976508,-187500.02235174447,-187500.02235174447,-187500.02235174447,-187500.02235174447,-187500.02235174447,1729114251.4363203,1729114250.2156737,2000
-1380.51079279313,-187500.02235174447,3141.940014593604,-187500.02235174447,-187500.02235174447,-187500.02235174447,-187500.02235174447,-187500.02235174447,1729114251.4363272,1729114250.2156737,2000
-1577.563771911117,-187500.02235174447,3074.661263783129,-187500.02235174447,-187500.02235174447,-187500.02235174447,-187500.02235174447,-187500.02235174447,1729114251.4363337,1729114250.2156737,2000
-1528.769913765182,-187500.02235174447,3092.56501109183,-187500.02235174447,-187500.02235174447,-187500.02235174447,-187500.02235174447,-187500.02235174447,1729114251.43634,1729114250.2156737,2000
-1315.064885027991,-187500.02235174447,3104.7020083310617,-187500.02235174447,-187500.02235174447,-187500.02235174447,-187500.02235174447,-187500.02235174447,1729114251.436347,1729114250.2156737,2000
-1317.3000594735215,-187500.02235174447,3144.689279161606,-187500.02235174447,-187500.02235174447,-187500.02235174447,-187500.02235174447,-187500.02235174447,1729114251.4363534,1729114250.2156737,2000
-1570.3218067075975,-187500.02235174447,3065.2735311119,-187500.02235174447,-187500.02235174447,-187500.02235174447,-187500.02235174447,-187500.02235174447,1729114251.43636,1729114250.2156737,2000
-1582.0788242910892,-187500.02235174447,3107.875956043715,-187500.02235174447,-187500.02235174447,-187500.02235174447,-187500.02235174447,-187500.02235174447,1729114251.436366,1729114250.2156737,2000
-1346.290272032055,-187500.02235174447,3211.9009747387145,-187500.02235174447,-187500.02235174447,-187500.02235174447,-187500.02235174447,-187500.02235174447,1729114251.4363728,1729114250.2156737,2000
-1286.6781695697512,-187500.02235174447,3159.24026480201,-187500.02235174447,-187500.02235174447,-187500.02235174447,-187500.02235174447,-187500.02235174447,1729114251.436379,1729114250.2156737,2000
-1493.1412331034223,-187500.02235174447,3093.6825983145955,-187500.02235174447,-187500.02235174447,-187500.02235174447,-187500.02235174447,-187500.02235174447,1729114251.4363856,1729114250.2156737,2000
-1619.1380165979883,-187500.02235174447,3039.7478389439398,-187500.02235174447,-187500.02235174447,-187500.02235174447,-187500.02235174447,-187500.02235174447,1729114251.4363918,1729114250.2156737,2000
-1397.811043001538,-187500.02235174447,3130.8759010882263,-187500.02235174447,-187500.02235174447,-187500.02235174447,-187500.02235174447,-187500.02235174447,1729114251.4363985,1729114250.2156737,2000
-1282.96777999017,-187500.02235174447,3190.2197826170664,-187500.02235174447,-187500.02235174447,-187500.02235174447,-187500.02235174447,-187500.02235174447,1729114251.4364047,1729114250.2156737,2000
-1448.9741860597358,-187500.02235174447,3176.764032454972,-187500.02235174447,-187500.02235174447,-187500.02235174447,-187500.02235174447,-187500.02235174447,1729114251.4364111,1729114250.2156737,2000
-1565.2703124606985,-187500.02235174447,3103.9644007640363,-187500.02235174447,-187500.02235174447,-187500.02235174447,-187500.02235174447,-187500.02235174447,1729114251.4364176,1729114250.2156737,2000
-1391.2619818761327,-187500.02235174447,3086.530040088897,-187500.02235174447,-187500.02235174447,-187500.02235174447,-187500.02235174447,-187500.02235174447,1729114251.436424,1729114250.2156737,2000
-1263.5888175474188,-187500.02235174447,3141.045944815391,-187500.02235174447,-187500.02235174447,-187500.02235174447,-187500.02235174447,-187500.02235174447,1729114251.4364305,1729114250.2156737,2000
-1452.4163547058529,-187500.02235174447,3154.8593228887707,-187500.02235174447,-187500.02235174447,-187500.02235174447,-187500.02235174447,-187500.02235174447,1729114251.436437,1729114250.2156737,2000
-1624.8153596896364,-187500.02235174447,3088.698159301062,-187500.02235174447,-187500.02235174447,-187500.02235174447,-187500.02235174447,-187500.02235174447,1729114251.436443,1729114250.2156737,2000
-1469.7166049142606,-187500.02235174447,3094.9342960040926,-187500.02235174447,-187500.02235174447,-187500.02235174447,-187500.02235174447,-187500.02235174447,1729114251.43645,1729114250.2156737,2000
-1273.356529874388,-187500.02235174447,3179.7144627230723,-187500.02235174447,-187500.02235174447,-187500.02235174447,-187500.02235174447,-187500.02235174447,1729114251.4364564,1729114250.2156737,2000
-1319.4011234523207,-187500.02235174447,3196.880602464748,-187500.02235174447,-187500.02235174447,-187500.02235174447,-187500.02235174447,-187500.02235174447,1729114251.436463,1729114250.2156737,2000
-1579.620132401005,-187500.02235174447,3083.758423776439,-187500.02235174447,-187500.02235174447,-187500.02235174447,-187500.02235174447,-187500.02235174447,1729114251.4364693,1729114250.2156737,2000
-1524.187806151844,-187500.02235174447,3112.3463049347765,-187500.02235174447,-187500.02235174447,-187500.02235174447,-187500.02235174447,-187500.02235174447,1729114251.436476,1729114250.2156737,2000
-1300.2233267096672,-187500.02235174447,3179.0662621338683,-187500.02235174447,-187500.02235174447,-187500.02235174447,-187500.02235174447,-187500.02235174447,1729114251.4364831,1729114250.2156737,2000
-1386.903391707348,-187500.02235174447,3149.740773408505,-187500.02235174447,-187500.02235174447,-187500.02235174447,-187500.02235174447,-187500.02235174447,1729114251.4364896,1729114250.2156737,2000
-1581.3188649796089,-187500.02235174447,3103.070330985824,-187500.02235174447,-187500.02235174447,-187500.02235174447,-187500.02235174447,-187500.02235174447,1729114251.9152591,1729114250.2156737,2000
-1543.3656028944974,-187500.02235174447,3093.213211681034,-187500.02235174447,-187500.02235174447,-187500.02235174447,-187500.02235174447,-187500.02235174447,1729114251.9152815,1729114250.2156737,2000
-1338.1095335614127,-187500.02235174447,3121.354057950265,-187500.02235174447,-187500.02235174447,-187500.02235174447,-187500.02235174447,-187500.02235174447,1729114251.9152844,1729114250.2156737,2000
-1337.126056805379,-187500.02235174447,3094.554316348352,-187500.02235174447,-187500.02235174447,-187500.02235174447,-187500.02235174447,-187500.02235174447,1729114251.9152868,1729114250.2156737,2000
-1586.6609319044271,-187500.02235174447,3072.046109681858,-187500.02235174447,-187500.02235174447,-187500.02235174447,-187500.02235174447,-187500.02235174447,1729114251.9152896,1729114250.2156737,2000
-1538.0011842252236,-187500.02235174447,3144.354002994776,-187500.02235174447,-187500.02235174447,-187500.02235174447,-187500.02235174447,-187500.02235174447,1729114251.915292,1729114250.2156737,2000
-1295.6635708407846,-187500.02235174447,3144.8457413727933,-187500.02235174447,-187500.02235174447,-187500.02235174447,-187500.02235174447,-187500.02235174447,1729114251.9152946,1729114250.2156737,2000
-1324.877300843871,-187500.02235174447,3192.611419273784,-187500.02235174447,-187500.02235174447,-187500.02235174447,-187500.02235174447,-187500.02235174447,1729114251.9152973,1729114250.2156737,2000
-1524.4560270853076,-187500.02235174447,3127.5678429088407,-187500.02235174447,-187500.02235174447,-187500.02235174447,-187500.02235174447,-187500.02235174447,1729114251.9152997,1729114250.2156737,2000
-1525.3724486079752,-187500.02235174447,3090.03926396838,-187500.02235174447,-187500.02235174447,-187500.02235174447,-187500.02235174447,-187500.02235174447,1729114251.9153025,1729114250.2156737,2000
-1370.0278246435912,-187500.02235174447,3143.683450661117,-187500.02235174447,-187500.02235174447,-187500.02235174447,-187500.02235174447,-187500.02235174447,1729114251.915305,1729114250.2156737,2000
-1313.6343733828514,-187500.02235174447,3163.397689270698,-187500.02235174447,-187500.02235174447,-187500.02235174447,-187500.02235174447,-187500.02235174447,1729114251.9153073,1729114250.2156737,2000
-1479.5513724745956,-187500.02235174447,3132.909909833659,-187500.02235174447,-187500.02235174447,-187500.02235174447,-187500.02235174447,-187500.02235174447,1729114251.9153097,1729114250.2156737,2000
-1593.8358418745806,-187500.02235174447,3064.982958433981,-187500.02235174447,-187500.02235174447,-187500.02235174447,-187500.02235174447,-187500.02235174447,1729114251.9153123,1729114250.2156737,2000
-1417.5699851000293,-187500.02235174447,3099.0023134949583,-187500.02235174447,-187500.02235174447,-187500.02235174447,-187500.02235174447,-187500.02235174447,1729114251.915315,1729114250.2156737,2000
-1314.5284431610637,-187500.02235174447,3157.6756426901397,-187500.02235174447,-187500.02235174447,-187500.02235174447,-187500.02235174447,-187500.02235174447,1729114251.9153173,1729114250.2156737,2000
-1456.3502617299869,-187500.02235174447,3132.1275987777235,-187500.02235174447,-187500.02235174447,-187500.02235174447,-187500.02235174447,-187500.02235174447,1729114251.9153197,1729114250.2156737,2000
-1591.2206877733097,-187500.02235174447,3069.185086391579,-187500.02235174447,-187500.02235174447,-187500.02235174447,-187500.02235174447,-187500.02235174447,1729114251.9153223,1729114250.2156737,2000
-1450.672918638339,-187500.02235174447,3152.534741465419,-187500.02235174447,-187500.02235174447,-187500.02235174447,-187500.02235174447,-187500.02235174447,1729114251.9153247,1729114250.2156737,2000
-1293.9871900066364,-187500.02235174447,3171.7348899525277,-187500.02235174447,-187500.02235174447,-187500.02235174447,-187500.02235174447,-187500.02235174447,1729114251.9153273,1729114250.2156737,2000
-1425.8848340374034,-187500.02235174447,3099.270534428422,-187500.02235174447,-187500.02235174447,-187500.02235174447,-187500.02235174447,-187500.02235174447,1729114251.91533,1729114250.2156737,2000
-1563.4821729042735,-187500.02235174447,3114.715589847039,-187500.02235174447,-187500.02235174447,-187500.02235174447,-187500.02235174447,-187500.02235174447,1729114251.9153326,1729114250.2156737,2000
-1487.5532969895955,-187500.02235174447,3097.013008238436,-187500.02235174447,-187500.02235174447,-187500.02235174447,-187500.02235174447,-187500.02235174447,1729114251.9153352,1729114250.2156737,2000
-1291.4614428831867,-187500.02235174447,3153.585273454818,-187500.02235174447,-187500.02235174447,-187500.02235174447,-187500.02235174447,-187500.02235174447,1729114251.9153376,1729114250.2156737,2000
-1354.8286384139824,-187500.02235174447,3163.978834626536,-187500.02235174447,-187500.02235174447,-187500.02235174447,-187500.02235174447,-187500.02235174447,1729114251.9153411,1729114250.2156737,2000
-1529.5969283100285,-187500.02235174447,3081.3220836308105,-187500.02235174447,-187500.02235174447,-187500.02235174447,-187500.02235174447,-187500.02235174447,1729114251.9153438,1729114250.2156737,2000
-1507.7145704882826,-187500.02235174447,3108.9264880331148,-187500.02235174447,-187500.02235174447,-187500.02235174447,-187500.02235174447,-187500.02235174447,1729114251.915346,1729114250.2156737,2000
-1353.3757750243874,-187500.02235174447,3154.81461939986,-187500.02235174447,-187500.02235174447,-187500.02235174447,-187500.02235174447,-187500.02235174447,1729114251.9153488,1729114250.2156737,2000
-1327.939489834248,-187500.02235174447,3182.240209846522,-187500.02235174447,-187500.02235174447,-187500.02235174447,-187500.02235174447,-187500.02235174447,1729114251.9153512,1729114250.2156737,2000
-1555.1002687335335,-187500.02235174447,3106.08781648729,-187500.02235174447,-187500.02235174447,-187500.02235174447,-187500.02235174447,-187500.02235174447,1729114251.9153535,1729114250.2156737,2000
-1554.5861786110615,-187500.02235174447,3075.175353905601,-187500.02235174447,-187500.02235174447,-187500.02235174447,-187500.02235174447,-187500.02235174447,1729114251.915356,1729114250.2156737,2000
-1327.7606758786055,-187500.02235174447,3146.5444739513964,-187500.02235174447,-187500.02235174447,-187500.02235174447,-187500.02235174447,-187500.02235174447,1729114251.9153616,1729114250.2156737,2000
-1319.289364730044,-187500.02235174447,3200.9933234445243,-187500.02235174447,-187500.02235174447,-187500.02235174447,-187500.02235174447,-187500.02235174447,1729114251.915364,1729114250.2156737,2000
-1509.4580065557966,-187500.02235174447,3095.0684064708244,-187500.02235174447,-187500.02235174447,-187500.02235174447,-187500.02235174447,-187500.02235174447,1729114251.9153664,1729114250.2156737,2000
-1601.3013245226532,-187500.02235174447,3049.247330337445,-187500.02235174447,-187500.02235174447,-187500.02235174447,-187500.02235174447,-187500.02235174447,1729114251.9153688,1729114250.2156737,2000
-1373.0229584006022,-187500.02235174447,3155.462819989064,-187500.02235174447,-187500.02235174447,-187500.02235174447,-187500.02235174447,-187500.02235174447,1729114251.9153712,1729114250.2156737,2000
-1277.357492131888,-187500.02235174447,3183.424852302653,-187500.02235174447,-187500.02235174447,-187500.02235174447,-187500.02235174447,-187500.02235174447,1729114251.9153738,1729114250.2156737,2000
-1444.4591336797637,-187500.02235174447,3102.6456478411733,-187500.02235174447,-187500.02235174447,-187500.02235174447,-187500.02235174447,-187500.02235174447,1729114251.9153764,1729114250.2156737,2000
-1601.1895658003768,-187500.02235174447,3064.93825494507,-187500.02235174447,-187500.02235174447,-187500.02235174447,-187500.02235174447,-187500.02235174447,1729114251.9153788,1729114250.2156737,2000
-1477.316198029065,-187500.02235174447,3092.006217480447,-187500.02235174447,-187500.02235174447,-187500.02235174447,-187500.02235174447,-187500.02235174447,1729114251.9153812,1729114250.2156737,2000
-1274.6752827972512,-187500.02235174447,3199.160480399189,-187500.02235174447,-187500.02235174447,-187500.02235174447,-187500.02235174447,-187500.02235174447,1729114251.9153836,1729114250.2156737,2000
-1409.7915780295823,-187500.02235174447,3174.2829888204324,-187500.02235174447,-187500.02235174447,-187500.02235174447,-187500.02235174447,-187500.02235174447,1729114251.9153864,1729114250.2156737,2000
-1613.505376995251,-187500.02235174447,3095.224868682011,-187500.02235174447,-187500.02235174447,-187500.02235174447,-187500.02235174447,-187500.02235174447,1729114251.9153888,1729114250.2156737,2000
-1513.2578031131989,-187500.02235174447,3070.883818970182,-187500.02235174447,-187500.02235174447,-187500.02235174447,-187500.02235174447,-187500.02235174447,1729114251.9153912,1729114250.2156737,2000
-1261.1077739128798,-187500.02235174447,3159.664947946662,-187500.02235174447,-187500.02235174447,-187500.02235174447,-187500.02235174447,-187500.02235174447,1729114251.9153936,1729114250.2156737,2000
-1378.365025325421,-187500.02235174447,3135.1450842791896,-187500.02235174447,-187500.02235174447,-187500.02235174447,-187500.02235174447,-187500.02235174447,1729114251.9153962,1729114250.2156737,2000
-1544.7514110507263,-187500.02235174447,3058.545656030853,-187500.02235174447,-187500.02235174447,-187500.02235174447,-187500.02235174447,-187500.02235174447,1729114251.9153986,1729114250.2156737,2000
-1518.1751868933663,-187500.02235174447,3082.082042942291,-187500.02235174447,-187500.02235174447,-187500.02235174447,-187500.02235174447,-187500.02235174447,1729114251.915401,1729114250.2156737,2000
-1287.4381288812317,-187500.02235174447,3177.926323166648,-187500.02235174447,-187500.02235174447,-187500.02235174447,-187500.02235174447,-187500.02235174447,1729114251.9154034,1729114250.2156737,2000
-1353.3087197910213,-187500.02235174447,3171.064337618868,-187500.02235174447,-187500.02235174447,-187500.02235174447,-187500.02235174447,-187500.02235174447,1729114251.915406,1729114250.2156737,2000
-1582.3246934800975,-187500.02235174447,3063.530095044386,-187500.02235174447,-187500.02235174447,-187500.02235174447,-187500.02235174447,-187500.02235174447,1729114251.9154084,1729114250.2156737,2000
-1528.3675823649862,-187500.02235174447,3105.394912409176,-187500.02235174447,-187500.02235174447,-187500.02235174447,-187500.02235174447,-187500.02235174447,1729114251.9154108,1729114250.2156737,2000
-1331.9181003472925,-187500.02235174447,3161.34132878081,-187500.02235174447,-187500.02235174447,-187500.02235174447,-187500.02235174447,-187500.02235174447,1729114251.9154134,1729114250.2156737,2000
-1341.775219652083,-187500.02235174447,3142.565863438352,-187500.02235174447,-187500.02235174447,-187500.02235174447,-187500.02235174447,-187500.02235174447,1729114251.9154158,1729114250.2156737,2000
-1563.5939316265503,-187500.02235174447,3112.167490979134,-187500.02235174447,-187500.02235174447,-187500.02235174447,-187500.02235174447,-187500.02235174447,1729114251.915418,1729114250.2156737,2000
-1610.756112427248,-187500.02235174447,3044.3299465572773,-187500.02235174447,-187500.02235174447,-187500.02235174447,-187500.02235174447,-187500.02235174447,1729114251.9154208,1729114250.2156737,2000
-1301.0503412545136,-187500.02235174447,3162.011881114469,-187500.02235174447,-187500.02235174447,-187500.02235174447,-187500.02235174447,-187500.02235174447,1729114251.9154232,1729114250.2156737,2000
-1294.7024458292062,-187500.02235174447,3173.9030091646923,-187500.02235174447,-187500.02235174447,-187500.02235174447,-187500.02235174447,-187500.02235174447,1729114251.9154255,1729114250.2156737,2000
-1481.3395120310204,-187500.02235174447,3159.8437619023043,-187500.02235174447,-187500.02235174447,-187500.02235174447,-187500.02235174447,-187500.02235174447,1729114251.915428,1729114250.2156737,2000
-1549.4676291307962,-187500.02235174447,3081.65735979764,-187500.02235174447,-187500.02235174447,-187500.02235174447,-187500.02235174447,-187500.02235174447,1729114251.9154332,1729114250.2156737,2000
-1403.6224965599176,-187500.02235174447,3089.99456047947,-187500.02235174447,-187500.02235174447,-187500.02235174447,-187500.02235174447,-187500.02235174447,1729114251.9154358,1729114250.2156737,2000
-1316.0483617840246,-187500.02235174447,3158.972043868547,-187500.02235174447,-187500.02235174447,-187500.02235174447,-187500.02235174447,-187500.02235174447,1729114251.9154382,1729114250.2156737,2000
-1445.0179272911464,-187500.02235174447,3124.9750405520253,-187500.02235174447,-187500.02235174447,-187500.02235174447,-187500.02235174447,-187500.02235174447,1729114251.9154408,1729114250.2156737,2000
-1609.9738013713124,-187500.02235174447,3083.3560923762434,-187500.02235174447,-187500.02235174447,-187500.02235174447,-187500.02235174447,-187500.02235174447,1729114251.9154432,1729114250.2156737,2000
-1439.050011521579,-187500.02235174447,3222.87568126627,-187500.02235174447,-187500.02235174447,-187500.02235174447,-187500.02235174447,-187500.02235174447,1729114251.9154456,1729114250.2156737,2000
-1275.3681868753656,-187500.02235174447,3158.525008979441,-187500.02235174447,-187500.02235174447,-187500.02235174447,-187500.02235174447,-187500.02235174447,1729114251.9154482,1729114250.2156737,2000
-1421.548595613074,-187500.02235174447,3102.019798996425,-187500.02235174447,-187500.02235174447,-187500.02235174447,-187500.02235174447,-187500.02235174447,1729114251.9154506,1729114250.2156737,2000
-1611.761940927737,-187500.02235174447,3102.4891856299864,-187500.02235174447,-187500.02235174447,-187500.02235174447,-187500.02235174447,-187500.02235174447,1729114251.915453,1729114250.2156737,2000
-1508.3180675885758,-187500.02235174447,3062.300749099344,-187500.02235174447,-187500.02235174447,-187500.02235174447,-187500.02235174447,-187500.02235174447,1729114251.9154556,1729114250.2156737,2000
-1255.653948265785,-187500.02235174447,3156.267482789455,-187500.02235174447,-187500.02235174447,-187500.02235174447,-187500.02235174447,-187500.02235174447,1729114251.915458,1729114250.2156737,2000
-1342.6692894302953,-187500.02235174447,3170.572599240852,-187500.02235174447,-187500.02235174447,-187500.02235174447,-187500.02235174447,-187500.02235174447,1729114251.9154603,1729114250.2156737,2000
-1550.473457631285,-187500.02235174447,3082.573781320308,-187500.02235174447,-187500.02235174447,-187500.02235174447,-187500.02235174447,-187500.02235174447,1729114251.9154627,1729114250.2156737,2000
-1544.9302250063688,-187500.02235174447,3070.4144323366204,-187500.02235174447,-187500.02235174447,-187500.02235174447,-187500.02235174447,-187500.02235174447,1729114251.915465,1729114250.2156737,2000
-1281.358454389388,-187500.02235174447,3153.6299769437287,-187500.02235174447,-187500.02235174447,-187500.02235174447,-187500.02235174447,-187500.02235174447,1729114251.9154675,1729114250.2156737,2000
-1374.4758217901972,-187500.02235174447,3130.205348754567,-187500.02235174447,-187500.02235174447,-187500.02235174447,-187500.02235174447,-187500.02235174447,1729114251.91547,1729114250.2156737,2000
-1556.6648908454051,-187500.02235174447,3114.402665424665,-187500.02235174447,-187500.02235174447,-187500.02235174447,-187500.02235174447,-187500.02235174447,1729114251.9154725,1729114250.2156737,2000
-1532.480303344763,-187500.02235174447,3105.1713949646232,-187500.02235174447,-187500.02235174447,-187500.02235174447,-187500.02235174447,-187500.02235174447,1729114251.915475,1729114250.2156737,2000
-1317.1212455178793,-187500.02235174447,3187.4481663046085,-187500.02235174447,-187500.02235174447,-187500.02235174447,-187500.02235174447,-187500.02235174447,1729114251.9154787,1729114250.2156737,2000
-1338.8024376395272,-187500.02235174447,3132.1946540110894,-187500.02235174447,-187500.02235174447,-187500.02235174447,-187500.02235174447,-187500.02235174447,1729114251.915481,1729114250.2156737,2000
-1594.7746151417036,-187500.02235174447,3081.590304564274,-187500.02235174447,-187500.02235174447,-187500.02235174447,-187500.02235174447,-187500.02235174447,1729114251.9154837,1729114250.2156737,2000
-1587.5550016826394,-187500.02235174447,3102.1986129520674,-187500.02235174447,-187500.02235174447,-187500.02235174447,-187500.02235174447,-187500.02235174447,1729114251.915486,1729114250.2156737,2000
-1332.923928847781,-187500.02235174447,3187.492869793519,-187500.02235174447,-187500.02235174447,-187500.02235174447,-187500.02235174447,-187500.02235174447,1729114251.9154885,1729114250.2156737,2000
-1284.8006230355052,-187500.02235174447,3178.82039294486,-187500.02235174447,-187500.02235174447,-187500.02235174447,-187500.02235174447,-187500.02235174447,1729114251.915491,1729114250.2156737,2000
-1460.3065204985762,-187500.02235174447,3135.078029045824,-187500.02235174447,-187500.02235174447,-187500.02235174447,-187500.02235174447,-187500.02235174447,1729114251.9154935,1729114250.2156737,2000
-1576.0215015437009,-187500.02235174447,3065.586455534274,-187500.02235174447,-187500.02235174447,-187500.02235174447,-187500.02235174447,-187500.02235174447,1729114251.915496,1729114250.2156737,2000
-1431.4280666623197,-187500.02235174447,3159.709651435572,-187500.02235174447,-187500.02235174447,-187500.02235174447,-187500.02235174447,-187500.02235174447,1729114251.9154985,1729114250.2156737,2000
-1281.850192767405,-187500.02235174447,3175.91466616567,-187500.02235174447,-187500.02235174447,-187500.02235174447,-187500.02235174447,-187500.02235174447,1729114251.915501,1729114250.2156737,2000
-1438.1782934878224,-187500.02235174447,3106.333685676299,-187500.02235174447,-187500.02235174447,-187500.02235174447,-187500.02235174447,-187500.02235174447,1729114251.9155035,1729114250.2156737,2000
-1595.668684919916,-187500.02235174447,3097.080063471802,-187500.02235174447,-187500.02235174447,-187500.02235174447,-187500.02235174447,-187500.02235174447,1729114251.915506,1729114250.2156737,2000
-1454.8079913625709,-187500.02235174447,3112.2792497014107,-187500.02235174447,-187500.02235174447,-187500.02235174447,-187500.02235174447,-187500.02235174447,1729114251.9155085,1729114250.2156737,2000
-1298.9939807646251,-187500.02235174447,3110.1558339781564,-187500.02235174447,-187500.02235174447,-187500.02235174447,-187500.02235174447,-187500.02235174447,1729114251.915511,1729114250.2156737,2000
-1409.5904123294847,-187500.02235174447,3117.397799181676,-187500.02235174447,-187500.02235174447,-187500.02235174447,-187500.02235174447,-187500.02235174447,1729114251.9155133,1729114250.2156737,2000
-1577.183792255377,-187500.02235174447,3129.691258632095,-187500.02235174447,-187500.02235174447,-187500.02235174447,-187500.02235174447,-187500.02235174447,1729114251.9155157,1729114250.2156737,2000
-1475.349244516998,-187500.02235174447,3113.3521334352654,-187500.02235174447,-187500.02235174447,-187500.02235174447,-187500.02235174447,-187500.02235174447,1729114251.915518,1729114250.2156737,2000
-1282.453689867698,-187500.02235174447,3128.6183748982403,-187500.02235174447,-187500.02235174447,-187500.02235174447,-187500.02235174447,-187500.02235174447,1729114251.9155204,1729114250.2156737,2000
-1331.1804927802675,-187500.02235174447,3223.3227161553764,-187500.02235174447,-187500.02235174447,-187500.02235174447,-187500.02235174447,-187500.02235174447,1729114251.9155228,1729114250.2156737,2000
-1542.7397540497489,-187500.02235174447,3166.6610439611727,-187500.02235174447,-187500.02235174447,-187500.02235174447,-187500.02235174447,-187500.02235174447,1729114251.9155254,1729114250.2156737,2000
-1520.991506694735,-187500.02235174447,3076.8964382286595,-187500.02235174447,-187500.02235174447,-187500.02235174447,-187500.02235174447,-187500.02235174447,1729114251.9155278,1729114250.2156737,2000
-1324.2738037435774,-187500.02235174447,3136.106209290768,-187500.02235174447,-187500.02235174447,-187500.02235174447,-187500.02235174447,-187500.02235174447,1729114251.9155304,1729114250.2156737,2000
-1376.353368324443,-187500.02235174447,3168.0915556063123,-187500.02235174447,-187500.02235174447,-187500.02235174447,-187500.02235174447,-187500.02235174447,1729114251.9155328,1729114250.2156737,2000
-1579.2401527452653,-187500.02235174447,3104.6126013532403,-187500.02235174447,-187500.02235174447,-187500.02235174447,-187500.02235174447,-187500.02235174447,1729114251.9155352,1729114250.2156737,2000
-1538.6270330699722,-187500.02235174447,3121.175243994623,-187500.02235174447,-187500.02235174447,-187500.02235174447,-187500.02235174447,-187500.02235174447,1729114251.9155376,1729114250.2156737,2000
-1334.64501317084,-187500.02235174447,3100.5892873512853,-187500.02235174447,-187500.02235174447,-187500.02235174447,-187500.02235174447,-187500.02235174447,1729114251.91554,1729114250.2156737,2000
-1300.9609342766923,-187500.02235174447,3170.237323074022,-187500.02235174447,-187500.02235174447,-187500.02235174447,-187500.02235174447,-187500.02235174447,1729114251.9155433,1729114250.2156737,2000
-1552.4627628878077,-187500.02235174447,3110.334647933799,-187500.02235174447,-187500.02235174447,-187500.02235174447,-187500.02235174447,-187500.02235174447,1729114251.9155457,1729114250.2156737,2000
-1587.7114638938265,-187500.02235174447,3081.7467667754613,-187500.02235174447,-187500.02235174447,-187500.02235174447,-187500.02235174447,-187500.02235174447,1729114251.9155483,1729114250.2156737,2000
-1332.4321904697647,-187500.02235174447,3185.458861048086,-187500.02235174447,-187500.02235174447,-187500.02235174447,-187500.02235174447,-187500.02235174447,1729114251.9155507,1729114250.2156737,2000
-1278.7880037770276,-187500.02235174447,3167.264541061466,-187500.02235174447,-187500.02235174447,-187500.02235174447,-187500.02235174447,-187500.02235174447,1729114251.915553,1729114250.2156737,2000
-1447.2754534811322,-187500.02235174447,3099.047016983869,-187500.02235174447,-187500.02235174447,-187500.02235174447,-187500.02235174447,-187500.02235174447,1729114251.9155557,1729114250.2156737,2000
-1630.3809440590078,-187500.02235174447,3085.010121465936,-187500.02235174447,-187500.02235174447,-187500.02235174447,-187500.02235174447,-187500.02235174447,1729114251.915558,1729114250.2156737,2000
-1422.4426653912865,-187500.02235174447,3126.137331263701,-187500.02235174447,-187500.02235174447,-187500.02235174447,-187500.02235174447,-187500.02235174447,1729114251.9155605,1729114250.2156737,2000
-1314.550794905519,-187500.02235174447,3123.90215681817,-187500.02235174447,-187500.02235174447,-187500.02235174447,-187500.02235174447,-187500.02235174447,1729114251.915563,1729114250.2156737,2000
-1457.512552441663,-187500.02235174447,3156.334538022821,-187500.02235174447,-187500.02235174447,-187500.02235174447,-187500.02235174447,-187500.02235174447,1729114251.9155655,1729114250.2156737,2000
-1581.631789401983,-187500.02235174447,3115.073217758324,-187500.02235174447,-187500.02235174447,-187500.02235174447,-187500.02235174447,-187500.02235174447,1729114251.915568,1729114250.2156737,2000
-1439.2511772216772,-187500.02235174447,3127.724305120028,-187500.02235174447,-187500.02235174447,-187500.02235174447,-187500.02235174447,-187500.02235174447,1729114251.9155705,1729114250.2156737,2000
-1279.905590999793,-187500.02235174447,3175.1994103431,-187500.02235174447,-187500.02235174447,-187500.02235174447,-187500.02235174447,-187500.02235174447,1729114251.915573,1729114250.2156737,2000
-1402.5719645705185,-187500.02235174447,3148.8690553747483,-187500.02235174447,-187500.02235174447,-187500.02235174447,-187500.02235174447,-187500.02235174447,1729114251.9155753,1729114250.2156737,2000
-1601.748359411759,-187500.02235174447,3097.370636149721,-187500.02235174447,-187500.02235174447,-187500.02235174447,-187500.02235174447,-187500.02235174447,1729114251.9155777,1729114250.2156737,2000
-1531.5862335665506,-187500.02235174447,3090.70981630204,-187500.02235174447,-187500.02235174447,-187500.02235174447,-187500.02235174447,-187500.02235174447,1729114251.91558,1729114250.2156737,2000
-1297.1164342303794,-187500.02235174447,3166.459878261075,-187500.02235174447,-187500.02235174447,-187500.02235174447,-187500.02235174447,-187500.02235174447,1729114251.9155824,1729114250.2156737,2000
-1333.683888159262,-187500.02235174447,3141.5823866823184,-187500.02235174447,-187500.02235174447,-187500.02235174447,-187500.02235174447,-187500.02235174447,1729114251.915585,1729114250.2156737,2000
-1567.281969461676,-187500.02235174447,3092.989694236481,-187500.02235174447,-187500.02235174447,-187500.02235174447,-187500.02235174447,-187500.02235174447,1729114252.395824,1729114250.2156737,2000
-1526.892367230936,-187500.02235174447,3151.6406716872066,-187500.02235174447,-187500.02235174447,-187500.02235174447,-187500.02235174447,-187500.02235174447,1729114252.3959138,1729114250.2156737,2000
-1345.2173882982,-187500.02235174447,3152.914721121159,-187500.02235174447,-187500.02235174447,-187500.02235174447,-187500.02235174447,-187500.02235174447,1729114252.3959382,1729114250.2156737,2000
-1383.0812434054903,-187500.02235174447,3181.614361001773,-187500.02235174447,-187500.02235174447,-187500.02235174447,-187500.02235174447,-187500.02235174447,1729114252.3959422,1729114250.2156737,2000
-1531.7426957777377,-187500.02235174447,3123.410418440153,-187500.02235174447,-187500.02235174447,-187500.02235174447,-187500.02235174447,-187500.02235174447,1729114252.3959448,1729114250.2156737,2000
-1556.8437048010476,-187500.02235174447,3063.910074700126,-187500.02235174447,-187500.02235174447,-187500.02235174447,-187500.02235174447,-187500.02235174447,1729114252.3959477,1729114250.2156737,2000
-1367.189153097767,-187500.02235174447,3087.602923822752,-187500.02235174447,-187500.02235174447,-187500.02235174447,-187500.02235174447,-187500.02235174447,1729114252.3959503,1729114250.2156737,2000
-1297.4517103972091,-187500.02235174447,3199.8980879662145,-187500.02235174447,-187500.02235174447,-187500.02235174447,-187500.02235174447,-187500.02235174447,1729114252.3959527,1729114250.2156737,2000
-1465.8050496345818,-187500.02235174447,3190.0186169169688,-187500.02235174447,-187500.02235174447,-187500.02235174447,-187500.02235174447,-187500.02235174447,1729114252.395955,1729114250.2156737,2000
-1580.760071368226,-187500.02235174447,3070.727356758995,-187500.02235174447,-187500.02235174447,-187500.02235174447,-187500.02235174447,-187500.02235174447,1729114252.395958,1729114250.2156737,2000
-1403.6224965599176,-187500.02235174447,3113.687409602095,-187500.02235174447,-187500.02235174447,-187500.02235174447,-187500.02235174447,-187500.02235174447,1729114252.3959603,1729114250.2156737,2000
-1294.6353905958404,-187500.02235174447,3185.972951170558,-187500.02235174447,-187500.02235174447,-187500.02235174447,-187500.02235174447,-187500.02235174447,1729114252.395963,1729114250.2156737,2000
-1486.4804132557408,-187500.02235174447,3111.85456655676,-187500.02235174447,-187500.02235174447,-187500.02235174447,-187500.02235174447,-187500.02235174447,1729114252.3959656,1729114250.2156737,2000
-1601.1895658003768,-187500.02235174447,3072.426089337598,-187500.02235174447,-187500.02235174447,-187500.02235174447,-187500.02235174447,-187500.02235174447,1729114252.395968,1729114250.2156737,2000
-1412.674953064317,-187500.02235174447,3108.971191522025,-187500.02235174447,-187500.02235174447,-187500.02235174447,-187500.02235174447,-187500.02235174447,1729114252.3959706,1729114250.2156737,2000
-1287.7063498146952,-187500.02235174447,3181.904933679692,-187500.02235174447,-187500.02235174447,-187500.02235174447,-187500.02235174447,-187500.02235174447,1729114252.3959734,1729114250.2156737,2000
-1415.5583280990516,-187500.02235174447,3179.1109656227786,-187500.02235174447,-187500.02235174447,-187500.02235174447,-187500.02235174447,-187500.02235174447,1729114252.395976,1729114250.2156737,2000
-1639.8357319636027,-187500.02235174447,3085.792432521872,-187500.02235174447,-187500.02235174447,-187500.02235174447,-187500.02235174447,-187500.02235174447,1729114252.3959785,1729114250.2156737,2000
-1489.2296778237435,-187500.02235174447,3129.870072587737,-187500.02235174447,-187500.02235174447,-187500.02235174447,-187500.02235174447,-187500.02235174447,1729114252.395981,1729114250.2156737,2000
-1274.362358374877,-187500.02235174447,3168.717404451061,-187500.02235174447,-187500.02235174447,-187500.02235174447,-187500.02235174447,-187500.02235174447,1729114252.3959837,1729114250.2156737,2000
-1389.9208772088143,-187500.02235174447,3142.744677393994,-187500.02235174447,-187500.02235174447,-187500.02235174447,-187500.02235174447,-187500.02235174447,1729114252.395986,1729114250.2156737,2000
-1604.9893623577789,-187500.02235174447,3073.0966416712577,-187500.02235174447,-187500.02235174447,-187500.02235174447,-187500.02235174447,-187500.02235174447,1729114252.3959885,1729114250.2156737,2000
-1539.5658063370952,-187500.02235174447,3069.2968451138554,-187500.02235174447,-187500.02235174447,-187500.02235174447,-187500.02235174447,-187500.02235174447,1729114252.395991,1729114250.2156737,2000
-1316.093065272935,-187500.02235174447,3148.690241419106,-187500.02235174447,-187500.02235174447,-187500.02235174447,-187500.02235174447,-187500.02235174447,1729114252.3959937,1729114250.2156737,2000
-1319.490530430142,-187500.02235174447,3171.980759141536,-187500.02235174447,-187500.02235174447,-187500.02235174447,-187500.02235174447,-187500.02235174447,1729114252.395996,1729114250.2156737,2000
-1515.6941432588271,-187500.02235174447,3125.466778930042,-187500.02235174447,-187500.02235174447,-187500.02235174447,-187500.02235174447,-187500.02235174447,1729114252.3959987,1729114250.2156737,2000
-1527.093532931034,-187500.02235174447,3129.6465551431843,-187500.02235174447,-187500.02235174447,-187500.02235174447,-187500.02235174447,-187500.02235174447,1729114252.3960023,1729114250.2156737,2000
-1320.6975246307284,-187500.02235174447,3181.279084834944,-187500.02235174447,-187500.02235174447,-187500.02235174447,-187500.02235174447,-187500.02235174447,1729114252.396005,1729114250.2156737,2000
-1332.923928847781,-187500.02235174447,3181.346140068309,-187500.02235174447,-187500.02235174447,-187500.02235174447,-187500.02235174447,-187500.02235174447,1729114252.3960073,1729114250.2156737,2000
-1553.446239643841,-187500.02235174447,3118.984773038003,-187500.02235174447,-187500.02235174447,-187500.02235174447,-187500.02235174447,-187500.02235174447,1729114252.3960097,1729114250.2156737,2000
-1583.59874291405,-187500.02235174447,3084.272513898911,-187500.02235174447,-187500.02235174447,-187500.02235174447,-187500.02235174447,-187500.02235174447,1729114252.396012,1729114250.2156737,2000
-1363.8140396850158,-187500.02235174447,3105.305505431355,-187500.02235174447,-187500.02235174447,-187500.02235174447,-187500.02235174447,-187500.02235174447,1729114252.396014,1729114250.2156737,2000
-1321.9939258091365,-187500.02235174447,3193.818413474371,-187500.02235174447,-187500.02235174447,-187500.02235174447,-187500.02235174447,-187500.02235174447,1729114252.3960164,1729114250.2156737,2000
-1485.027549866146,-187500.02235174447,3185.145936625712,-187500.02235174447,-187500.02235174447,-187500.02235174447,-187500.02235174447,-187500.02235174447,1729114252.3960187,1729114250.2156737,2000
-1579.106042278533,-187500.02235174447,3081.9926359644696,-187500.02235174447,-187500.02235174447,-187500.02235174447,-187500.02235174447,-187500.02235174447,1729114252.3960211,1729114250.2156737,2000
-1448.3036337260764,-187500.02235174447,3065.184124134079,-187500.02235174447,-187500.02235174447,-187500.02235174447,-187500.02235174447,-187500.02235174447,1729114252.3960235,1729114250.2156737,2000
-1332.7451148921389,-187500.02235174447,3147.7961716408936,-187500.02235174447,-187500.02235174447,-187500.02235174447,-187500.02235174447,-187500.02235174447,1729114252.3960257,1729114250.2156737,2000
-1444.0791540240234,-187500.02235174447,3134.5192354344413,-187500.02235174447,-187500.02235174447,-187500.02235174447,-187500.02235174447,-187500.02235174447,1729114252.396028,1729114250.2156737,2000
-1577.0943852775558,-187500.02235174447,3069.207438136034,-187500.02235174447,-187500.02235174447,-187500.02235174447,-187500.02235174447,-187500.02235174447,1729114252.3960335,1729114250.2156737,2000
-1440.8828545669144,-187500.02235174447,3125.176206252123,-187500.02235174447,-187500.02235174447,-187500.02235174447,-187500.02235174447,-187500.02235174447,1729114252.396036,1729114250.2156737,2000
-1261.4654018241647,-187500.02235174447,3222.2498324215217,-187500.02235174447,-187500.02235174447,-187500.02235174447,-187500.02235174447,-187500.02235174447,1729114252.396038,1729114250.2156737,2000
-1441.7098691117608,-187500.02235174447,3139.503674447975,-187500.02235174447,-187500.02235174447,-187500.02235174447,-187500.02235174447,-187500.02235174447,1729114252.3960404,1729114250.2156737,2000
-1589.991341828268,-187500.02235174447,3093.4143773811315,-187500.02235174447,-187500.02235174447,-187500.02235174447,-187500.02235174447,-187500.02235174447,1729114252.3960426,1729114250.2156737,2000
-1499.8691081844695,-187500.02235174447,3111.027552011913,-187500.02235174447,-187500.02235174447,-187500.02235174447,-187500.02235174447,-187500.02235174447,1729114252.3960447,1729114250.2156737,2000
-1300.5362511320411,-187500.02235174447,3194.265448363477,-187500.02235174447,-187500.02235174447,-187500.02235174447,-187500.02235174447,-187500.02235174447,1729114252.3960483,1729114250.2156737,2000
-1391.641961531873,-187500.02235174447,3153.495866476997,-187500.02235174447,-187500.02235174447,-187500.02235174447,-187500.02235174447,-187500.02235174447,1729114252.3960507,1729114250.2156737,2000
-1604.9446588688684,-187500.02235174447,3084.138403432179,-187500.02235174447,-187500.02235174447,-187500.02235174447,-187500.02235174447,-187500.02235174447,1729114252.396053,1729114250.2156737,2000
-1508.7874542221373,-187500.02235174447,3115.5649561363407,-187500.02235174447,-187500.02235174447,-187500.02235174447,-187500.02235174447,-187500.02235174447,1729114252.3960557,1729114250.2156737,2000
-1245.618015005352,-187500.02235174447,3223.523881855474,-187500.02235174447,-187500.02235174447,-187500.02235174447,-187500.02235174447,-187500.02235174447,1729114252.396065,1729114250.2156737,2000
-1376.9121619358257,-187500.02235174447,3106.624258354218,-187500.02235174447,-187500.02235174447,-187500.02235174447,-187500.02235174447,-187500.02235174447,1729114252.3960671,1729114250.2156737,2000
-1578.5248969226957,-187500.02235174447,3105.4172641536315,-187500.02235174447,-187500.02235174447,-187500.02235174447,-187500.02235174447,-187500.02235174447,1729114252.3960695,1729114250.2156737,2000
-1560.0847077470671,-187500.02235174447,3127.746656864483,-187500.02235174447,-187500.02235174447,-187500.02235174447,-187500.02235174447,-187500.02235174447,1729114252.396072,1729114250.2156737,2000
-1359.1872285827671,-187500.02235174447,3155.14989556669,-187500.02235174447,-187500.02235174447,-187500.02235174447,-187500.02235174447,-187500.02235174447,1729114252.3960743,1729114250.2156737,2000
-1350.224179056189,-187500.02235174447,3163.5765032263403,-187500.02235174447,-187500.02235174447,-187500.02235174447,-187500.02235174447,-187500.02235174447,1729114252.396077,1729114250.2156737,2000
-1521.9526317063132,-187500.02235174447,3116.839005570293,-187500.02235174447,-187500.02235174447,-187500.02235174447,-187500.02235174447,-187500.02235174447,1729114252.3960788,1729114250.2156737,2000
-1565.2926642051536,-187500.02235174447,3052.8012577058385,-187500.02235174447,-187500.02235174447,-187500.02235174447,-187500.02235174447,-187500.02235174447,1729114252.3960812,1729114250.2156737,2000
-1352.414650012809,-187500.02235174447,3106.7583688209497,-187500.02235174447,-187500.02235174447,-187500.02235174447,-187500.02235174447,-187500.02235174447,1729114252.3960834,1729114250.2156737,2000
-1334.712068404206,-187500.02235174447,3183.9165906806697,-187500.02235174447,-187500.02235174447,-187500.02235174447,-187500.02235174447,-187500.02235174447,1729114252.3960855,1729114250.2156737,2000
-1511.804939723604,-187500.02235174447,3177.144012110712,-187500.02235174447,-187500.02235174447,-187500.02235174447,-187500.02235174447,-187500.02235174447,1729114252.396088,1729114250.2156737,2000
-1563.9068560489245,-187500.02235174447,3105.5066711314525,-187500.02235174447,-187500.02235174447,-187500.02235174447,-187500.02235174447,-187500.02235174447,1729114252.3960905,1729114250.2156737,2000
-1417.1453019553785,-187500.02235174447,3112.9945055239805,-187500.02235174447,-187500.02235174447,-187500.02235174447,-187500.02235174447,-187500.02235174447,1729114252.3960924,1729114250.2156737,2000
-1295.037721996036,-187500.02235174447,3173.34421555331,-187500.02235174447,-187500.02235174447,-187500.02235174447,-187500.02235174447,-187500.02235174447,1729114252.3960948,1729114250.2156737,2000
-1463.2122472777662,-187500.02235174447,3161.788363669916,-187500.02235174447,-187500.02235174447,-187500.02235174447,-187500.02235174447,-187500.02235174447,1729114252.396097,1729114250.2156737,2000
-1613.214804317332,-187500.02235174447,3080.0927376857685,-187500.02235174447,-187500.02235174447,-187500.02235174447,-187500.02235174447,-187500.02235174447,1729114252.396099,1729114250.2156737,2000
-1434.959642286258,-187500.02235174447,3132.4405232000977,-187500.02235174447,-187500.02235174447,-187500.02235174447,-187500.02235174447,-187500.02235174447,1729114252.3961017,1729114250.2156737,2000
-1281.2019921782007,-187500.02235174447,3217.041875963435,-187500.02235174447,-187500.02235174447,-187500.02235174447,-187500.02235174447,-187500.02235174447,1729114252.396104,1729114250.2156737,2000
-1417.4135228888422,-187500.02235174447,3150.4113257421645,-187500.02235174447,-187500.02235174447,-187500.02235174447,-187500.02235174447,-187500.02235174447,1729114252.396109,1729114250.2156737,2000
-1560.4870391472623,-187500.02235174447,3117.8448340707823,-187500.02235174447,-187500.02235174447,-187500.02235174447,-187500.02235174447,-187500.02235174447,1729114252.3961115,1729114250.2156737,2000
-1448.5047994261745,-187500.02235174447,3154.233474044022,-187500.02235174447,-187500.02235174447,-187500.02235174447,-187500.02235174447,-187500.02235174447,1729114252.3961136,1729114250.2156737,2000
-1302.6373151108403,-187500.02235174447,3155.3734130112425,-187500.02235174447,-187500.02235174447,-187500.02235174447,-187500.02235174447,-187500.02235174447,1729114252.396116,1729114250.2156737,2000
-1401.2979151365655,-187500.02235174447,3109.6417438556846,-187500.02235174447,-187500.02235174447,-187500.02235174447,-187500.02235174447,-187500.02235174447,1729114252.3961184,1729114250.2156737,2000
-1593.3217517521086,-187500.02235174447,3051.035469893869,-187500.02235174447,-187500.02235174447,-187500.02235174447,-187500.02235174447,-187500.02235174447,1729114252.3961203,1729114250.2156737,2000
-1568.1313357509775,-187500.02235174447,3092.0956244582685,-187500.02235174447,-187500.02235174447,-187500.02235174447,-187500.02235174447,-187500.02235174447,1729114252.3961227,1729114250.2156737,2000
-1349.419516255798,-187500.02235174447,3159.709651435572,-187500.02235174447,-187500.02235174447,-187500.02235174447,-187500.02235174447,-187500.02235174447,1729114252.3961253,1729114250.2156737,2000
-1392.156051654345,-187500.02235174447,3155.1945990556,-187500.02235174447,-187500.02235174447,-187500.02235174447,-187500.02235174447,-187500.02235174447,1729114252.3961277,1729114250.2156737,2000
-1577.3849579554746,-187500.02235174447,3120.8399678277933,-187500.02235174447,-187500.02235174447,-187500.02235174447,-187500.02235174447,-187500.02235174447,1729114252.3961298,1729114250.2156737,2000
-1541.7562772937154,-187500.02235174447,3086.2841708998885,-187500.02235174447,-187500.02235174447,-187500.02235174447,-187500.02235174447,-187500.02235174447,1729114252.396132,1729114250.2156737,2000
-1283.1465939458126,-187500.02235174447,3167.264541061466,-187500.02235174447,-187500.02235174447,-187500.02235174447,-187500.02235174447,-187500.02235174447,1729114252.3961344,1729114250.2156737,2000
-1286.9910939921251,-187500.02235174447,3187.87284944926,-187500.02235174447,-187500.02235174447,-187500.02235174447,-187500.02235174447,-187500.02235174447,1729114252.3961363,1729114250.2156737,2000
-1562.632806614972,-187500.02235174447,3134.8992150901813,-187500.02235174447,-187500.02235174447,-187500.02235174447,-187500.02235174447,-187500.02235174447,1729114252.396139,1729114250.2156737,2000
-1562.8563240595252,-187500.02235174447,3105.260801942444,-187500.02235174447,-187500.02235174447,-187500.02235174447,-187500.02235174447,-187500.02235174447,1729114252.3961413,1729114250.2156737,2000
-1358.740193693661,-187500.02235174447,3145.2257210285334,-187500.02235174447,-187500.02235174447,-187500.02235174447,-187500.02235174447,-187500.02235174447,1729114252.3961434,1729114250.2156737,2000
-1280.8890677558263,-187500.02235174447,3180.4073668011865,-187500.02235174447,-187500.02235174447,-187500.02235174447,-187500.02235174447,-187500.02235174447,1729114252.3961456,1729114250.2156737,2000
-1468.8672386249589,-187500.02235174447,3161.72130843655,-187500.02235174447,-187500.02235174447,-187500.02235174447,-187500.02235174447,-187500.02235174447,1729114252.396148,1729114250.2156737,2000
-1621.2614323212424,-187500.02235174447,3083.3337406317883,-187500.02235174447,-187500.02235174447,-187500.02235174447,-187500.02235174447,-187500.02235174447,1729114252.39615,1729114250.2156737,2000
-1402.3931506148758,-187500.02235174447,3128.506616175964,-187500.02235174447,-187500.02235174447,-187500.02235174447,-187500.02235174447,-187500.02235174447,1729114252.3961525,1729114250.2156737,2000
-1331.2028445247229,-187500.02235174447,3162.525971236941,-187500.02235174447,-187500.02235174447,-187500.02235174447,-187500.02235174447,-187500.02235174447,1729114252.3961549,1729114250.2156737,2000
-1520.5444718056287,-187500.02235174447,3099.2481826839667,-187500.02235174447,-187500.02235174447,-187500.02235174447,-187500.02235174447,-187500.02235174447,1729114252.3961573,1729114250.2156737,2000
-1611.8513479055582,-187500.02235174447,3095.984827993492,-187500.02235174447,-187500.02235174447,-187500.02235174447,-187500.02235174447,-187500.02235174447,1729114252.3961592,1729114250.2156737,2000
-1427.2259387047218,-187500.02235174447,3167.756279439483,-187500.02235174447,-187500.02235174447,-187500.02235174447,-187500.02235174447,-187500.02235174447,1729114252.3961616,1729114250.2156737,2000
-1257.5985500333966,-187500.02235174447,3175.847610932304,-187500.02235174447,-187500.02235174447,-187500.02235174447,-187500.02235174447,-187500.02235174447,1729114252.396164,1729114250.2156737,2000
-1422.6214793469287,-187500.02235174447,3118.8059590823605,-187500.02235174447,-187500.02235174447,-187500.02235174447,-187500.02235174447,-187500.02235174447,1729114252.3961663,1729114250.2156737,2000
-1582.8164318581144,-187500.02235174447,3087.2005924225564,-187500.02235174447,-187500.02235174447,-187500.02235174447,-187500.02235174447,-187500.02235174447,1729114252.3961687,1729114250.2156737,2000
-1429.6846305948056,-187500.02235174447,3149.137276308212,-187500.02235174447,-187500.02235174447,-187500.02235174447,-187500.02235174447,-187500.02235174447,1729114252.3961709,1729114250.2156737,2000
-1287.0581492254912,-187500.02235174447,3169.1867910846227,-187500.02235174447,-187500.02235174447,-187500.02235174447,-187500.02235174447,-187500.02235174447,1729114252.3961732,1729114250.2156737,2000
-1420.8556915349593,-187500.02235174447,3133.0663720448465,-187500.02235174447,-187500.02235174447,-187500.02235174447,-187500.02235174447,-187500.02235174447,1729114252.3961756,1729114250.2156737,2000
-1578.7931178561591,-187500.02235174447,3097.6388570831846,-187500.02235174447,-187500.02235174447,-187500.02235174447,-187500.02235174447,-187500.02235174447,1729114252.3961778,1729114250.2156737,2000
-1507.9827914217462,-187500.02235174447,3144.8233896283377,-187500.02235174447,-187500.02235174447,-187500.02235174447,-187500.02235174447,-187500.02235174447,1729114252.39618,1729114250.2156737,2000
-1330.6664026577953,-187500.02235174447,3152.199465298589,-187500.02235174447,-187500.02235174447,-187500.02235174447,-187500.02235174447,-187500.02235174447,1729114252.3961823,1729114250.2156737,2000
-1377.0462724025574,-187500.02235174447,3156.9156833786587,-187500.02235174447,-187500.02235174447,-187500.02235174447,-187500.02235174447,-187500.02235174447,1729114252.3961847,1729114250.2156737,2000
-1569.517143907207,-187500.02235174447,3103.785586808394,-187500.02235174447,-187500.02235174447,-187500.02235174447,-187500.02235174447,-187500.02235174447,1729114252.3961868,1729114250.2156737,2000
-1566.4549549168296,-187500.02235174447,3104.925525775615,-187500.02235174447,-187500.02235174447,-187500.02235174447,-187500.02235174447,-187500.02235174447,1729114252.3961892,1729114250.2156737,2000
-1351.74409767915,-187500.02235174447,3187.738738982527,-187500.02235174447,-187500.02235174447,-187500.02235174447,-187500.02235174447,-187500.02235174447,1729114252.3961914,1729114250.2156737,2000
-1333.035687570058,-187500.02235174447,3143.661098916662,-187500.02235174447,-187500.02235174447,-187500.02235174447,-187500.02235174447,-187500.02235174447,1729114252.3961935,1729114250.2156737,2000
-1522.6008322955172,-187500.02235174447,3099.717569317528,-187500.02235174447,-187500.02235174447,-187500.02235174447,-187500.02235174447,-187500.02235174447,1729114252.396196,1729114250.2156737,2000
-1585.2751237481982,-187500.02235174447,3069.3191968583105,-187500.02235174447,-187500.02235174447,-187500.02235174447,-187500.02235174447,-187500.02235174447,1729114252.3961985,1729114250.2156737,2000
-1391.7090167652389,-187500.02235174447,3127.6348981422066,-187500.02235174447,-187500.02235174447,-187500.02235174447,-187500.02235174447,-187500.02235174447,1729114252.396201,1729114250.2156737,2000
-1343.2057312972229,-187500.02235174447,3141.269462259944,-187500.02235174447,-187500.02235174447,-187500.02235174447,-187500.02235174447,-187500.02235174447,1729114252.3962028,1729114250.2156737,2000
-1488.313256301076,-187500.02235174447,3111.7651595789384,-187500.02235174447,-187500.02235174447,-187500.02235174447,-187500.02235174447,-187500.02235174447,1729114252.3962052,1729114250.2156737,2000
-1596.473347720307,-187500.02235174447,3127.14315976419,-187500.02235174447,-187500.02235174447,-187500.02235174447,-187500.02235174447,-187500.02235174447,1729114252.396207,1729114250.2156737,2000
-1398.3474848684652,-187500.02235174447,3165.1858288271224,-187500.02235174447,-187500.02235174447,-187500.02235174447,-187500.02235174447,-187500.02235174447,1729114252.3962097,1729114250.2156737,2000
-1206.7706831420282,-187500.02235174447,3169.991453885013,-187500.02235174447,-187500.02235174447,-187500.02235174447,-187500.02235174447,-187500.02235174447,1729114252.396212,1729114250.2156737,2000
-1434.512607397152,-187500.02235174447,3195.2042216306,-187500.02235174447,-187500.02235174447,-187500.02235174447,-187500.02235174447,-187500.02235174447,1729114252.3962145,1729114250.2156737,2000
-1643.99315643229,-187500.02235174447,3113.776816579916,-187500.02235174447,-187500.02235174447,-187500.02235174447,-187500.02235174447,-187500.02235174447,1729114252.3962166,1729114250.2156737,2000
-1483.3288172875425,-187500.02235174447,3095.224868682011,-187500.02235174447,-187500.02235174447,-187500.02235174447,-187500.02235174447,-187500.02235174447,1729114252.3962188,1729114250.2156737,2000
-1312.5614896489967,-187500.02235174447,3160.491962491508,-187500.02235174447,-187500.02235174447,-187500.02235174447,-187500.02235174447,-187500.02235174447,1729114252.3962212,1729114250.2156737,2000
