Fp1,Fp2,C3,C4,P7,P8,O1,O2,time_board
0.0,0.0,0.0,0.0,0.0,0.0,0.0,0.0,1731452288.5932553
-5557.224816945174,-187500.02235174447,8178.14566828557,-187500.02235174447,-187500.02235174447,-187500.02235174447,-187500.02235174447,-187500.02235174447,1731452288.610499
-5596.787404631067,-187500.02235174447,8153.402287173544,-187500.02235174447,-187500.02235174447,-187500.02235174447,-187500.02235174447,-187500.02235174447,1731452288.61418
-5628.884509668888,-187500.02235174447,8139.27598467779,-187500.02235174447,-187500.02235174447,-187500.02235174447,-187500.02235174447,-187500.02235174447,1731452288.6187725
-5593.501698196137,-187500.02235174447,8149.848359805151,-187500.02235174447,-187500.02235174447,-187500.02235174447,-187500.02235174447,-187500.02235174447,1731452288.622161
-5555.906064022311,-187500.02235174447,8156.687993608474,-187500.02235174447,-187500.02235174447,-187500.02235174447,-187500.02235174447,-187500.02235174447,1731452288.625228
-5580.492982923149,-187500.02235174447,8151.547092383754,-187500.02235174447,-187500.02235174447,-187500.02235174447,-187500.02235174447,-187500.02235174447,1731452288.6294353
-5613.797082161556,-187500.02235174447,8132.2575369188235,-187500.02235174447,-187500.02235174447,-187500.02235174447,-187500.02235174447,-187500.02235174447,1731452288.633386
-5618.625058963902,-187500.02235174447,8128.524795594788,-187500.02235174447,-187500.02235174447,-187500.02235174447,-187500.02235174447,-187500.02235174447,1731452288.6373787
-5560.979910013665,-187500.02235174447,8172.155400771547,-187500.02235174447,-187500.02235174447,-187500.02235174447,-187500.02235174447,-187500.02235174447,1731452288.6414003
-5554.3861453993495,-187500.02235174447,8167.059203035737,-187500.02235174447,-187500.02235174447,-187500.02235174447,-187500.02235174447,-187500.02235174447,1731452288.6452515
-5614.646448450858,-187500.02235174447,8141.913490523517,-187500.02235174447,-187500.02235174447,-187500.02235174447,-187500.02235174447,-187500.02235174447,1731452288.6495264
-5630.292669569572,-187500.02235174447,8147.210853959425,-187500.02235174447,-187500.02235174447,-187500.02235174447,-187500.02235174447,-187500.02235174447,1731452288.6533504
-5574.256846220118,-187500.02235174447,8165.963967557427,-187500.02235174447,-187500.02235174447,-187500.02235174447,-187500.02235174447,-187500.02235174447,1731452288.6564353
-5570.8817328073665,-187500.02235174447,8151.860016806128,-187500.02235174447,-187500.02235174447,-187500.02235174447,-187500.02235174447,-187500.02235174447,1731452288.660366
-5619.8767566534,-187500.02235174447,8123.763874025807,-187500.02235174447,-187500.02235174447,-187500.02235174447,-187500.02235174447,-187500.02235174447,1731452288.6654105
-5626.828149179,-187500.02235174447,8127.004876971827,-187500.02235174447,-187500.02235174447,-187500.02235174447,-187500.02235174447,-187500.02235174447,1731452288.6694727
-5576.737889854657,-187500.02235174447,8149.177807471491,-187500.02235174447,-187500.02235174447,-187500.02235174447,-187500.02235174447,-187500.02235174447,1731452288.6735103
-5563.371546670383,-187500.02235174447,8142.494635879355,-187500.02235174447,-187500.02235174447,-187500.02235174447,-187500.02235174447,-187500.02235174447,1731452288.6775088
-5611.360742015928,-187500.02235174447,8121.752217024829,-187500.02235174447,-187500.02235174447,-187500.02235174447,-187500.02235174447,-187500.02235174447,1731452288.6815174
-5629.555062002548,-187500.02235174447,8126.84841476064,-187500.02235174447,-187500.02235174447,-187500.02235174447,-187500.02235174447,-187500.02235174447,1731452288.68453
-5587.1985062597405,-187500.02235174447,8136.057333476226,-187500.02235174447,-187500.02235174447,-187500.02235174447,-187500.02235174447,-187500.02235174447,1731452288.688367
-5562.05279374752,-187500.02235174447,8135.319725909201,-187500.02235174447,-187500.02235174447,-187500.02235174447,-187500.02235174447,-187500.02235174447,1731452288.6935306
-5609.416140248316,-187500.02235174447,8123.093321692148,-187500.02235174447,-187500.02235174447,-187500.02235174447,-187500.02235174447,-187500.02235174447,1731452288.6975763
-5635.746495216667,-187500.02235174447,8114.420844843489,-187500.02235174447,-187500.02235174447,-187500.02235174447,-187500.02235174447,-187500.02235174447,1731452288.7015743
-5573.027500275076,-187500.02235174447,8127.94365023895,-187500.02235174447,-187500.02235174447,-187500.02235174447,-187500.02235174447,-187500.02235174447,1731452288.704533
-5535.498921334615,-187500.02235174447,8130.3129351512125,-187500.02235174447,-187500.02235174447,-187500.02235174447,-187500.02235174447,-187500.02235174447,1731452288.708507
-5606.733930913679,-187500.02235174447,8119.829967001673,-187500.02235174447,-187500.02235174447,-187500.02235174447,-187500.02235174447,-187500.02235174447,1731452288.712518
-5655.259568126151,-187500.02235174447,8118.421807100989,-187500.02235174447,-187500.02235174447,-187500.02235174447,-187500.02235174447,-187500.02235174447,1731452288.7165518
-5625.799968934056,-187500.02235174447,8125.686124048963,-187500.02235174447,-187500.02235174447,-187500.02235174447,-187500.02235174447,-187500.02235174447,1731452288.7215605
-5580.24711373414,-187500.02235174447,8132.481054363377,-187500.02235174447,-187500.02235174447,-187500.02235174447,-187500.02235174447,-187500.02235174447,1731452288.7255375
-5582.526991668581,-187500.02235174447,8129.530624095277,-187500.02235174447,-187500.02235174447,-187500.02235174447,-187500.02235174447,-187500.02235174447,1731452288.7295167
-5627.968088146221,-187500.02235174447,8115.247859388335,-187500.02235174447,-187500.02235174447,-187500.02235174447,-187500.02235174447,-187500.02235174447,1731452288.732566
-5609.9749338596985,-187500.02235174447,8120.545222824243,-187500.02235174447,-187500.02235174447,-187500.02235174447,-187500.02235174447,-187500.02235174447,1731452288.7364275
-5569.071241506486,-187500.02235174447,8141.913490523517,-187500.02235174447,-187500.02235174447,-187500.02235174447,-187500.02235174447,-187500.02235174447,1731452288.740597
-5578.280160222073,-187500.02235174447,8138.046638732749,-187500.02235174447,-187500.02235174447,-187500.02235174447,-187500.02235174447,-187500.02235174447,1731452288.744624
-5617.641582207869,-187500.02235174447,8117.192461155947,-187500.02235174447,-187500.02235174447,-187500.02235174447,-187500.02235174447,-187500.02235174447,1731452288.748652
-5611.450148993748,-187500.02235174447,8117.326571622679,-187500.02235174447,-187500.02235174447,-187500.02235174447,-187500.02235174447,-187500.02235174447,1731452288.7536976
-5568.221875217185,-187500.02235174447,8137.867824777106,-187500.02235174447,-187500.02235174447,-187500.02235174447,-187500.02235174447,-187500.02235174447,1731452288.7576842
-5571.395822929839,-187500.02235174447,8140.795903300751,-187500.02235174447,-187500.02235174447,-187500.02235174447,-187500.02235174447,-187500.02235174447,1731452288.7606692
-5618.021561863609,-187500.02235174447,8120.008780957316,-187500.02235174447,-187500.02235174447,-187500.02235174447,-187500.02235174447,-187500.02235174447,1731452288.7656105
-5625.1741200893075,-187500.02235174447,8108.408225585012,-187500.02235174447,-187500.02235174447,-187500.02235174447,-187500.02235174447,-187500.02235174447,1731452288.7696593
-5570.05471826252,-187500.02235174447,8114.979638454872,-187500.02235174447,-187500.02235174447,-187500.02235174447,-187500.02235174447,-187500.02235174447,1731452288.772673
-5571.194657229741,-187500.02235174447,8118.13123442307,-187500.02235174447,-187500.02235174447,-187500.02235174447,-187500.02235174447,-187500.02235174447,1731452288.7766457
-5614.691151939768,-187500.02235174447,8125.775531026785,-187500.02235174447,-187500.02235174447,-187500.02235174447,-187500.02235174447,-187500.02235174447,1731452288.7807171
-5620.770826431612,-187500.02235174447,8121.6851617914635,-187500.02235174447,-187500.02235174447,-187500.02235174447,-187500.02235174447,-187500.02235174447,1731452288.7847183
-5586.729119626179,-187500.02235174447,8129.687086306463,-187500.02235174447,-187500.02235174447,-187500.02235174447,-187500.02235174447,-187500.02235174447,1731452288.7887485
-5576.357910198916,-187500.02235174447,8132.883385763573,-187500.02235174447,-187500.02235174447,-187500.02235174447,-187500.02235174447,-187500.02235174447,1731452288.7937512
-5607.53859371407,-187500.02235174447,8116.767778011296,-187500.02235174447,-187500.02235174447,-187500.02235174447,-187500.02235174447,-187500.02235174447,1731452288.797752
-5623.92242239981,-187500.02235174447,8106.664789517497,-187500.02235174447,-187500.02235174447,-187500.02235174447,-187500.02235174447,-187500.02235174447,1731452288.8007758
-5602.889430867366,-187500.02235174447,8112.766815753796,-187500.02235174447,-187500.02235174447,-187500.02235174447,-187500.02235174447,-187500.02235174447,1731452288.8047354
-5566.0090525161095,-187500.02235174447,8127.586022327665,-187500.02235174447,-187500.02235174447,-187500.02235174447,-187500.02235174447,-187500.02235174447,1731452288.8086824
-5589.3666254719055,-187500.02235174447,8115.896059977539,-187500.02235174447,-187500.02235174447,-187500.02235174447,-187500.02235174447,-187500.02235174447,1731452288.8127177
-5627.655163723846,-187500.02235174447,8097.612333013098,-187500.02235174447,-187500.02235174447,-187500.02235174447,-187500.02235174447,-187500.02235174447,1731452288.816622
-5616.613401962924,-187500.02235174447,8105.815423228196,-187500.02235174447,-187500.02235174447,-187500.02235174447,-187500.02235174447,-187500.02235174447,1731452288.8207166
-5582.10230852393,-187500.02235174447,8138.024286988293,-187500.02235174447,-187500.02235174447,-187500.02235174447,-187500.02235174447,-187500.02235174447,1731452288.825838
-5598.687302909769,-187500.02235174447,8130.871728762595,-187500.02235174447,-187500.02235174447,-187500.02235174447,-187500.02235174447,-187500.02235174447,1731452288.8286936
-5647.637623266891,-187500.02235174447,8098.193478368936,-187500.02235174447,-187500.02235174447,-187500.02235174447,-187500.02235174447,-187500.02235174447,1731452288.8327785
-5630.784407947589,-187500.02235174447,8100.428652814467,-187500.02235174447,-187500.02235174447,-187500.02235174447,-187500.02235174447,-187500.02235174447,1731452288.8366275
-5574.05568052002,-187500.02235174447,8121.528699580276,-187500.02235174447,-187500.02235174447,-187500.02235174447,-187500.02235174447,-187500.02235174447,1731452288.8407388
-5575.955578798721,-187500.02235174447,8131.050542718237,-187500.02235174447,-187500.02235174447,-187500.02235174447,-187500.02235174447,-187500.02235174447,1731452288.8446417
-5621.01669562062,-187500.02235174447,8112.699760520431,-187500.02235174447,-187500.02235174447,-187500.02235174447,-187500.02235174447,-187500.02235174447,1731452288.8487391
-5626.962259645732,-187500.02235174447,8106.038940672749,-187500.02235174447,-187500.02235174447,-187500.02235174447,-187500.02235174447,-187500.02235174447,1731452288.853815
-5577.587256143958,-187500.02235174447,8126.3790281270785,-187500.02235174447,-187500.02235174447,-187500.02235174447,-187500.02235174447,-187500.02235174447,1731452288.8565948
-5553.581482598959,-187500.02235174447,8124.724999037386,-187500.02235174447,-187500.02235174447,-187500.02235174447,-187500.02235174447,-187500.02235174447,1731452288.8607566
-5616.412236262827,-187500.02235174447,8103.043806915737,-187500.02235174447,-187500.02235174447,-187500.02235174447,-187500.02235174447,-187500.02235174447,1731452288.864768
-5642.943756931277,-187500.02235174447,8104.809594727707,-187500.02235174447,-187500.02235174447,-187500.02235174447,-187500.02235174447,-187500.02235174447,1731452288.8688216
-5587.511430682115,-187500.02235174447,8115.940763466449,-187500.02235174447,-187500.02235174447,-187500.02235174447,-187500.02235174447,-187500.02235174447,1731452288.8727765
-5552.262729676096,-187500.02235174447,8113.459719831911,-187500.02235174447,-187500.02235174447,-187500.02235174447,-187500.02235174447,-187500.02235174447,1731452288.8767283
-5596.161555786319,-187500.02235174447,8092.516135277288,-187500.02235174447,-187500.02235174447,-187500.02235174447,-187500.02235174447,-187500.02235174447,1731452288.8808136
-5645.35774533245,-187500.02235174447,8105.346036594634,-187500.02235174447,-187500.02235174447,-187500.02235174447,-187500.02235174447,-187500.02235174447,1731452288.8839705
-5606.398654746849,-187500.02235174447,8134.827987531185,-187500.02235174447,-187500.02235174447,-187500.02235174447,-187500.02235174447,-187500.02235174447,1731452288.8889327
-5567.059584505509,-187500.02235174447,8138.1807491994805,-187500.02235174447,-187500.02235174447,-187500.02235174447,-187500.02235174447,-187500.02235174447,1731452288.8928587
-5600.095462810453,-187500.02235174447,8114.89023147705,-187500.02235174447,-187500.02235174447,-187500.02235174447,-187500.02235174447,-187500.02235174447,1731452288.8969252
-5633.667782982324,-187500.02235174447,8099.288713847246,-187500.02235174447,-187500.02235174447,-187500.02235174447,-187500.02235174447,-187500.02235174447,1731452288.9009416
-5604.811680890522,-187500.02235174447,8105.256629616813,-187500.02235174447,-187500.02235174447,-187500.02235174447,-187500.02235174447,-187500.02235174447,1731452288.9049435
-5569.495924651137,-187500.02235174447,8113.638533787554,-187500.02235174447,-187500.02235174447,-187500.02235174447,-187500.02235174447,-187500.02235174447,1731452288.9089186
-5592.272352251095,-187500.02235174447,8101.210963870402,-187500.02235174447,-187500.02235174447,-187500.02235174447,-187500.02235174447,-187500.02235174447,1731452288.9118342
-5635.075942883008,-187500.02235174447,8082.4578502724,-187500.02235174447,-187500.02235174447,-187500.02235174447,-187500.02235174447,-187500.02235174447,1731452288.9166825
-5609.259678037129,-187500.02235174447,8099.445176058433,-187500.02235174447,-187500.02235174447,-187500.02235174447,-187500.02235174447,-187500.02235174447,1731452288.9208212
-5565.047927504531,-187500.02235174447,8116.007818699815,-187500.02235174447,-187500.02235174447,-187500.02235174447,-187500.02235174447,-187500.02235174447,1731452288.9249055
-5582.437584690761,-187500.02235174447,8117.013647200304,-187500.02235174447,-187500.02235174447,-187500.02235174447,-187500.02235174447,-187500.02235174447,1731452288.928723
-5608.8573466369335,-187500.02235174447,8101.210963870402,-187500.02235174447,-187500.02235174447,-187500.02235174447,-187500.02235174447,-187500.02235174447,1731452288.9328961
-5592.428814462282,-187500.02235174447,8098.595809769132,-187500.02235174447,-187500.02235174447,-187500.02235174447,-187500.02235174447,-187500.02235174447,1731452288.9368193
-5569.0041862731205,-187500.02235174447,8119.9864292128605,-187500.02235174447,-187500.02235174447,-187500.02235174447,-187500.02235174447,-187500.02235174447,1731452288.9399016
-5586.639712648358,-187500.02235174447,8123.495653092344,-187500.02235174447,-187500.02235174447,-187500.02235174447,-187500.02235174447,-187500.02235174447,1731452288.9439173
-5628.482178268692,-187500.02235174447,8102.239144115347,-187500.02235174447,-187500.02235174447,-187500.02235174447,-187500.02235174447,-187500.02235174447,1731452288.9489105
-5628.593936990969,-187500.02235174447,8103.401434827022,-187500.02235174447,-187500.02235174447,-187500.02235174447,-187500.02235174447,-187500.02235174447,1731452288.952964
-5587.422023704294,-187500.02235174447,8117.371275111589,-187500.02235174447,-187500.02235174447,-187500.02235174447,-187500.02235174447,-187500.02235174447,1731452288.9569523
-5579.196581744741,-187500.02235174447,8117.661847789508,-187500.02235174447,-187500.02235174447,-187500.02235174447,-187500.02235174447,-187500.02235174447,1731452288.9609475
-5619.0720938530085,-187500.02235174447,8101.680350503964,-187500.02235174447,-187500.02235174447,-187500.02235174447,-187500.02235174447,-187500.02235174447,1731452288.9639497
-5629.01862013562,-187500.02235174447,8101.523888292777,-187500.02235174447,-187500.02235174447,-187500.02235174447,-187500.02235174447,-187500.02235174447,1731452288.9679446
-5584.337482969461,-187500.02235174447,8108.6540947740195,-187500.02235174447,-187500.02235174447,-187500.02235174447,-187500.02235174447,-187500.02235174447,1731452288.972041
-5567.10428799442,-187500.02235174447,8096.785318468252,-187500.02235174447,-187500.02235174447,-187500.02235174447,-187500.02235174447,-187500.02235174447,1731452288.9769404
-5609.192622803763,-187500.02235174447,8088.090489875137,-187500.02235174447,-187500.02235174447,-187500.02235174447,-187500.02235174447,-187500.02235174447,1731452288.981048
-5631.656125981346,-187500.02235174447,8102.932048193461,-187500.02235174447,-187500.02235174447,-187500.02235174447,-187500.02235174447,-187500.02235174447,1731452288.9850533
-5598.553192443036,-187500.02235174447,8110.799862241729,-187500.02235174447,-187500.02235174447,-187500.02235174447,-187500.02235174447,-187500.02235174447,1731452288.9890735
-5569.317110695495,-187500.02235174447,8119.695856534941,-187500.02235174447,-187500.02235174447,-187500.02235174447,-187500.02235174447,-187500.02235174447,1731452288.991986
-5600.833070377478,-187500.02235174447,8110.039902930249,-187500.02235174447,-187500.02235174447,-187500.02235174447,-187500.02235174447,-187500.02235174447,1731452288.9962544
-5635.746495216667,-187500.02235174447,8101.523888292777,-187500.02235174447,-187500.02235174447,-187500.02235174447,-187500.02235174447,-187500.02235174447,1731452289.0000796
-5597.636770920369,-187500.02235174447,8107.625914529075,-187500.02235174447,-187500.02235174447,-187500.02235174447,-187500.02235174447,-187500.02235174447,1731452289.0040755
-5553.201502943219,-187500.02235174447,8119.159414668014,-187500.02235174447,-187500.02235174447,-187500.02235174447,-187500.02235174447,-187500.02235174447,1731452289.00902
-5583.4434131912485,-187500.02235174447,8105.614257528098,-187500.02235174447,-187500.02235174447,-187500.02235174447,-187500.02235174447,-187500.02235174447,1731452289.013086
-5630.695000969768,-187500.02235174447,8091.733824221352,-187500.02235174447,-187500.02235174447,-187500.02235174447,-187500.02235174447,-187500.02235174447,1731452289.0161753
-5604.811680890522,-187500.02235174447,8101.568591781687,-187500.02235174447,-187500.02235174447,-187500.02235174447,-187500.02235174447,-187500.02235174447,1731452289.0199416
-5572.7592793416125,-187500.02235174447,8121.305182135723,-187500.02235174447,-187500.02235174447,-187500.02235174447,-187500.02235174447,-187500.02235174447,1731452289.024099
-5587.91376208231,-187500.02235174447,8126.5578420827205,-187500.02235174447,-187500.02235174447,-187500.02235174447,-187500.02235174447,-187500.02235174447,1731452289.0281458
-5631.007925392142,-187500.02235174447,8099.668693502987,-187500.02235174447,-187500.02235174447,-187500.02235174447,-187500.02235174447,-187500.02235174447,1731452289.0330906
-5626.425817778804,-187500.02235174447,8096.718263234886,-187500.02235174447,-187500.02235174447,-187500.02235174447,-187500.02235174447,-187500.02235174447,1731452289.0370495
-5580.872962578888,-187500.02235174447,8111.313952364201,-187500.02235174447,-187500.02235174447,-187500.02235174447,-187500.02235174447,-187500.02235174447,1731452289.0410461
-5577.900180566333,-187500.02235174447,8111.001027941827,-187500.02235174447,-187500.02235174447,-187500.02235174447,-187500.02235174447,-187500.02235174447,1731452289.04407
-5622.044875865564,-187500.02235174447,8093.924295177972,-187500.02235174447,-187500.02235174447,-187500.02235174447,-187500.02235174447,-187500.02235174447,1731452289.04814
-5629.376248046905,-187500.02235174447,8086.12353636307,-187500.02235174447,-187500.02235174447,-187500.02235174447,-187500.02235174447,-187500.02235174447,1731452289.0521228
-5588.986645816165,-187500.02235174447,8101.79210922624,-187500.02235174447,-187500.02235174447,-187500.02235174447,-187500.02235174447,-187500.02235174447,1731452289.056178
-5560.24230244664,-187500.02235174447,8104.69783600543,-187500.02235174447,-187500.02235174447,-187500.02235174447,-187500.02235174447,-187500.02235174447,1731452289.0602047
-5608.455015236737,-187500.02235174447,8082.636664228042,-187500.02235174447,-187500.02235174447,-187500.02235174447,-187500.02235174447,-187500.02235174447,1731452289.0651703
-5634.830073694,-187500.02235174447,8086.704681718908,-187500.02235174447,-187500.02235174447,-187500.02235174447,-187500.02235174447,-187500.02235174447,1731452289.0691857
-5608.410311747827,-187500.02235174447,8102.328551093167,-187500.02235174447,-187500.02235174447,-187500.02235174447,-187500.02235174447,-187500.02235174447,1731452289.072173
-5577.140221254853,-187500.02235174447,8123.875632748084,-187500.02235174447,-187500.02235174447,-187500.02235174447,-187500.02235174447,-187500.02235174447,1731452289.0762005
-5602.911782611822,-187500.02235174447,8111.738635508852,-187500.02235174447,-187500.02235174447,-187500.02235174447,-187500.02235174447,-187500.02235174447,1731452289.0802028
-5640.216844107729,-187500.02235174447,8102.4626615599,-187500.02235174447,-187500.02235174447,-187500.02235174447,-187500.02235174447,-187500.02235174447,1731452289.0842395
-5604.521108212603,-187500.02235174447,8117.326571622679,-187500.02235174447,-187500.02235174447,-187500.02235174447,-187500.02235174447,-187500.02235174447,1731452289.0882165
-5560.823447802478,-187500.02235174447,8122.311010636212,-187500.02235174447,-187500.02235174447,-187500.02235174447,-187500.02235174447,-187500.02235174447,1731452289.0932024
-5581.699977123735,-187500.02235174447,8100.227487114369,-187500.02235174447,-187500.02235174447,-187500.02235174447,-187500.02235174447,-187500.02235174447,1731452289.0972335
-5646.520036044126,-187500.02235174447,8083.262513072791,-187500.02235174447,-187500.02235174447,-187500.02235174447,-187500.02235174447,-187500.02235174447,1731452289.100232
-5626.49287301217,-187500.02235174447,8117.1701094114915,-187500.02235174447,-187500.02235174447,-187500.02235174447,-187500.02235174447,-187500.02235174447,1731452289.104142
-5574.681529364769,-187500.02235174447,8130.335286895667,-187500.02235174447,-187500.02235174447,-187500.02235174447,-187500.02235174447,-187500.02235174447,1731452289.1081529
-5587.466727193204,-187500.02235174447,8120.388760613056,-187500.02235174447,-187500.02235174447,-187500.02235174447,-187500.02235174447,-187500.02235174447,1731452289.11214
-5631.343201558972,-187500.02235174447,8101.702702248419,-187500.02235174447,-187500.02235174447,-187500.02235174447,-187500.02235174447,-187500.02235174447,1731452289.1161656
-5617.082788596486,-187500.02235174447,8109.056426174216,-187500.02235174447,-187500.02235174447,-187500.02235174447,-187500.02235174447,-187500.02235174447,1731452289.1211393
-5568.847724061933,-187500.02235174447,8123.786225770263,-187500.02235174447,-187500.02235174447,-187500.02235174447,-187500.02235174447,-187500.02235174447,1731452289.124191
-5572.669872363791,-187500.02235174447,8117.952420467427,-187500.02235174447,-187500.02235174447,-187500.02235174447,-187500.02235174447,-187500.02235174447,1731452289.127194
-5617.373361274405,-187500.02235174447,8100.830984214662,-187500.02235174447,-187500.02235174447,-187500.02235174447,-187500.02235174447,-187500.02235174447,1731452289.13221
-5616.903974640843,-187500.02235174447,8109.503461063321,-187500.02235174447,-187500.02235174447,-187500.02235174447,-187500.02235174447,-187500.02235174447,1731452289.136151
-5570.077070006975,-187500.02235174447,8127.563670583209,-187500.02235174447,-187500.02235174447,-187500.02235174447,-187500.02235174447,-187500.02235174447,1731452289.1402223
-5553.045040732031,-187500.02235174447,8122.1545484250255,-187500.02235174447,-187500.02235174447,-187500.02235174447,-187500.02235174447,-187500.02235174447,1731452289.1442847
-5609.34908501495,-187500.02235174447,8100.182783625458,-187500.02235174447,-187500.02235174447,-187500.02235174447,-187500.02235174447,-187500.02235174447,1731452289.1484103
-5636.0370678945865,-187500.02235174447,8102.909696449005,-187500.02235174447,-187500.02235174447,-187500.02235174447,-187500.02235174447,-187500.02235174447,1731452289.1523852
-5587.600837659936,-187500.02235174447,8129.932955495472,-187500.02235174447,-187500.02235174447,-187500.02235174447,-187500.02235174447,-187500.02235174447,1731452289.1553087
-5570.166476984797,-187500.02235174447,8128.971830483893,-187500.02235174447,-187500.02235174447,-187500.02235174447,-187500.02235174447,-187500.02235174447,1731452289.160336
-5612.388922260871,-187500.02235174447,8111.492766319843,-187500.02235174447,-187500.02235174447,-187500.02235174447,-187500.02235174447,-187500.02235174447,1731452289.1642928
-5639.389829562882,-187500.02235174447,8112.900926220528,-187500.02235174447,-187500.02235174447,-187500.02235174447,-187500.02235174447,-187500.02235174447,1731452289.1682923
-5599.9390005992655,-187500.02235174447,8131.318763651701,-187500.02235174447,-187500.02235174447,-187500.02235174447,-187500.02235174447,-187500.02235174447,1731452289.1723013
-5568.423040917282,-187500.02235174447,8133.79980728624,-187500.02235174447,-187500.02235174447,-187500.02235174447,-187500.02235174447,-187500.02235174447,1731452289.1763203
-5604.074073323497,-187500.02235174447,8115.426673343978,-187500.02235174447,-187500.02235174447,-187500.02235174447,-187500.02235174447,-187500.02235174447,1731452289.180319
-5636.30528882805,-187500.02235174447,8104.183745882959,-187500.02235174447,-187500.02235174447,-187500.02235174447,-187500.02235174447,-187500.02235174447,1731452289.1833572
-5606.845689635956,-187500.02235174447,8112.856222731617,-187500.02235174447,-187500.02235174447,-187500.02235174447,-187500.02235174447,-187500.02235174447,1731452289.1882775
-5567.014881016598,-187500.02235174447,8127.4966153498435,-187500.02235174447,-187500.02235174447,-187500.02235174447,-187500.02235174447,-187500.02235174447,1731452289.192315
-5592.719387140201,-187500.02235174447,8110.4645860749,-187500.02235174447,-187500.02235174447,-187500.02235174447,-187500.02235174447,-187500.02235174447,1731452289.1962273
-5636.439399294782,-187500.02235174447,8088.872800931073,-187500.02235174447,-187500.02235174447,-187500.02235174447,-187500.02235174447,-187500.02235174447,1731452289.2003472
-5599.983704088176,-187500.02235174447,8103.602600527121,-187500.02235174447,-187500.02235174447,-187500.02235174447,-187500.02235174447,-187500.02235174447,1731452289.2042646
-5556.353098911417,-187500.02235174447,8119.3382286236565,-187500.02235174447,-187500.02235174447,-187500.02235174447,-187500.02235174447,-187500.02235174447,1731452289.2083616
-5597.100329053442,-187500.02235174447,8108.408225585012,-187500.02235174447,-187500.02235174447,-187500.02235174447,-187500.02235174447,-187500.02235174447,1731452289.2112548
-5644.173102876318,-187500.02235174447,8110.822213986185,-187500.02235174447,-187500.02235174447,-187500.02235174447,-187500.02235174447,-187500.02235174447,1731452289.216301
-5615.92049788481,-187500.02235174447,8117.572440811688,-187500.02235174447,-187500.02235174447,-187500.02235174447,-187500.02235174447,-187500.02235174447,1731452289.2203104
-5557.895369278833,-187500.02235174447,8126.222565915891,-187500.02235174447,-187500.02235174447,-187500.02235174447,-187500.02235174447,-187500.02235174447,1731452289.2244155
-5575.463840420704,-187500.02235174447,8122.17690016948,-187500.02235174447,-187500.02235174447,-187500.02235174447,-187500.02235174447,-187500.02235174447,1731452289.2284467
-5635.813550450033,-187500.02235174447,8120.65698154652,-187500.02235174447,-187500.02235174447,-187500.02235174447,-187500.02235174447,-187500.02235174447,1731452289.2324667
-5627.54340500157,-187500.02235174447,8116.499557077833,-187500.02235174447,-187500.02235174447,-187500.02235174447,-187500.02235174447,-187500.02235174447,1731452289.2362404
-5573.094555508442,-187500.02235174447,8126.84841476064,-187500.02235174447,-187500.02235174447,-187500.02235174447,-187500.02235174447,-187500.02235174447,1731452289.2393763
-5569.71944209569,-187500.02235174447,8126.490786849355,-187500.02235174447,-187500.02235174447,-187500.02235174447,-187500.02235174447,-187500.02235174447,1731452289.2444353
-5615.20524206224,-187500.02235174447,8117.661847789508,-187500.02235174447,-187500.02235174447,-187500.02235174447,-187500.02235174447,-187500.02235174447,1731452289.24839
-5626.984611390187,-187500.02235174447,8115.426673343978,-187500.02235174447,-187500.02235174447,-187500.02235174447,-187500.02235174447,-187500.02235174447,1731452289.2523944
-5580.783555601068,-187500.02235174447,8129.418865373,-187500.02235174447,-187500.02235174447,-187500.02235174447,-187500.02235174447,-187500.02235174447,1731452289.2563705
-5561.33753792495,-187500.02235174447,8132.70457180793,-187500.02235174447,-187500.02235174447,-187500.02235174447,-187500.02235174447,-187500.02235174447,1731452289.2594123
-5603.269410523107,-187500.02235174447,8114.689065776953,-187500.02235174447,-187500.02235174447,-187500.02235174447,-187500.02235174447,-187500.02235174447,1731452289.2634432
-5620.59201247597,-187500.02235174447,8098.953437680417,-187500.02235174447,-187500.02235174447,-187500.02235174447,-187500.02235174447,-187500.02235174447,1731452289.2674103
-5578.369567199894,-187500.02235174447,8105.569554039187,-187500.02235174447,-187500.02235174447,-187500.02235174447,-187500.02235174447,-187500.02235174447,1731452289.2714217
-5566.500790894126,-187500.02235174447,8125.6190688155975,-187500.02235174447,-187500.02235174447,-187500.02235174447,-187500.02235174447,-187500.02235174447,1731452289.2763836
-5602.822375634,-187500.02235174447,8119.472339090388,-187500.02235174447,-187500.02235174447,-187500.02235174447,-187500.02235174447,-187500.02235174447,1731452289.2804315
-5638.11578012893,-187500.02235174447,8100.4957080478325,-187500.02235174447,-187500.02235174447,-187500.02235174447,-187500.02235174447,-187500.02235174447,1731452289.2844372
-5601.101291310942,-187500.02235174447,8115.203155899425,-187500.02235174447,-187500.02235174447,-187500.02235174447,-187500.02235174447,-187500.02235174447,1731452289.2874324
-5549.468761619182,-187500.02235174447,8129.687086306463,-187500.02235174447,-187500.02235174447,-187500.02235174447,-187500.02235174447,-187500.02235174447,1731452289.291449
-5587.399671959838,-187500.02235174447,8120.053484446226,-187500.02235174447,-187500.02235174447,-187500.02235174447,-187500.02235174447,-187500.02235174447,1731452289.2953997
-5635.679439983302,-187500.02235174447,8109.525812807777,-187500.02235174447,-187500.02235174447,-187500.02235174447,-187500.02235174447,-187500.02235174447,1731452289.299477
-5612.590087960969,-187500.02235174447,8121.752217024829,-187500.02235174447,-187500.02235174447,-187500.02235174447,-187500.02235174447,-187500.02235174447,1731452289.304331
-5561.158723969308,-187500.02235174447,8135.699705564941,-187500.02235174447,-187500.02235174447,-187500.02235174447,-187500.02235174447,-187500.02235174447,1731452289.3084593
-5574.994453787142,-187500.02235174447,8119.785263512763,-187500.02235174447,-187500.02235174447,-187500.02235174447,-187500.02235174447,-187500.02235174447,1731452289.3124957
-5630.024448636109,-187500.02235174447,8091.018568398782,-187500.02235174447,-187500.02235174447,-187500.02235174447,-187500.02235174447,-187500.02235174447,1731452289.315446
-5605.1022535684415,-187500.02235174447,8086.101184618615,-187500.02235174447,-187500.02235174447,-187500.02235174447,-187500.02235174447,-187500.02235174447,1731452289.319526
-5559.415287901794,-187500.02235174447,8108.989370940849,-187500.02235174447,-187500.02235174447,-187500.02235174447,-187500.02235174447,-187500.02235174447,1731452289.3234413
-5582.459936435215,-187500.02235174447,8131.117597951603,-187500.02235174447,-187500.02235174447,-187500.02235174447,-187500.02235174447,-187500.02235174447,1731452289.3275325
-5631.834939936989,-187500.02235174447,8122.825100758684,-187500.02235174447,-187500.02235174447,-187500.02235174447,-187500.02235174447,-187500.02235174447,1731452289.3315625
-5637.042896395075,-187500.02235174447,8115.56078381071,-187500.02235174447,-187500.02235174447,-187500.02235174447,-187500.02235174447,-187500.02235174447,1731452289.3363392
-5586.237381248162,-187500.02235174447,8123.093321692148,-187500.02235174447,-187500.02235174447,-187500.02235174447,-187500.02235174447,-187500.02235174447,1731452289.3405688
-5571.619340374392,-187500.02235174447,8128.793016528251,-187500.02235174447,-187500.02235174447,-187500.02235174447,-187500.02235174447,-187500.02235174447,1731452289.3435645
-5613.506509483637,-187500.02235174447,8106.12834765057,-187500.02235174447,-187500.02235174447,-187500.02235174447,-187500.02235174447,-187500.02235174447,1731452289.3476045
-5630.896166669866,-187500.02235174447,8101.970923181882,-187500.02235174447,-187500.02235174447,-187500.02235174447,-187500.02235174447,-187500.02235174447,1731452289.35137
-5579.0401195335535,-187500.02235174447,8132.615164830109,-187500.02235174447,-187500.02235174447,-187500.02235174447,-187500.02235174447,-187500.02235174447,1731452289.3553603
-5552.9109302653,-187500.02235174447,8140.080647478181,-187500.02235174447,-187500.02235174447,-187500.02235174447,-187500.02235174447,-187500.02235174447,1731452289.3595037
-5598.39673023185,-187500.02235174447,8128.278926405779,-187500.02235174447,-187500.02235174447,-187500.02235174447,-187500.02235174447,-187500.02235174447,1731452289.3644743
-5619.697942697757,-187500.02235174447,8122.51217633631,-187500.02235174447,-187500.02235174447,-187500.02235174447,-187500.02235174447,-187500.02235174447,1731452289.367396
-5584.471593436193,-187500.02235174447,8131.586984585165,-187500.02235174447,-187500.02235174447,-187500.02235174447,-187500.02235174447,-187500.02235174447,1731452289.3715832
-5553.33561340995,-187500.02235174447,8135.632650331575,-187500.02235174447,-187500.02235174447,-187500.02235174447,-187500.02235174447,-187500.02235174447,1731452289.3753932
-5581.789384101557,-187500.02235174447,8115.22550764388,-187500.02235174447,-187500.02235174447,-187500.02235174447,-187500.02235174447,-187500.02235174447,1731452289.3796756
-5611.606611204936,-187500.02235174447,8096.740614979341,-187500.02235174447,-187500.02235174447,-187500.02235174447,-187500.02235174447,-187500.02235174447,1731452289.3836524
-5595.423948219293,-187500.02235174447,8109.682275018964,-187500.02235174447,-187500.02235174447,-187500.02235174447,-187500.02235174447,-187500.02235174447,1731452289.387436
-5586.371491714895,-187500.02235174447,8141.309993423223,-187500.02235174447,-187500.02235174447,-187500.02235174447,-187500.02235174447,-187500.02235174447,1731452289.392412
-5598.307323254028,-187500.02235174447,8140.5276823672875,-187500.02235174447,-187500.02235174447,-187500.02235174447,-187500.02235174447,-187500.02235174447,1731452289.395396
-5628.750399202157,-187500.02235174447,8123.786225770263,-187500.02235174447,-187500.02235174447,-187500.02235174447,-187500.02235174447,-187500.02235174447,1731452289.3995726
-5613.2606402946285,-187500.02235174447,8119.025304201282,-187500.02235174447,-187500.02235174447,-187500.02235174447,-187500.02235174447,-187500.02235174447,1731452289.4037185
-5564.824410059979,-187500.02235174447,8136.169092198503,-187500.02235174447,-187500.02235174447,-187500.02235174447,-187500.02235174447,-187500.02235174447,1731452289.4075584
-5574.882695064866,-187500.02235174447,8131.60933632962,-187500.02235174447,-187500.02235174447,-187500.02235174447,-187500.02235174447,-187500.02235174447,1731452289.411621
-5623.430684021793,-187500.02235174447,8112.4091878425115,-187500.02235174447,-187500.02235174447,-187500.02235174447,-187500.02235174447,-187500.02235174447,1731452289.415665
-5625.397637533861,-187500.02235174447,8112.5880017981535,-187500.02235174447,-187500.02235174447,-187500.02235174447,-187500.02235174447,-187500.02235174447,1731452289.4207032
-5580.336520711961,-187500.02235174447,8131.296411907246,-187500.02235174447,-187500.02235174447,-187500.02235174447,-187500.02235174447,-187500.02235174447,1731452289.4237704
-5572.602817130425,-187500.02235174447,8139.1195224666035,-187500.02235174447,-187500.02235174447,-187500.02235174447,-187500.02235174447,-187500.02235174447,1731452289.4277475
-5616.747512429656,-187500.02235174447,8117.147757667037,-187500.02235174447,-187500.02235174447,-187500.02235174447,-187500.02235174447,-187500.02235174447,1731452289.4317913
-5631.879643425899,-187500.02235174447,8112.096263420137,-187500.02235174447,-187500.02235174447,-187500.02235174447,-187500.02235174447,-187500.02235174447,1731452289.4356468
-5580.984721301165,-187500.02235174447,8135.789112542762,-187500.02235174447,-187500.02235174447,-187500.02235174447,-187500.02235174447,-187500.02235174447,1731452289.4396365
-5566.411383916305,-187500.02235174447,8136.258499176324,-187500.02235174447,-187500.02235174447,-187500.02235174447,-187500.02235174447,-187500.02235174447,1731452289.443778
-5611.2042798047405,-187500.02235174447,8114.376141354578,-187500.02235174447,-187500.02235174447,-187500.02235174447,-187500.02235174447,-187500.02235174447,1731452289.448711
-5610.801948404544,-187500.02235174447,8098.975789424871,-187500.02235174447,-187500.02235174447,-187500.02235174447,-187500.02235174447,-187500.02235174447,1731452289.451702
-5574.368604942394,-187500.02235174447,8099.132251636059,-187500.02235174447,-187500.02235174447,-187500.02235174447,-187500.02235174447,-187500.02235174447,1731452289.4547338
-5593.501698196137,-187500.02235174447,8134.872691020095,-187500.02235174447,-187500.02235174447,-187500.02235174447,-187500.02235174447,-187500.02235174447,1731452289.4597182
-5623.654201466346,-187500.02235174447,8138.605432344131,-187500.02235174447,-187500.02235174447,-187500.02235174447,-187500.02235174447,-187500.02235174447,1731452289.4637184
-5640.4403615522815,-187500.02235174447,8114.219679143391,-187500.02235174447,-187500.02235174447,-187500.02235174447,-187500.02235174447,-187500.02235174447,1731452289.467741
-5595.982741830676,-187500.02235174447,8124.277964148279,-187500.02235174447,-187500.02235174447,-187500.02235174447,-187500.02235174447,-187500.02235174447,1731452289.4717393
-5568.981834528665,-187500.02235174447,8131.22935667388,-187500.02235174447,-187500.02235174447,-187500.02235174447,-187500.02235174447,-187500.02235174447,1731452289.476741
-5599.603724432436,-187500.02235174447,8138.627784088587,-187500.02235174447,-187500.02235174447,-187500.02235174447,-187500.02235174447,-187500.02235174447,1731452289.479731
-5624.369457288916,-187500.02235174447,8133.978621241882,-187500.02235174447,-187500.02235174447,-187500.02235174447,-187500.02235174447,-187500.02235174447,1731452289.4827676
-5596.161555786319,-187500.02235174447,8135.23031893138,-187500.02235174447,-187500.02235174447,-187500.02235174447,-187500.02235174447,-187500.02235174447,1731452289.4877431
-5562.186904214252,-187500.02235174447,8147.635537104075,-187500.02235174447,-187500.02235174447,-187500.02235174447,-187500.02235174447,-187500.02235174447,1731452289.4917629
-5583.48811668016,-187500.02235174447,8136.571423598698,-187500.02235174447,-187500.02235174447,-187500.02235174447,-187500.02235174447,-187500.02235174447,1731452289.4957116
-5627.632811979391,-187500.02235174447,8114.197327398936,-187500.02235174447,-187500.02235174447,-187500.02235174447,-187500.02235174447,-187500.02235174447,1731452289.499792
-5600.542497699559,-187500.02235174447,8110.196365141436,-187500.02235174447,-187500.02235174447,-187500.02235174447,-187500.02235174447,-187500.02235174447,1731452289.5038304
-5554.72142156618,-187500.02235174447,8117.1701094114915,-187500.02235174447,-187500.02235174447,-187500.02235174447,-187500.02235174447,-187500.02235174447,1731452289.506757
-5582.929323068777,-187500.02235174447,8130.849377018139,-187500.02235174447,-187500.02235174447,-187500.02235174447,-187500.02235174447,-187500.02235174447,1731452289.5109017
-5633.846596937967,-187500.02235174447,8127.317801394201,-187500.02235174447,-187500.02235174447,-187500.02235174447,-187500.02235174447,-187500.02235174447,1731452289.51587
-5625.040009622576,-187500.02235174447,8126.13315893807,-187500.02235174447,-187500.02235174447,-187500.02235174447,-187500.02235174447,-187500.02235174447,1731452289.5198493
-5577.251979977129,-187500.02235174447,8138.1807491994805,-187500.02235174447,-187500.02235174447,-187500.02235174447,-187500.02235174447,-187500.02235174447,1731452289.5239053
-5577.207276488219,-187500.02235174447,8136.236147431869,-187500.02235174447,-187500.02235174447,-187500.02235174447,-187500.02235174447,-187500.02235174447,1731452289.5276363
-5624.905899155843,-187500.02235174447,8113.817347743196,-187500.02235174447,-187500.02235174447,-187500.02235174447,-187500.02235174447,-187500.02235174447,1731452289.5308363
-5632.2819748260945,-187500.02235174447,8106.105995906115,-187500.02235174447,-187500.02235174447,-187500.02235174447,-187500.02235174447,-187500.02235174447,1731452289.534839
-5585.499773681137,-187500.02235174447,8111.112786664104,-187500.02235174447,-187500.02235174447,-187500.02235174447,-187500.02235174447,-187500.02235174447,1731452289.5389695
-5559.124715223875,-187500.02235174447,8121.707513535919,-187500.02235174447,-187500.02235174447,-187500.02235174447,-187500.02235174447,-187500.02235174447,1731452289.5439932
-5603.850555878944,-187500.02235174447,8118.622972801087,-187500.02235174447,-187500.02235174447,-187500.02235174447,-187500.02235174447,-187500.02235174447,1731452289.5481102
-5636.0370678945865,-187500.02235174447,8109.168184896492,-187500.02235174447,-187500.02235174447,-187500.02235174447,-187500.02235174447,-187500.02235174447,1731452289.551984
-5593.121718540397,-187500.02235174447,8121.349885624634,-187500.02235174447,-187500.02235174447,-187500.02235174447,-187500.02235174447,-187500.02235174447,1731452289.5561376
-5564.042099004042,-187500.02235174447,8132.793978785751,-187500.02235174447,-187500.02235174447,-187500.02235174447,-187500.02235174447,-187500.02235174447,1731452289.5589018
-5597.793233131556,-187500.02235174447,8115.873708233084,-187500.02235174447,-187500.02235174447,-187500.02235174447,-187500.02235174447,-187500.02235174447,1731452289.5628612
-5635.344163816472,-187500.02235174447,8100.093376647637,-187500.02235174447,-187500.02235174447,-187500.02235174447,-187500.02235174447,-187500.02235174447,1731452289.5668561
-5595.848631363944,-187500.02235174447,8105.837774972651,-187500.02235174447,-187500.02235174447,-187500.02235174447,-187500.02235174447,-187500.02235174447,1731452289.57091
-5545.870130761878,-187500.02235174447,8103.2002691269245,-187500.02235174447,-187500.02235174447,-187500.02235174447,-187500.02235174447,-187500.02235174447,1731452289.5761416
-5602.241230278162,-187500.02235174447,8091.55501026571,-187500.02235174447,-187500.02235174447,-187500.02235174447,-187500.02235174447,-187500.02235174447,1731452289.5798995
-5662.456829840759,-187500.02235174447,8095.98065566786,-187500.02235174447,-187500.02235174447,-187500.02235174447,-187500.02235174447,-187500.02235174447,1731452289.583979
-5624.525919500104,-187500.02235174447,8105.346036594634,-187500.02235174447,-187500.02235174447,-187500.02235174447,-187500.02235174447,-187500.02235174447,1731452289.5868895
-5560.24230244664,-187500.02235174447,8121.282830391268,-187500.02235174447,-187500.02235174447,-187500.02235174447,-187500.02235174447,-187500.02235174447,1731452289.590912
-5569.2947589510395,-187500.02235174447,8115.22550764388,-187500.02235174447,-187500.02235174447,-187500.02235174447,-187500.02235174447,-187500.02235174447,1731452289.59493
-5628.616288735425,-187500.02235174447,8104.1390423940475,-187500.02235174447,-187500.02235174447,-187500.02235174447,-187500.02235174447,-187500.02235174447,1731452289.5989468
-5611.53955597157,-187500.02235174447,8109.1234814075815,-187500.02235174447,-187500.02235174447,-187500.02235174447,-187500.02235174447,-187500.02235174447,1731452289.6039624
-5554.564959354992,-187500.02235174447,8123.160376925514,-187500.02235174447,-187500.02235174447,-187500.02235174447,-187500.02235174447,-187500.02235174447,1731452289.607942
-5562.43277340326,-187500.02235174447,8107.290638362246,-187500.02235174447,-187500.02235174447,-187500.02235174447,-187500.02235174447,-187500.02235174447,1731452289.611002
-5615.3170007845165,-187500.02235174447,8081.004986882805,-187500.02235174447,-187500.02235174447,-187500.02235174447,-187500.02235174447,-187500.02235174447,1731452289.6161397
-5616.389884518371,-187500.02235174447,8085.162411351492,-187500.02235174447,-187500.02235174447,-187500.02235174447,-187500.02235174447,-187500.02235174447,1731452289.6189685
-5577.229628232673,-187500.02235174447,8106.620086028587,-187500.02235174447,-187500.02235174447,-187500.02235174447,-187500.02235174447,-187500.02235174447,1731452289.6229541
-5582.0352532905645,-187500.02235174447,8110.062254674704,-187500.02235174447,-187500.02235174447,-187500.02235174447,-187500.02235174447,-187500.02235174447,1731452289.6269398
-5627.766922446122,-187500.02235174447,8108.229411629369,-187500.02235174447,-187500.02235174447,-187500.02235174447,-187500.02235174447,-187500.02235174447,1731452289.6320205
-5637.646393495369,-187500.02235174447,8098.059367902204,-187500.02235174447,-187500.02235174447,-187500.02235174447,-187500.02235174447,-187500.02235174447,1731452289.6361787
-5591.557096428525,-187500.02235174447,8107.22358312888,-187500.02235174447,-187500.02235174447,-187500.02235174447,-187500.02235174447,-187500.02235174447,1731452289.6390076
-5565.494962393637,-187500.02235174447,8105.100167405626,-187500.02235174447,-187500.02235174447,-187500.02235174447,-187500.02235174447,-187500.02235174447,1731452289.6430073
-5601.034236077576,-187500.02235174447,8091.644417243531,-187500.02235174447,-187500.02235174447,-187500.02235174447,-187500.02235174447,-187500.02235174447,1731452289.646948
-5632.438437037282,-187500.02235174447,8088.246952086324,-187500.02235174447,-187500.02235174447,-187500.02235174447,-187500.02235174447,-187500.02235174447,1731452289.6510227
-5597.972047087199,-187500.02235174447,8095.779489967763,-187500.02235174447,-187500.02235174447,-187500.02235174447,-187500.02235174447,-187500.02235174447,1731452289.6550112
-5563.4833053926595,-187500.02235174447,8113.213850642902,-187500.02235174447,-187500.02235174447,-187500.02235174447,-187500.02235174447,-187500.02235174447,1731452289.6590123
-5593.099366795942,-187500.02235174447,8100.451004558922,-187500.02235174447,-187500.02235174447,-187500.02235174447,-187500.02235174447,-187500.02235174447,1731452289.6638956
-5628.817454435522,-187500.02235174447,8086.078832874159,-187500.02235174447,-187500.02235174447,-187500.02235174447,-187500.02235174447,-187500.02235174447,1731452289.667021
-5604.342294256961,-187500.02235174447,8095.287751589746,-187500.02235174447,-187500.02235174447,-187500.02235174447,-187500.02235174447,-187500.02235174447,1731452289.67109
-5563.796229815034,-187500.02235174447,8106.888306962051,-187500.02235174447,-187500.02235174447,-187500.02235174447,-187500.02235174447,-187500.02235174447,1731452289.6750464
-5583.219895746696,-187500.02235174447,8094.438385300445,-187500.02235174447,-187500.02235174447,-187500.02235174447,-187500.02235174447,-187500.02235174447,1731452289.6789825
-5631.745532959168,-187500.02235174447,8070.4549634999,-187500.02235174447,-187500.02235174447,-187500.02235174447,-187500.02235174447,-187500.02235174447,1731452289.6830876
-5612.388922260871,-187500.02235174447,8078.792164181729,-187500.02235174447,-187500.02235174447,-187500.02235174447,-187500.02235174447,-187500.02235174447,1731452289.687162
-5551.592177342436,-187500.02235174447,8102.909696449005,-187500.02235174447,-187500.02235174447,-187500.02235174447,-187500.02235174447,-187500.02235174447,1731452289.6921263
-5584.404538202827,-187500.02235174447,8096.2712283457795,-187500.02235174447,-187500.02235174447,-187500.02235174447,-187500.02235174447,-187500.02235174447,1731452289.6951146
-5629.219785835718,-187500.02235174447,8082.390795039034,-187500.02235174447,-187500.02235174447,-187500.02235174447,-187500.02235174447,-187500.02235174447,1731452289.6990795
-5621.150806087352,-187500.02235174447,8077.4287077699555,-187500.02235174447,-187500.02235174447,-187500.02235174447,-187500.02235174447,-187500.02235174447,1731452289.7030764
-5589.880715594378,-187500.02235174447,8100.339245836645,-187500.02235174447,-187500.02235174447,-187500.02235174447,-187500.02235174447,-187500.02235174447,1731452289.7070875
-5580.135355011864,-187500.02235174447,8112.900926220528,-187500.02235174447,-187500.02235174447,-187500.02235174447,-187500.02235174447,-187500.02235174447,1731452289.710966
-5616.009904862632,-187500.02235174447,8096.450042301422,-187500.02235174447,-187500.02235174447,-187500.02235174447,-187500.02235174447,-187500.02235174447,1731452289.715125
-5620.1896810757735,-187500.02235174447,8095.645379501031,-187500.02235174447,-187500.02235174447,-187500.02235174447,-187500.02235174447,-187500.02235174447,1731452289.72016
-5573.094555508442,-187500.02235174447,8109.503461063321,-187500.02235174447,-187500.02235174447,-187500.02235174447,-187500.02235174447,-187500.02235174447,1731452289.7231324
-5553.223854687674,-187500.02235174447,8105.770719739285,-187500.02235174447,-187500.02235174447,-187500.02235174447,-187500.02235174447,-187500.02235174447,1731452289.7269824
-5600.609552932925,-187500.02235174447,8087.2858270747465,-187500.02235174447,-187500.02235174447,-187500.02235174447,-187500.02235174447,-187500.02235174447,1731452289.7311602
-5624.570622989014,-187500.02235174447,8087.509344519299,-187500.02235174447,-187500.02235174447,-187500.02235174447,-187500.02235174447,-187500.02235174447,1731452289.735201
-5584.538648669559,-187500.02235174447,8100.071024903182,-187500.02235174447,-187500.02235174447,-187500.02235174447,-187500.02235174447,-187500.02235174447,1731452289.73918
-5574.748584598135,-187500.02235174447,8099.020492913783,-187500.02235174447,-187500.02235174447,-187500.02235174447,-187500.02235174447,-187500.02235174447,1731452289.744272
-5606.644523935857,-187500.02235174447,8085.184763095947,-187500.02235174447,-187500.02235174447,-187500.02235174447,-187500.02235174447,-187500.02235174447,1731452289.747142
-5631.901995170355,-187500.02235174447,8080.513248504788,-187500.02235174447,-187500.02235174447,-187500.02235174447,-187500.02235174447,-187500.02235174447,1731452289.750167
-5604.744625657157,-187500.02235174447,8094.84071670064,-187500.02235174447,-187500.02235174447,-187500.02235174447,-187500.02235174447,-187500.02235174447,1731452289.755212
-5562.5445321255365,-187500.02235174447,8104.541373794244,-187500.02235174447,-187500.02235174447,-187500.02235174447,-187500.02235174447,-187500.02235174447,1731452289.7590363
-5580.828259089978,-187500.02235174447,8097.813498713196,-187500.02235174447,-187500.02235174447,-187500.02235174447,-187500.02235174447,-187500.02235174447,1731452289.763208
-5621.173157831808,-187500.02235174447,8082.971940394872,-187500.02235174447,-187500.02235174447,-187500.02235174447,-187500.02235174447,-187500.02235174447,1731452289.7671843
-5615.808739162533,-187500.02235174447,8088.336359064146,-187500.02235174447,-187500.02235174447,-187500.02235174447,-187500.02235174447,-187500.02235174447,1731452289.7712133
-5573.00514853062,-187500.02235174447,8107.111824406604,-187500.02235174447,-187500.02235174447,-187500.02235174447,-187500.02235174447,-187500.02235174447,1731452289.775384
-5585.276256236584,-187500.02235174447,8093.320798077679,-187500.02235174447,-187500.02235174447,-187500.02235174447,-187500.02235174447,-187500.02235174447,1731452289.7782934
-5615.898146140355,-187500.02235174447,8072.533675734244,-187500.02235174447,-187500.02235174447,-187500.02235174447,-187500.02235174447,-187500.02235174447,1731452289.7823396
-5620.435550264782,-187500.02235174447,8076.177010080459,-187500.02235174447,-187500.02235174447,-187500.02235174447,-187500.02235174447,-187500.02235174447,1731452289.787302
-5588.919590582799,-187500.02235174447,8108.676446518475,-187500.02235174447,-187500.02235174447,-187500.02235174447,-187500.02235174447,-187500.02235174447,1731452289.791381
-5587.980817315676,-187500.02235174447,8106.441272072944,-187500.02235174447,-187500.02235174447,-187500.02235174447,-187500.02235174447,-187500.02235174447,1731452289.7952352
-5624.190643333273,-187500.02235174447,8081.586132238643,-187500.02235174447,-187500.02235174447,-187500.02235174447,-187500.02235174447,-187500.02235174447,1731452289.7993855
-5636.148826616863,-187500.02235174447,8075.528809491255,-187500.02235174447,-187500.02235174447,-187500.02235174447,-187500.02235174447,-187500.02235174447,1731452289.8024015
-5598.039102320565,-187500.02235174447,8092.382024810556,-187500.02235174447,-187500.02235174447,-187500.02235174447,-187500.02235174447,-187500.02235174447,1731452289.8062267
-5581.297645723539,-187500.02235174447,8099.623990014075,-187500.02235174447,-187500.02235174447,-187500.02235174447,-187500.02235174447,-187500.02235174447,1731452289.8103015
-5604.118776812408,-187500.02235174447,8089.208077097903,-187500.02235174447,-187500.02235174447,-187500.02235174447,-187500.02235174447,-187500.02235174447,1731452289.815284
-5625.107064855942,-187500.02235174447,8082.904885161506,-187500.02235174447,-187500.02235174447,-187500.02235174447,-187500.02235174447,-187500.02235174447,1731452289.819307
-5588.181983015774,-187500.02235174447,8104.273152860779,-187500.02235174447,-187500.02235174447,-187500.02235174447,-187500.02235174447,-187500.02235174447,1731452289.8233285
-5568.0654130059975,-187500.02235174447,8108.967019196394,-187500.02235174447,-187500.02235174447,-187500.02235174447,-187500.02235174447,-187500.02235174447,1731452289.8273163
-5616.3675327739165,-187500.02235174447,8090.750347465319,-187500.02235174447,-187500.02235174447,-187500.02235174447,-187500.02235174447,-187500.02235174447,1731452289.831305
-5626.7610939456345,-187500.02235174447,8079.21684732638,-187500.02235174447,-187500.02235174447,-187500.02235174447,-187500.02235174447,-187500.02235174447,1731452289.8342984
-5583.130488768875,-187500.02235174447,8095.287751589746,-187500.02235174447,-187500.02235174447,-187500.02235174447,-187500.02235174447,-187500.02235174447,1731452289.8383117
-5568.333633939461,-187500.02235174447,8115.22550764388,-187500.02235174447,-187500.02235174447,-187500.02235174447,-187500.02235174447,-187500.02235174447,1731452289.8434205
-5600.609552932925,-187500.02235174447,8105.346036594634,-187500.02235174447,-187500.02235174447,-187500.02235174447,-187500.02235174447,-187500.02235174447,1731452289.8473408
-5611.025465849098,-187500.02235174447,8081.384966538545,-187500.02235174447,-187500.02235174447,-187500.02235174447,-187500.02235174447,-187500.02235174447,1731452289.851338
-5592.272352251095,-187500.02235174447,8082.636664228042,-187500.02235174447,-187500.02235174447,-187500.02235174447,-187500.02235174447,-187500.02235174447,1731452289.8543305
-5589.0760527939865,-187500.02235174447,8109.726978507874,-187500.02235174447,-187500.02235174447,-187500.02235174447,-187500.02235174447,-187500.02235174447,1731452289.8584163
-5604.342294256961,-187500.02235174447,8109.861088974606,-187500.02235174447,-187500.02235174447,-187500.02235174447,-187500.02235174447,-187500.02235174447,1731452289.8623345
-5640.149788874363,-187500.02235174447,8095.198344611925,-187500.02235174447,-187500.02235174447,-187500.02235174447,-187500.02235174447,-187500.02235174447,1731452289.8662684
-5623.833015421988,-187500.02235174447,8096.494745790333,-187500.02235174447,-187500.02235174447,-187500.02235174447,-187500.02235174447,-187500.02235174447,1731452289.871405
-5577.184924743763,-187500.02235174447,8103.669655760486,-187500.02235174447,-187500.02235174447,-187500.02235174447,-187500.02235174447,-187500.02235174447,1731452289.8753757
-5567.2383984611515,-187500.02235174447,8098.461699302399,-187500.02235174447,-187500.02235174447,-187500.02235174447,-187500.02235174447,-187500.02235174447,1731452289.8794389
-5616.121663584908,-187500.02235174447,8080.222675826869,-187500.02235174447,-187500.02235174447,-187500.02235174447,-187500.02235174447,-187500.02235174447,1731452289.8824725
-5618.468596752715,-187500.02235174447,8096.070062645682,-187500.02235174447,-187500.02235174447,-187500.02235174447,-187500.02235174447,-187500.02235174447,1731452289.8862436
-5573.362776441905,-187500.02235174447,8119.360580368112,-187500.02235174447,-187500.02235174447,-187500.02235174447,-187500.02235174447,-187500.02235174447,1731452289.8904946
-5583.8680963359,-187500.02235174447,8115.918411721995,-187500.02235174447,-187500.02235174447,-187500.02235174447,-187500.02235174447,-187500.02235174447,1731452289.8944
-5628.146902101863,-187500.02235174447,8098.215830113391,-187500.02235174447,-187500.02235174447,-187500.02235174447,-187500.02235174447,-187500.02235174447,1731452289.8984823
-5628.884509668888,-187500.02235174447,8093.499612033322,-187500.02235174447,-187500.02235174447,-187500.02235174447,-187500.02235174447,-187500.02235174447,1731452289.9035585
-5582.7952126020455,-187500.02235174447,8105.726016250374,-187500.02235174447,-187500.02235174447,-187500.02235174447,-187500.02235174447,-187500.02235174447,1731452289.907401
-5575.5755991429805,-187500.02235174447,8102.12738539307,-187500.02235174447,-187500.02235174447,-187500.02235174447,-187500.02235174447,-187500.02235174447,1731452289.9104433
-5617.753340930145,-187500.02235174447,8082.144925850025,-187500.02235174447,-187500.02235174447,-187500.02235174447,-187500.02235174447,-187500.02235174447,1731452289.914384
-5626.336410800983,-187500.02235174447,8073.293635045724,-187500.02235174447,-187500.02235174447,-187500.02235174447,-187500.02235174447,-187500.02235174447,1731452289.9184852
-5584.449241691737,-187500.02235174447,8097.5005742908215,-187500.02235174447,-187500.02235174447,-187500.02235174447,-187500.02235174447,-187500.02235174447,1731452289.922557
-5570.904084551822,-187500.02235174447,8116.298391377734,-187500.02235174447,-187500.02235174447,-187500.02235174447,-187500.02235174447,-187500.02235174447,1731452289.9264936
-5613.35004727245,-187500.02235174447,8098.08171964666,-187500.02235174447,-187500.02235174447,-187500.02235174447,-187500.02235174447,-187500.02235174447,1731452289.9315436
-5627.766922446122,-187500.02235174447,8088.671635230975,-187500.02235174447,-187500.02235174447,-187500.02235174447,-187500.02235174447,-187500.02235174447,1731452289.9355547
-5595.423948219293,-187500.02235174447,8098.84167895814,-187500.02235174447,-187500.02235174447,-187500.02235174447,-187500.02235174447,-187500.02235174447,1731452289.938455
-5568.914779295299,-187500.02235174447,8119.56174606821,-187500.02235174447,-187500.02235174447,-187500.02235174447,-187500.02235174447,-187500.02235174447,1731452289.9424715
-5602.420044233804,-187500.02235174447,8109.637571530053,-187500.02235174447,-187500.02235174447,-187500.02235174447,-187500.02235174447,-187500.02235174447,1731452289.946496
-5627.252832323651,-187500.02235174447,8095.310103334201,-187500.02235174447,-187500.02235174447,-187500.02235174447,-187500.02235174447,-187500.02235174447,1731452289.9505763
-5596.407424975327,-187500.02235174447,8095.1536411230145,-187500.02235174447,-187500.02235174447,-187500.02235174447,-187500.02235174447,-187500.02235174447,1731452289.95462
-5563.975043770676,-187500.02235174447,8112.967981453894,-187500.02235174447,-187500.02235174447,-187500.02235174447,-187500.02235174447,-187500.02235174447,1731452289.9596176
-5584.829221347478,-187500.02235174447,8116.253687888824,-187500.02235174447,-187500.02235174447,-187500.02235174447,-187500.02235174447,-187500.02235174447,1731452289.9626296
-5624.682381711291,-187500.02235174447,8100.786280725752,-187500.02235174447,-187500.02235174447,-187500.02235174447,-187500.02235174447,-187500.02235174447,1731452289.9664943
-5601.1683465443075,-187500.02235174447,8106.441272072944,-187500.02235174447,-187500.02235174447,-187500.02235174447,-187500.02235174447,-187500.02235174447,1731452289.9703896
-5559.884674535355,-187500.02235174447,8113.459719831911,-187500.02235174447,-187500.02235174447,-187500.02235174447,-187500.02235174447,-187500.02235174447,1731452289.974539
-5581.319997467995,-187500.02235174447,8101.948571437428,-187500.02235174447,-187500.02235174447,-187500.02235174447,-187500.02235174447,-187500.02235174447,1731452289.9783585
-5624.794140433567,-187500.02235174447,8093.879591689061,-187500.02235174447,-187500.02235174447,-187500.02235174447,-187500.02235174447,-187500.02235174447,1731452289.9825757
-5615.4287595067935,-187500.02235174447,8097.03118765726,-187500.02235174447,-187500.02235174447,-187500.02235174447,-187500.02235174447,-187500.02235174447,1731452289.9875596
-5567.305453694517,-187500.02235174447,8112.856222731617,-187500.02235174447,-187500.02235174447,-187500.02235174447,-187500.02235174447,-187500.02235174447,1731452289.9905765
-5574.43566017576,-187500.02235174447,8120.187594912958,-187500.02235174447,-187500.02235174447,-187500.02235174447,-187500.02235174447,-187500.02235174447,1731452289.994547
-5635.2100533497405,-187500.02235174447,8097.6793882464635,-187500.02235174447,-187500.02235174447,-187500.02235174447,-187500.02235174447,-187500.02235174447,1731452289.9986165
-5636.193530105774,-187500.02235174447,8096.539449279243,-187500.02235174447,-187500.02235174447,-187500.02235174447,-187500.02235174447,-187500.02235174447,1731452290.0026245
-5570.211180473707,-187500.02235174447,8101.926219692972,-187500.02235174447,-187500.02235174447,-187500.02235174447,-187500.02235174447,-187500.02235174447,1731452290.006614
-5567.976006028176,-187500.02235174447,8109.07877791867,-187500.02235174447,-187500.02235174447,-187500.02235174447,-187500.02235174447,-187500.02235174447,1731452290.0106168
-5625.0623613670305,-187500.02235174447,8110.308123863712,-187500.02235174447,-187500.02235174447,-187500.02235174447,-187500.02235174447,-187500.02235174447,1731452290.0155518
-5633.466617282226,-187500.02235174447,8109.190536640947,-187500.02235174447,-187500.02235174447,-187500.02235174447,-187500.02235174447,-187500.02235174447,1731452290.018657
-5581.051776534531,-187500.02235174447,8116.544260566743,-187500.02235174447,-187500.02235174447,-187500.02235174447,-187500.02235174447,-187500.02235174447,1731452290.0216272
-5559.281177435062,-187500.02235174447,8113.638533787554,-187500.02235174447,-187500.02235174447,-187500.02235174447,-187500.02235174447,-187500.02235174447,1731452290.02644
-5621.553137487547,-187500.02235174447,8090.526830020765,-187500.02235174447,-187500.02235174447,-187500.02235174447,-187500.02235174447,-187500.02235174447,1731452290.0306332
-5649.291652356584,-187500.02235174447,8085.095356118126,-187500.02235174447,-187500.02235174447,-187500.02235174447,-187500.02235174447,-187500.02235174447,1731452290.034625
-5596.25096276414,-187500.02235174447,8104.65313251652,-187500.02235174447,-187500.02235174447,-187500.02235174447,-187500.02235174447,-187500.02235174447,1731452290.038649
-5556.710726822702,-187500.02235174447,8110.978676197372,-187500.02235174447,-187500.02235174447,-187500.02235174447,-187500.02235174447,-187500.02235174447,1731452290.0427127
-5587.600837659936,-187500.02235174447,8093.4102050555,-187500.02235174447,-187500.02235174447,-187500.02235174447,-187500.02235174447,-187500.02235174447,1731452290.0465612
-5634.137169615886,-187500.02235174447,8089.0516148867155,-187500.02235174447,-187500.02235174447,-187500.02235174447,-187500.02235174447,-187500.02235174447,1731452290.0496776
-5608.63382919238,-187500.02235174447,8104.65313251652,-187500.02235174447,-187500.02235174447,-187500.02235174447,-187500.02235174447,-187500.02235174447,1731452290.0536957
-5554.274386677073,-187500.02235174447,8123.540356581254,-187500.02235174447,-187500.02235174447,-187500.02235174447,-187500.02235174447,-187500.02235174447,1731452290.0587976
-5571.842857818944,-187500.02235174447,8107.827080229174,-187500.02235174447,-187500.02235174447,-187500.02235174447,-187500.02235174447,-187500.02235174447,1731452290.0627291
-5630.247966080662,-187500.02235174447,8091.957341665905,-187500.02235174447,-187500.02235174447,-187500.02235174447,-187500.02235174447,-187500.02235174447,1731452290.0667422
-5619.742646186668,-187500.02235174447,8112.655057031519,-187500.02235174447,-187500.02235174447,-187500.02235174447,-187500.02235174447,-187500.02235174447,1731452290.0707495
-5574.010977031109,-187500.02235174447,8133.330420652679,-187500.02235174447,-187500.02235174447,-187500.02235174447,-187500.02235174447,-187500.02235174447,1731452290.074865
-5580.336520711961,-187500.02235174447,8118.153586167525,-187500.02235174447,-187500.02235174447,-187500.02235174447,-187500.02235174447,-187500.02235174447,1731452290.0778952
-5635.366515560927,-187500.02235174447,8092.627893999565,-187500.02235174447,-187500.02235174447,-187500.02235174447,-187500.02235174447,-187500.02235174447,1731452290.082594
-5637.042896395075,-187500.02235174447,8101.121556892581,-187500.02235174447,-187500.02235174447,-187500.02235174447,-187500.02235174447,-187500.02235174447,1731452290.0866468
-5573.474535164182,-187500.02235174447,8123.026266458782,-187500.02235174447,-187500.02235174447,-187500.02235174447,-187500.02235174447,-187500.02235174447,1731452290.0907338
-5569.875904306878,-187500.02235174447,8118.354751867623,-187500.02235174447,-187500.02235174447,-187500.02235174447,-187500.02235174447,-187500.02235174447,1731452290.094596
-5626.872852667911,-187500.02235174447,8099.579286525165,-187500.02235174447,-187500.02235174447,-187500.02235174447,-187500.02235174447,-187500.02235174447,1731452290.097622
-5632.796064948567,-187500.02235174447,8099.579286525165,-187500.02235174447,-187500.02235174447,-187500.02235174447,-187500.02235174447,-187500.02235174447,1731452290.1017354
-5568.981834528665,-187500.02235174447,8114.532603565765,-187500.02235174447,-187500.02235174447,-187500.02235174447,-187500.02235174447,-187500.02235174447,1731452290.1057491
-5574.43566017576,-187500.02235174447,8114.666714032497,-187500.02235174447,-187500.02235174447,-187500.02235174447,-187500.02235174447,-187500.02235174447,1731452290.1097548
-5634.87477718291,-187500.02235174447,8096.897077190528,-187500.02235174447,-187500.02235174447,-187500.02235174447,-187500.02235174447,-187500.02235174447,1731452290.1147666
-5642.921405186821,-187500.02235174447,8087.151716608014,-187500.02235174447,-187500.02235174447,-187500.02235174447,-187500.02235174447,-187500.02235174447,1731452290.1187727
-5581.230590490173,-187500.02235174447,8106.4636238174,-187500.02235174447,-187500.02235174447,-187500.02235174447,-187500.02235174447,-187500.02235174447,1731452290.1225996
-5566.523142638582,-187500.02235174447,8115.1137489216035,-187500.02235174447,-187500.02235174447,-187500.02235174447,-187500.02235174447,-187500.02235174447,1731452290.1257448
-5628.213957335229,-187500.02235174447,8104.69783600543,-187500.02235174447,-187500.02235174447,-187500.02235174447,-187500.02235174447,-187500.02235174447,1731452290.1296225
-5652.30913785805,-187500.02235174447,8104.69783600543,-187500.02235174447,-187500.02235174447,-187500.02235174447,-187500.02235174447,-187500.02235174447,1731452290.1337729
-5608.29855302555,-187500.02235174447,8108.028245929271,-187500.02235174447,-187500.02235174447,-187500.02235174447,-187500.02235174447,-187500.02235174447,1731452290.1377702
-5572.7592793416125,-187500.02235174447,8107.290638362246,-187500.02235174447,-187500.02235174447,-187500.02235174447,-187500.02235174447,-187500.02235174447,1731452290.1427772
-5609.527898970592,-187500.02235174447,8096.003007412316,-187500.02235174447,-187500.02235174447,-187500.02235174447,-187500.02235174447,-187500.02235174447,1731452290.1466703
-5647.347050588972,-187500.02235174447,8091.353844565612,-187500.02235174447,-187500.02235174447,-187500.02235174447,-187500.02235174447,-187500.02235174447,1731452290.1508183
-5613.841785650467,-187500.02235174447,8109.503461063321,-187500.02235174447,-187500.02235174447,-187500.02235174447,-187500.02235174447,-187500.02235174447,1731452290.1537528
-5572.356947941416,-187500.02235174447,8128.904775250528,-187500.02235174447,-187500.02235174447,-187500.02235174447,-187500.02235174447,-187500.02235174447,1731452290.1578598
-5594.261657507617,-187500.02235174447,8114.152623910025,-187500.02235174447,-187500.02235174447,-187500.02235174447,-187500.02235174447,-187500.02235174447,1731452290.1618426
-5631.656125981346,-187500.02235174447,8089.275132331269,-187500.02235174447,-187500.02235174447,-187500.02235174447,-187500.02235174447,-187500.02235174447,1731452290.1659653
-5623.743608444168,-187500.02235174447,8094.192516111436,-187500.02235174447,-187500.02235174447,-187500.02235174447,-187500.02235174447,-187500.02235174447,1731452290.1708088
-5578.146049755341,-187500.02235174447,8121.618106558098,-187500.02235174447,-187500.02235174447,-187500.02235174447,-187500.02235174447,-187500.02235174447,1731452290.174854
-5583.15284051333,-187500.02235174447,8118.824138501184,-187500.02235174447,-187500.02235174447,-187500.02235174447,-187500.02235174447,-187500.02235174447,1731452290.178739
-5629.532710258092,-187500.02235174447,8103.423786571478,-187500.02235174447,-187500.02235174447,-187500.02235174447,-187500.02235174447,-187500.02235174447,1731452290.1818292
-5627.498701512659,-187500.02235174447,8100.115728392092,-187500.02235174447,-187500.02235174447,-187500.02235174447,-187500.02235174447,-187500.02235174447,1731452290.1859617
-5571.664043863302,-187500.02235174447,8109.659923274508,-187500.02235174447,-187500.02235174447,-187500.02235174447,-187500.02235174447,-187500.02235174447,1731452290.1898763
-5563.81858155949,-187500.02235174447,8104.004931927316,-187500.02235174447,-187500.02235174447,-187500.02235174447,-187500.02235174447,-187500.02235174447,1731452290.193967
-5621.061399109531,-187500.02235174447,8084.603617740109,-187500.02235174447,-187500.02235174447,-187500.02235174447,-187500.02235174447,-187500.02235174447,1731452290.1979785
-5647.592919777981,-187500.02235174447,8087.956379408405,-187500.02235174447,-187500.02235174447,-187500.02235174447,-187500.02235174447,-187500.02235174447,1731452290.2027965
-5593.72521564069,-187500.02235174447,8116.9912954558495,-187500.02235174447,-187500.02235174447,-187500.02235174447,-187500.02235174447,-187500.02235174447,1731452290.20605
-5578.43662243326,-187500.02235174447,8123.249783903335,-187500.02235174447,-187500.02235174447,-187500.02235174447,-187500.02235174447,-187500.02235174447,1731452290.2099743
-5626.425817778804,-187500.02235174447,8113.571478554187,-187500.02235174447,-187500.02235174447,-187500.02235174447,-187500.02235174447,-187500.02235174447,1731452290.213989
-5631.92434691481,-187500.02235174447,8100.518059792288,-187500.02235174447,-187500.02235174447,-187500.02235174447,-187500.02235174447,-187500.02235174447,1731452290.2180147
-5597.502660453637,-187500.02235174447,8113.213850642902,-187500.02235174447,-187500.02235174447,-187500.02235174447,-187500.02235174447,-187500.02235174447,1731452290.2220235
-5580.984721301165,-187500.02235174447,8120.791092013252,-187500.02235174447,-187500.02235174447,-187500.02235174447,-187500.02235174447,-187500.02235174447,1731452290.2270353
-5616.903974640843,-187500.02235174447,8094.997178911827,-187500.02235174447,-187500.02235174447,-187500.02235174447,-187500.02235174447,-187500.02235174447,1731452290.2310433
-5638.316945829028,-187500.02235174447,8097.969960924383,-187500.02235174447,-187500.02235174447,-187500.02235174447,-187500.02235174447,-187500.02235174447,1731452290.2340393
-5600.654256421835,-187500.02235174447,8113.482071576366,-187500.02235174447,-187500.02235174447,-187500.02235174447,-187500.02235174447,-187500.02235174447,1731452290.2380257
-5571.284064207562,-187500.02235174447,8118.019475700793,-187500.02235174447,-187500.02235174447,-187500.02235174447,-187500.02235174447,-187500.02235174447,1731452290.241784
-5604.208183790229,-187500.02235174447,8102.440309815444,-187500.02235174447,-187500.02235174447,-187500.02235174447,-187500.02235174447,-187500.02235174447,1731452290.246172
-5645.715373243735,-187500.02235174447,8108.005894184816,-187500.02235174447,-187500.02235174447,-187500.02235174447,-187500.02235174447,-187500.02235174447,1731452290.2499516
-5611.271335038106,-187500.02235174447,8127.94365023895,-187500.02235174447,-187500.02235174447,-187500.02235174447,-187500.02235174447,-187500.02235174447,1731452290.2538214
-5567.730136839168,-187500.02235174447,8137.4207898879995,-187500.02235174447,-187500.02235174447,-187500.02235174447,-187500.02235174447,-187500.02235174447,1731452290.2589765
-5589.5454394275475,-187500.02235174447,8124.5014815928325,-187500.02235174447,-187500.02235174447,-187500.02235174447,-187500.02235174447,-187500.02235174447,1731452290.2620325
-5632.930175415298,-187500.02235174447,8103.848469716128,-187500.02235174447,-187500.02235174447,-187500.02235174447,-187500.02235174447,-187500.02235174447,1731452290.2661252
-5618.692114197268,-187500.02235174447,8102.5520685377205,-187500.02235174447,-187500.02235174447,-187500.02235174447,-187500.02235174447,-187500.02235174447,1731452290.270043
-5573.0498520195315,-187500.02235174447,8117.259516389313,-187500.02235174447,-187500.02235174447,-187500.02235174447,-187500.02235174447,-187500.02235174447,1731452290.2738595
-5566.0090525161095,-187500.02235174447,8118.354751867623,-187500.02235174447,-187500.02235174447,-187500.02235174447,-187500.02235174447,-187500.02235174447,1731452290.2779708
-5626.470521267715,-187500.02235174447,8107.17887963997,-187500.02235174447,-187500.02235174447,-187500.02235174447,-187500.02235174447,-187500.02235174447,1731452290.2820191
-5629.867986424922,-187500.02235174447,8120.4558158464215,-187500.02235174447,-187500.02235174447,-187500.02235174447,-187500.02235174447,-187500.02235174447,1731452290.2880056
-5579.911837567311,-187500.02235174447,8134.850339275639,-187500.02235174447,-187500.02235174447,-187500.02235174447,-187500.02235174447,-187500.02235174447,1731452290.2911208
-5571.10525025192,-187500.02235174447,8134.4256561309885,-187500.02235174447,-187500.02235174447,-187500.02235174447,-187500.02235174447,-187500.02235174447,1731452290.2950375
-5608.3879600033715,-187500.02235174447,8116.566612311199,-187500.02235174447,-187500.02235174447,-187500.02235174447,-187500.02235174447,-187500.02235174447,1731452290.29804
-5622.044875865564,-187500.02235174447,8103.826117971674,-187500.02235174447,-187500.02235174447,-187500.02235174447,-187500.02235174447,-187500.02235174447,1731452290.3020296
-5586.930285326277,-187500.02235174447,8117.75125476733,-187500.02235174447,-187500.02235174447,-187500.02235174447,-187500.02235174447,-187500.02235174447,1731452290.3061683
-5573.698052608735,-187500.02235174447,8120.4558158464215,-187500.02235174447,-187500.02235174447,-187500.02235174447,-187500.02235174447,-187500.02235174447,1731452290.3100348
-5627.029314879098,-187500.02235174447,8100.0263214142715,-187500.02235174447,-187500.02235174447,-187500.02235174447,-187500.02235174447,-187500.02235174447,1731452290.315071
-5643.815474965033,-187500.02235174447,8109.07877791867,-187500.02235174447,-187500.02235174447,-187500.02235174447,-187500.02235174447,-187500.02235174447,1731452290.318076
-5586.483250437171,-187500.02235174447,8130.044714217748,-187500.02235174447,-187500.02235174447,-187500.02235174447,-187500.02235174447,-187500.02235174447,1731452290.3210473
-5559.392936157338,-187500.02235174447,8137.018458487804,-187500.02235174447,-187500.02235174447,-187500.02235174447,-187500.02235174447,-187500.02235174447,1731452290.326106
-5606.957448358232,-187500.02235174447,8124.6802955484745,-187500.02235174447,-187500.02235174447,-187500.02235174447,-187500.02235174447,-187500.02235174447,1731452290.330135
-5648.151713389363,-187500.02235174447,8109.503461063321,-187500.02235174447,-187500.02235174447,-187500.02235174447,-187500.02235174447,-187500.02235174447,1731452290.334169
-5612.67949493879,-187500.02235174447,8118.868841990095,-187500.02235174447,-187500.02235174447,-187500.02235174447,-187500.02235174447,-187500.02235174447,1731452290.338092
-5562.030442003065,-187500.02235174447,8130.938783995961,-187500.02235174447,-187500.02235174447,-187500.02235174447,-187500.02235174447,-187500.02235174447,1731452290.3421035
-5582.526991668581,-187500.02235174447,8117.1701094114915,-187500.02235174447,-187500.02235174447,-187500.02235174447,-187500.02235174447,-187500.02235174447,1731452290.3450253
-5625.330582300495,-187500.02235174447,8103.915524949494,-187500.02235174447,-187500.02235174447,-187500.02235174447,-187500.02235174447,-187500.02235174447,1731452290.3491268
-5623.4753875107035,-187500.02235174447,8108.967019196394,-187500.02235174447,-187500.02235174447,-187500.02235174447,-187500.02235174447,-187500.02235174447,1731452290.3541305
-5588.919590582799,-187500.02235174447,8122.17690016948,-187500.02235174447,-187500.02235174447,-187500.02235174447,-187500.02235174447,-187500.02235174447,1731452290.35913
-5594.06049180752,-187500.02235174447,8118.13123442307,-187500.02235174447,-187500.02235174447,-187500.02235174447,-187500.02235174447,-187500.02235174447,1731452290.3631792
-5631.834939936989,-187500.02235174447,8106.55303079522,-187500.02235174447,-187500.02235174447,-187500.02235174447,-187500.02235174447,-187500.02235174447,1731452290.3661375
-5620.368495031416,-187500.02235174447,8104.764891238796,-187500.02235174447,-187500.02235174447,-187500.02235174447,-187500.02235174447,-187500.02235174447,1731452290.3701885
-5569.451221162227,-187500.02235174447,8115.337266366157,-187500.02235174447,-187500.02235174447,-187500.02235174447,-187500.02235174447,-187500.02235174447,1731452290.3731468
-5580.381224200872,-187500.02235174447,8104.586077283154,-187500.02235174447,-187500.02235174447,-187500.02235174447,-187500.02235174447,-187500.02235174447,1731452290.3771868
-5645.245986610173,-187500.02235174447,8088.157545108503,-187500.02235174447,-187500.02235174447,-187500.02235174447,-187500.02235174447,-187500.02235174447,1731452290.38224
-5634.628907993902,-187500.02235174447,8111.805690742218,-187500.02235174447,-187500.02235174447,-187500.02235174447,-187500.02235174447,-187500.02235174447,1731452290.3860264
-5571.239360718651,-187500.02235174447,8140.997069000849,-187500.02235174447,-187500.02235174447,-187500.02235174447,-187500.02235174447,-187500.02235174447,1731452290.390165
-5571.8652095634,-187500.02235174447,8137.376086399089,-187500.02235174447,-187500.02235174447,-187500.02235174447,-187500.02235174447,-187500.02235174447,1731452290.3940222
-5623.765960188623,-187500.02235174447,8123.540356581254,-187500.02235174447,-187500.02235174447,-187500.02235174447,-187500.02235174447,-187500.02235174447,1731452290.3971477
-5626.49287301217,-187500.02235174447,8124.724999037386,-187500.02235174447,-187500.02235174447,-187500.02235174447,-187500.02235174447,-187500.02235174447,1731452290.401232
-5584.493945180649,-187500.02235174447,8135.342077653656,-187500.02235174447,-187500.02235174447,-187500.02235174447,-187500.02235174447,-187500.02235174447,1731452290.4052508
-5562.477476892171,-187500.02235174447,8135.207967186924,-187500.02235174447,-187500.02235174447,-187500.02235174447,-187500.02235174447,-187500.02235174447,1731452290.4093368
-5600.140166299363,-187500.02235174447,8116.0525221887265,-187500.02235174447,-187500.02235174447,-187500.02235174447,-187500.02235174447,-187500.02235174447,1731452290.4143088
-5623.520090999615,-187500.02235174447,8106.061292417204,-187500.02235174447,-187500.02235174447,-187500.02235174447,-187500.02235174447,-187500.02235174447,1731452290.4183989
-5582.3258259684835,-187500.02235174447,8118.019475700793,-187500.02235174447,-187500.02235174447,-187500.02235174447,-187500.02235174447,-187500.02235174447,1731452290.4223394
-5560.57757861347,-187500.02235174447,8125.6190688155975,-187500.02235174447,-187500.02235174447,-187500.02235174447,-187500.02235174447,-187500.02235174447,1731452290.425336
-5607.717407669712,-187500.02235174447,8111.6492285310305,-187500.02235174447,-187500.02235174447,-187500.02235174447,-187500.02235174447,-187500.02235174447,1731452290.4292943
-5652.107972157953,-187500.02235174447,8098.484051046855,-187500.02235174447,-187500.02235174447,-187500.02235174447,-187500.02235174447,-187500.02235174447,1731452290.4333904
-5617.462768252226,-187500.02235174447,8114.040865187749,-187500.02235174447,-187500.02235174447,-187500.02235174447,-187500.02235174447,-187500.02235174447,1731452290.4372835
-5575.665006120802,-187500.02235174447,8127.004876971827,-187500.02235174447,-187500.02235174447,-187500.02235174447,-187500.02235174447,-187500.02235174447,1731452290.4422755
-5592.317055740006,-187500.02235174447,8118.533565823265,-187500.02235174447,-187500.02235174447,-187500.02235174447,-187500.02235174447,-187500.02235174447,1731452290.4462566
-5630.11385561393,-187500.02235174447,8107.871783718084,-187500.02235174447,-187500.02235174447,-187500.02235174447,-187500.02235174447,-187500.02235174447,1731452290.4493911
-5617.373361274405,-187500.02235174447,8111.850394231128,-187500.02235174447,-187500.02235174447,-187500.02235174447,-187500.02235174447,-187500.02235174447,1731452290.4533515
-5569.384165928861,-187500.02235174447,8119.897022235039,-187500.02235174447,-187500.02235174447,-187500.02235174447,-187500.02235174447,-187500.02235174447,1731452290.45736
-5577.967235799699,-187500.02235174447,8114.376141354578,-187500.02235174447,-187500.02235174447,-187500.02235174447,-187500.02235174447,-187500.02235174447,1731452290.4613628
-5630.8291114365,-187500.02235174447,8113.482071576366,-187500.02235174447,-187500.02235174447,-187500.02235174447,-187500.02235174447,-187500.02235174447,1731452290.4654171
-5639.389829562882,-187500.02235174447,8116.477205333377,-187500.02235174447,-187500.02235174447,-187500.02235174447,-187500.02235174447,-187500.02235174447,1731452290.4702997
-5590.417157461305,-187500.02235174447,8130.0223624732935,-187500.02235174447,-187500.02235174447,-187500.02235174447,-187500.02235174447,-187500.02235174447,1731452290.474402
-5581.543514912548,-187500.02235174447,8126.960173482916,-187500.02235174447,-187500.02235174447,-187500.02235174447,-187500.02235174447,-187500.02235174447,1731452290.477436
-5619.586183975481,-187500.02235174447,8110.12930990807,-187500.02235174447,-187500.02235174447,-187500.02235174447,-187500.02235174447,-187500.02235174447,1731452290.4813497
-5625.710561956234,-187500.02235174447,8108.519984307288,-187500.02235174447,-187500.02235174447,-187500.02235174447,-187500.02235174447,-187500.02235174447,1731452290.4853966
-5578.481325922171,-187500.02235174447,8122.378065869578,-187500.02235174447,-187500.02235174447,-187500.02235174447,-187500.02235174447,-187500.02235174447,1731452290.4894512
-5567.461915905705,-187500.02235174447,8123.473301347888,-187500.02235174447,-187500.02235174447,-187500.02235174447,-187500.02235174447,-187500.02235174447,1731452290.4934285
-5620.346143286961,-187500.02235174447,8107.111824406604,-187500.02235174447,-187500.02235174447,-187500.02235174447,-187500.02235174447,-187500.02235174447,1731452290.498272
-5654.745478003679,-187500.02235174447,8107.17887963997,-187500.02235174447,-187500.02235174447,-187500.02235174447,-187500.02235174447,-187500.02235174447,1731452290.5023868
-5593.054663307031,-187500.02235174447,8132.525757852288,-187500.02235174447,-187500.02235174447,-187500.02235174447,-187500.02235174447,-187500.02235174447,1731452290.505345
-5567.327805438973,-187500.02235174447,8133.3080689082235,-187500.02235174447,-187500.02235174447,-187500.02235174447,-187500.02235174447,-187500.02235174447,1731452290.509367
-5614.06530309502,-187500.02235174447,8109.615219785598,-187500.02235174447,-187500.02235174447,-187500.02235174447,-187500.02235174447,-187500.02235174447,1731452290.513379
-5636.148826616863,-187500.02235174447,8095.488917289844,-187500.02235174447,-187500.02235174447,-187500.02235174447,-187500.02235174447,-187500.02235174447,1731452290.5173693
-5589.143108027352,-187500.02235174447,8125.708475793419,-187500.02235174447,-187500.02235174447,-187500.02235174447,-187500.02235174447,-187500.02235174447,1731452290.5213988
-5558.945901268233,-187500.02235174447,8146.920281281506,-187500.02235174447,-187500.02235174447,-187500.02235174447,-187500.02235174447,-187500.02235174447,1731452290.5263503
-5598.150861042841,-187500.02235174447,8126.691952549452,-187500.02235174447,-187500.02235174447,-187500.02235174447,-187500.02235174447,-187500.02235174447,1731452290.5303044
-5631.499663770159,-187500.02235174447,8107.402397084523,-187500.02235174447,-187500.02235174447,-187500.02235174447,-187500.02235174447,-187500.02235174447,1731452290.533382
-5607.784462903079,-187500.02235174447,8115.069045432693,-187500.02235174447,-187500.02235174447,-187500.02235174447,-187500.02235174447,-187500.02235174447,1731452290.5373907
-5566.590197871948,-187500.02235174447,8130.2011764289355,-187500.02235174447,-187500.02235174447,-187500.02235174447,-187500.02235174447,-187500.02235174447,1731452290.54138
-5594.820451119001,-187500.02235174447,8120.589926313153,-187500.02235174447,-187500.02235174447,-187500.02235174447,-187500.02235174447,-187500.02235174447,1731452290.5453124
-5641.513245286137,-187500.02235174447,8103.803766227218,-187500.02235174447,-187500.02235174447,-187500.02235174447,-187500.02235174447,-187500.02235174447,1731452290.5494547
-5616.054608351542,-187500.02235174447,8103.26732436029,-187500.02235174447,-187500.02235174447,-187500.02235174447,-187500.02235174447,-187500.02235174447,1731452290.554412
-5576.715538110201,-187500.02235174447,8114.398493099034,-187500.02235174447,-187500.02235174447,-187500.02235174447,-187500.02235174447,-187500.02235174447,1731452290.5574305
-5596.563887186514,-187500.02235174447,8121.908679236017,-187500.02235174447,-187500.02235174447,-187500.02235174447,-187500.02235174447,-187500.02235174447,1731452290.5606086
-5638.16048361784,-187500.02235174447,8110.352827352623,-187500.02235174447,-187500.02235174447,-187500.02235174447,-187500.02235174447,-187500.02235174447,1731452290.5653899
-5623.564794488525,-187500.02235174447,8110.4198825859885,-187500.02235174447,-187500.02235174447,-187500.02235174447,-187500.02235174447,-187500.02235174447,1731452290.5693457
-5567.953654283721,-187500.02235174447,8118.287696634257,-187500.02235174447,-187500.02235174447,-187500.02235174447,-187500.02235174447,-187500.02235174447,1731452290.5734658
-5574.43566017576,-187500.02235174447,8129.843548517651,-187500.02235174447,-187500.02235174447,-187500.02235174447,-187500.02235174447,-187500.02235174447,1731452290.5774856
-5613.953544372743,-187500.02235174447,8122.199251913936,-187500.02235174447,-187500.02235174447,-187500.02235174447,-187500.02235174447,-187500.02235174447,1731452290.5825417
-5627.074018368008,-187500.02235174447,8113.660885532008,-187500.02235174447,-187500.02235174447,-187500.02235174447,-187500.02235174447,-187500.02235174447,1731452290.5854592
-5594.216954018707,-187500.02235174447,8123.60741181462,-187500.02235174447,-187500.02235174447,-187500.02235174447,-187500.02235174447,-187500.02235174447,1731452290.5886114
-5574.77093634259,-187500.02235174447,8128.301278150235,-187500.02235174447,-187500.02235174447,-187500.02235174447,-187500.02235174447,-187500.02235174447,1731452290.5935905
-5613.573564717003,-187500.02235174447,8108.274115118279,-187500.02235174447,-187500.02235174447,-187500.02235174447,-187500.02235174447,-187500.02235174447,1731452290.5975947
-5639.680402240801,-187500.02235174447,8096.31593183469,-187500.02235174447,-187500.02235174447,-187500.02235174447,-187500.02235174447,-187500.02235174447,1731452290.6015816
-5592.272352251095,-187500.02235174447,8120.142891424048,-187500.02235174447,-187500.02235174447,-187500.02235174447,-187500.02235174447,-187500.02235174447,1731452290.6057253
-5560.599930357925,-187500.02235174447,8127.138987438559,-187500.02235174447,-187500.02235174447,-187500.02235174447,-187500.02235174447,-187500.02235174447,1731452290.6105177
-5597.390901731361,-187500.02235174447,8107.491804062343,-187500.02235174447,-187500.02235174447,-187500.02235174447,-187500.02235174447,-187500.02235174447,1731452290.613517
-5631.58907074798,-187500.02235174447,8098.238181857847,-187500.02235174447,-187500.02235174447,-187500.02235174447,-187500.02235174447,-187500.02235174447,1731452290.6164937
-5597.927343598288,-187500.02235174447,8113.884402976561,-187500.02235174447,-187500.02235174447,-187500.02235174447,-187500.02235174447,-187500.02235174447,1731452290.6215427
-5557.895369278833,-187500.02235174447,8119.159414668014,-187500.02235174447,-187500.02235174447,-187500.02235174447,-187500.02235174447,-187500.02235174447,1731452290.625543
-5587.980817315676,-187500.02235174447,8097.589981268643,-187500.02235174447,-187500.02235174447,-187500.02235174447,-187500.02235174447,-187500.02235174447,1731452290.6295335
-5634.606556249447,-187500.02235174447,8073.517152490277,-187500.02235174447,-187500.02235174447,-187500.02235174447,-187500.02235174447,-187500.02235174447,1731452290.63353
-5611.316038527017,-187500.02235174447,8094.304274833713,-187500.02235174447,-187500.02235174447,-187500.02235174447,-187500.02235174447,-187500.02235174447,1731452290.6376004
-5574.77093634259,-187500.02235174447,8132.883385763573,-187500.02235174447,-187500.02235174447,-187500.02235174447,-187500.02235174447,-187500.02235174447,1731452290.6416664
-5591.735910384168,-187500.02235174447,8128.480092105877,-187500.02235174447,-187500.02235174447,-187500.02235174447,-187500.02235174447,-187500.02235174447,1731452290.6445696
-5620.994343876165,-187500.02235174447,8099.512231291799,-187500.02235174447,-187500.02235174447,-187500.02235174447,-187500.02235174447,-187500.02235174447,1731452290.6495676
-5617.328657785494,-187500.02235174447,8086.749385207819,-187500.02235174447,-187500.02235174447,-187500.02235174447,-187500.02235174447,-187500.02235174447,1731452290.6536016
-5582.594046901947,-187500.02235174447,8104.027283671771,-187500.02235174447,-187500.02235174447,-187500.02235174447,-187500.02235174447,-187500.02235174447,1731452290.6576848
-5592.0711865509975,-187500.02235174447,8118.466510589899,-187500.02235174447,-187500.02235174447,-187500.02235174447,-187500.02235174447,-187500.02235174447,1731452290.6616127
-5630.918518414321,-187500.02235174447,8108.519984307288,-187500.02235174447,-187500.02235174447,-187500.02235174447,-187500.02235174447,-187500.02235174447,1731452290.6665268
-5623.274221810606,-187500.02235174447,8100.473356303377,-187500.02235174447,-187500.02235174447,-187500.02235174447,-187500.02235174447,-187500.02235174447,1731452290.6696725
-5572.558113641514,-187500.02235174447,8110.285772119257,-187500.02235174447,-187500.02235174447,-187500.02235174447,-187500.02235174447,-187500.02235174447,1731452290.6727152
-5581.319997467995,-187500.02235174447,8106.4636238174,-187500.02235174447,-187500.02235174447,-187500.02235174447,-187500.02235174447,-187500.02235174447,1731452290.6766312
-5633.421913793316,-187500.02235174447,8086.324702063168,-187500.02235174447,-187500.02235174447,-187500.02235174447,-187500.02235174447,-187500.02235174447,1731452290.6816926
-5641.557948775047,-187500.02235174447,8078.881571159551,-187500.02235174447,-187500.02235174447,-187500.02235174447,-187500.02235174447,-187500.02235174447,1731452290.6847057
-5588.1372795268635,-187500.02235174447,8085.69885321842,-187500.02235174447,-187500.02235174447,-187500.02235174447,-187500.02235174447,-187500.02235174447,1731452290.6886184
-5564.846761804433,-187500.02235174447,8089.5210015202765,-187500.02235174447,-187500.02235174447,-187500.02235174447,-187500.02235174447,-187500.02235174447,1731452290.6936247
-5616.702808940746,-187500.02235174447,8089.811574198196,-187500.02235174447,-187500.02235174447,-187500.02235174447,-187500.02235174447,-187500.02235174447,1731452290.6976497
-5644.68719299879,-187500.02235174447,8089.677463731464,-187500.02235174447,-187500.02235174447,-187500.02235174447,-187500.02235174447,-187500.02235174447,1731452290.7016428
-5597.368549986905,-187500.02235174447,8100.9650946813945,-187500.02235174447,-187500.02235174447,-187500.02235174447,-187500.02235174447,-187500.02235174447,1731452290.7056751
-5564.712651337702,-187500.02235174447,8099.311065591702,-187500.02235174447,-187500.02235174447,-187500.02235174447,-187500.02235174447,-187500.02235174447,1731452290.7086947
-5603.15765180083,-187500.02235174447,8081.854353172106,-187500.02235174447,-187500.02235174447,-187500.02235174447,-187500.02235174447,-187500.02235174447,1731452290.7126513
-5625.934079400788,-187500.02235174447,8077.562818236687,-187500.02235174447,-187500.02235174447,-187500.02235174447,-187500.02235174447,-187500.02235174447,1731452290.7165763
-5588.539610927059,-187500.02235174447,8084.26834157328,-187500.02235174447,-187500.02235174447,-187500.02235174447,-187500.02235174447,-187500.02235174447,1731452290.7216728
-5560.823447802478,-187500.02235174447,8106.351865095123,-187500.02235174447,-187500.02235174447,-187500.02235174447,-187500.02235174447,-187500.02235174447,1731452290.7256556
-5586.572657414992,-187500.02235174447,8099.355769080612,-187500.02235174447,-187500.02235174447,-187500.02235174447,-187500.02235174447,-187500.02235174447,1731452290.7296765
-5628.750399202157,-187500.02235174447,8075.148829835514,-187500.02235174447,-187500.02235174447,-187500.02235174447,-187500.02235174447,-187500.02235174447,1731452290.7336805
-5604.230535534684,-187500.02235174447,8070.387908266534,-187500.02235174447,-187500.02235174447,-187500.02235174447,-187500.02235174447,-187500.02235174447,1731452290.7366056
-5578.593084644447,-187500.02235174447,8091.666768987986,-187500.02235174447,-187500.02235174447,-187500.02235174447,-187500.02235174447,-187500.02235174447,1731452290.7407205
-5593.702863896235,-187500.02235174447,8111.872745975584,-187500.02235174447,-187500.02235174447,-187500.02235174447,-187500.02235174447,-187500.02235174447,1731452290.7447128
-5632.438437037282,-187500.02235174447,8087.2858270747465,-187500.02235174447,-187500.02235174447,-187500.02235174447,-187500.02235174447,-187500.02235174447,1731452290.748715
-5622.000172376654,-187500.02235174447,8084.894190418028,-187500.02235174447,-187500.02235174447,-187500.02235174447,-187500.02235174447,-187500.02235174447,1731452290.753689
-5572.602817130425,-187500.02235174447,8096.472394045877,-187500.02235174447,-187500.02235174447,-187500.02235174447,-187500.02235174447,-187500.02235174447,1731452290.7577488
-5581.67762537928,-187500.02235174447,8084.514210762288,-187500.02235174447,-187500.02235174447,-187500.02235174447,-187500.02235174447,-187500.02235174447,1731452290.76075
-5626.962259645732,-187500.02235174447,8066.029318097749,-187500.02235174447,-187500.02235174447,-187500.02235174447,-187500.02235174447,-187500.02235174447,1731452290.764727
-5624.212995077729,-187500.02235174447,8075.2605885577905,-187500.02235174447,-187500.02235174447,-187500.02235174447,-187500.02235174447,-187500.02235174447,1731452290.768581
-5572.2898927080505,-187500.02235174447,8083.5307340062545,-187500.02235174447,-187500.02235174447,-187500.02235174447,-187500.02235174447,-187500.02235174447,1731452290.772791
-5559.52704662407,-187500.02235174447,8073.785373423741,-187500.02235174447,-187500.02235174447,-187500.02235174447,-187500.02235174447,-187500.02235174447,1731452290.7766132
-5618.915631641821,-187500.02235174447,8055.769867392763,-187500.02235174447,-187500.02235174447,-187500.02235174447,-187500.02235174447,-187500.02235174447,1731452290.7817924
-5628.079846868497,-187500.02235174447,8061.804838395696,-187500.02235174447,-187500.02235174447,-187500.02235174447,-187500.02235174447,-187500.02235174447,1731452290.7857573
-5570.144125240341,-187500.02235174447,8082.390795039034,-187500.02235174447,-187500.02235174447,-187500.02235174447,-187500.02235174447,-187500.02235174447,1731452290.788797
-5561.494000136137,-187500.02235174447,8097.6793882464635,-187500.02235174447,-187500.02235174447,-187500.02235174447,-187500.02235174447,-187500.02235174447,1731452290.7927768
-5620.100274097953,-187500.02235174447,8077.696928703419,-187500.02235174447,-187500.02235174447,-187500.02235174447,-187500.02235174447,-187500.02235174447,1731452290.7967134
-5642.250852853162,-187500.02235174447,8059.659070927986,-187500.02235174447,-187500.02235174447,-187500.02235174447,-187500.02235174447,-187500.02235174447,1731452290.8008797
-5596.96621858671,-187500.02235174447,8077.674576958964,-187500.02235174447,-187500.02235174447,-187500.02235174447,-187500.02235174447,-187500.02235174447,1731452290.8048189
-5568.668910106291,-187500.02235174447,8093.253742844313,-187500.02235174447,-187500.02235174447,-187500.02235174447,-187500.02235174447,-187500.02235174447,1731452290.8098097
-5602.174175044796,-187500.02235174447,8077.78633568124,-187500.02235174447,-187500.02235174447,-187500.02235174447,-187500.02235174447,-187500.02235174447,1731452290.8138037
-5635.120646371919,-187500.02235174447,8062.967129107372,-187500.02235174447,-187500.02235174447,-187500.02235174447,-187500.02235174447,-187500.02235174447,1731452290.8167858
-5601.570677944503,-187500.02235174447,8063.794143652219,-187500.02235174447,-187500.02235174447,-187500.02235174447,-187500.02235174447,-187500.02235174447,1731452290.8208313
-5545.132523194853,-187500.02235174447,8062.363632007079,-187500.02235174447,-187500.02235174447,-187500.02235174447,-187500.02235174447,-187500.02235174447,1731452290.824819
-5578.1013462664305,-187500.02235174447,8069.046803599215,-187500.02235174447,-187500.02235174447,-187500.02235174447,-187500.02235174447,-187500.02235174447,1731452290.8287857
-5637.2664138396285,-187500.02235174447,8075.953492635906,-187500.02235174447,-187500.02235174447,-187500.02235174447,-187500.02235174447,-187500.02235174447,1731452290.8328717
-5618.692114197268,-187500.02235174447,8083.754251450808,-187500.02235174447,-187500.02235174447,-187500.02235174447,-187500.02235174447,-187500.02235174447,1731452290.837858
-5565.562017627003,-187500.02235174447,8094.751309722818,-187500.02235174447,-187500.02235174447,-187500.02235174447,-187500.02235174447,-187500.02235174447,1731452290.8418784
-5572.267540963596,-187500.02235174447,8083.664844472986,-187500.02235174447,-187500.02235174447,-187500.02235174447,-187500.02235174447,-187500.02235174447,1731452290.84487
-5617.529823485592,-187500.02235174447,8063.637681441031,-187500.02235174447,-187500.02235174447,-187500.02235174447,-187500.02235174447,-187500.02235174447,1731452290.8489757
-5607.359779758427,-187500.02235174447,8065.314062275179,-187500.02235174447,-187500.02235174447,-187500.02235174447,-187500.02235174447,-187500.02235174447,1731452290.8528805
-5558.588273356948,-187500.02235174447,8080.893228160528,-187500.02235174447,-187500.02235174447,-187500.02235174447,-187500.02235174447,-187500.02235174447,1731452290.8569152
-5571.015843274098,-187500.02235174447,8073.763021679285,-187500.02235174447,-187500.02235174447,-187500.02235174447,-187500.02235174447,-187500.02235174447,1731452290.860894
-5617.507471741137,-187500.02235174447,8051.299518501702,-187500.02235174447,-187500.02235174447,-187500.02235174447,-187500.02235174447,-187500.02235174447,1731452290.8660676
-5624.391809033372,-187500.02235174447,8046.762114377274,-187500.02235174447,-187500.02235174447,-187500.02235174447,-187500.02235174447,-187500.02235174447,1731452290.869052
-5564.042099004042,-187500.02235174447,8053.892320858517,-187500.02235174447,-187500.02235174447,-187500.02235174447,-187500.02235174447,-187500.02235174447,1731452290.8720157
-5559.214122201696,-187500.02235174447,8050.740724890319,-187500.02235174447,-187500.02235174447,-187500.02235174447,-187500.02235174447,-187500.02235174447,1731452290.8769436
-5624.280050311095,-187500.02235174447,8058.161504049481,-187500.02235174447,-187500.02235174447,-187500.02235174447,-187500.02235174447,-187500.02235174447,1731452290.8810549
-5637.4452277952705,-187500.02235174447,8059.860236628085,-187500.02235174447,-187500.02235174447,-187500.02235174447,-187500.02235174447,-187500.02235174447,1731452290.8848872
-5582.482288179671,-187500.02235174447,8075.774678680263,-187500.02235174447,-187500.02235174447,-187500.02235174447,-187500.02235174447,-187500.02235174447,1731452290.8889308
-5552.9109302653,-187500.02235174447,8075.752326935808,-187500.02235174447,-187500.02235174447,-187500.02235174447,-187500.02235174447,-187500.02235174447,1731452290.893988
-5590.10423303893,-187500.02235174447,8042.738800375319,-187500.02235174447,-187500.02235174447,-187500.02235174447,-187500.02235174447,-187500.02235174447,1731452290.8969688
-5627.029314879098,-187500.02235174447,8034.759227604774,-187500.02235174447,-187500.02235174447,-187500.02235174447,-187500.02235174447,-187500.02235174447,1731452290.9000237
-5598.933172098777,-187500.02235174447,8065.761097164285,-187500.02235174447,-187500.02235174447,-187500.02235174447,-187500.02235174447,-187500.02235174447,1731452290.905015
-5560.532875124559,-187500.02235174447,8072.243103056325,-187500.02235174447,-187500.02235174447,-187500.02235174447,-187500.02235174447,-187500.02235174447,1731452290.909007
-5590.10423303893,-187500.02235174447,8050.763076634775,-187500.02235174447,-187500.02235174447,-187500.02235174447,-187500.02235174447,-187500.02235174447,1731452290.912982
-5628.705695713245,-187500.02235174447,8033.239308981813,-187500.02235174447,-187500.02235174447,-187500.02235174447,-187500.02235174447,-187500.02235174447,1731452290.9168973
-5592.115890039908,-187500.02235174447,8042.180006763936,-187500.02235174447,-187500.02235174447,-187500.02235174447,-187500.02235174447,-187500.02235174447,1731452290.9220047
-5556.353098911417,-187500.02235174447,8047.656184155487,-187500.02235174447,-187500.02235174447,-187500.02235174447,-187500.02235174447,-187500.02235174447,1731452290.924973
-5591.959427828721,-187500.02235174447,8046.337431232623,-187500.02235174447,-187500.02235174447,-187500.02235174447,-187500.02235174447,-187500.02235174447,1731452290.9280605
-5627.990439890676,-187500.02235174447,8032.2334804813245,-187500.02235174447,-187500.02235174447,-187500.02235174447,-187500.02235174447,-187500.02235174447,1731452290.9330275
-5618.4238932638045,-187500.02235174447,8026.2432129673025,-187500.02235174447,-187500.02235174447,-187500.02235174447,-187500.02235174447,-187500.02235174447,1731452290.9369717
-5572.826334574978,-187500.02235174447,8045.912748087972,-187500.02235174447,-187500.02235174447,-187500.02235174447,-187500.02235174447,-187500.02235174447,1731452290.941033
-5570.993491529643,-187500.02235174447,8045.823341110152,-187500.02235174447,-187500.02235174447,-187500.02235174447,-187500.02235174447,-187500.02235174447,1731452290.9451263
-5616.3675327739165,-187500.02235174447,8032.948736303894,-187500.02235174447,-187500.02235174447,-187500.02235174447,-187500.02235174447,-187500.02235174447,1731452290.950176
-5609.304381526039,-187500.02235174447,8038.9837073068275,-187500.02235174447,-187500.02235174447,-187500.02235174447,-187500.02235174447,-187500.02235174447,1731452290.9531274
-5551.748639553623,-187500.02235174447,8056.507474959788,-187500.02235174447,-187500.02235174447,-187500.02235174447,-187500.02235174447,-187500.02235174447,1731452290.9561484
-5553.715593065691,-187500.02235174447,8045.711582387875,-187500.02235174447,-187500.02235174447,-187500.02235174447,-187500.02235174447,-187500.02235174447,1731452290.9610682
-5617.060436852031,-187500.02235174447,8025.550308889188,-187500.02235174447,-187500.02235174447,-187500.02235174447,-187500.02235174447,-187500.02235174447,1731452290.965124
-5630.560890503036,-187500.02235174447,8033.842806082107,-187500.02235174447,-187500.02235174447,-187500.02235174447,-187500.02235174447,-187500.02235174447,1731452290.9690583
-5578.526029411081,-187500.02235174447,8061.1119343175815,-187500.02235174447,-187500.02235174447,-187500.02235174447,-187500.02235174447,-187500.02235174447,1731452290.9731612
-5546.674793562269,-187500.02235174447,8061.69307967342,-187500.02235174447,-187500.02235174447,-187500.02235174447,-187500.02235174447,-187500.02235174447,1731452290.9770515
-5586.729119626179,-187500.02235174447,8037.195567750403,-187500.02235174447,-187500.02235174447,-187500.02235174447,-187500.02235174447,-187500.02235174447,1731452290.9811308
-5614.355875772939,-187500.02235174447,8027.025524023238,-187500.02235174447,-187500.02235174447,-187500.02235174447,-187500.02235174447,-187500.02235174447,1731452290.984135
-5577.967235799699,-187500.02235174447,8041.576509663643,-187500.02235174447,-187500.02235174447,-187500.02235174447,-187500.02235174447,-187500.02235174447,1731452290.9881358
-5560.0187850020875,-187500.02235174447,8042.5599864196765,-187500.02235174447,-187500.02235174447,-187500.02235174447,-187500.02235174447,-187500.02235174447,1731452290.9931493
-5600.833070377478,-187500.02235174447,8038.424913695445,-187500.02235174447,-187500.02235174447,-187500.02235174447,-187500.02235174447,-187500.02235174447,1731452290.9970121
-5620.927288642799,-187500.02235174447,8032.121721759048,-187500.02235174447,-187500.02235174447,-187500.02235174447,-187500.02235174447,-187500.02235174447,1731452291.0011392
-5588.293741738051,-187500.02235174447,8031.987611292317,-187500.02235174447,-187500.02235174447,-187500.02235174447,-187500.02235174447,-187500.02235174447,1731452291.0041575
-5555.459029133204,-187500.02235174447,8035.429779938434,-187500.02235174447,-187500.02235174447,-187500.02235174447,-187500.02235174447,-187500.02235174447,1731452291.008149
-5579.956541056221,-187500.02235174447,8027.450207167889,-187500.02235174447,-187500.02235174447,-187500.02235174447,-187500.02235174447,-187500.02235174447,1731452291.0121584
-5618.043913608064,-187500.02235174447,8017.593087863099,-187500.02235174447,-187500.02235174447,-187500.02235174447,-187500.02235174447,-187500.02235174447,1731452291.0161684
-5595.0663203080085,-187500.02235174447,8022.510471643266,-187500.02235174447,-187500.02235174447,-187500.02235174447,-187500.02235174447,-187500.02235174447,1731452291.0212731
-5548.820561029978,-187500.02235174447,8034.379247949034,-187500.02235174447,-187500.02235174447,-187500.02235174447,-187500.02235174447,-187500.02235174447,1731452291.0251935
-5567.1266397388745,-187500.02235174447,8023.002210021283,-187500.02235174447,-187500.02235174447,-187500.02235174447,-187500.02235174447,-187500.02235174447,1731452291.029153
-5618.021561863609,-187500.02235174447,8010.01584649275,-187500.02235174447,-187500.02235174447,-187500.02235174447,-187500.02235174447,-187500.02235174447,1731452291.032174
-5615.249945551151,-187500.02235174447,8015.179099461926,-187500.02235174447,-187500.02235174447,-187500.02235174447,-187500.02235174447,-187500.02235174447,1731452291.0362265
-5569.67473860678,-187500.02235174447,8030.020657780249,-187500.02235174447,-187500.02235174447,-187500.02235174447,-187500.02235174447,-187500.02235174447,1731452291.040212
-5557.224816945174,-187500.02235174447,8025.1256257445375,-187500.02235174447,-187500.02235174447,-187500.02235174447,-187500.02235174447,-187500.02235174447,1731452291.0440671
-5602.978837845188,-187500.02235174447,7998.147070186981,-187500.02235174447,-187500.02235174447,-187500.02235174447,-187500.02235174447,-187500.02235174447,1731452291.0491667
-5627.319887557017,-187500.02235174447,8007.601858091576,-187500.02235174447,-187500.02235174447,-187500.02235174447,-187500.02235174447,-187500.02235174447,1731452291.0530095
-5569.652386862324,-187500.02235174447,8036.323849716646,-187500.02235174447,-187500.02235174447,-187500.02235174447,-187500.02235174447,-187500.02235174447,1731452291.0571973
-5565.1820379712635,-187500.02235174447,8028.612497879565,-187500.02235174447,-187500.02235174447,-187500.02235174447,-187500.02235174447,-187500.02235174447,1731452291.0602868
-5617.4851199966815,-187500.02235174447,8005.098462712582,-187500.02235174447,-187500.02235174447,-187500.02235174447,-187500.02235174447,-187500.02235174447,1731452291.0643122
-5625.308230556039,-187500.02235174447,8001.1198521995375,-187500.02235174447,-187500.02235174447,-187500.02235174447,-187500.02235174447,-187500.02235174447,1731452291.0683112
-5581.67762537928,-187500.02235174447,8024.566832133154,-187500.02235174447,-187500.02235174447,-187500.02235174447,-187500.02235174447,-187500.02235174447,1731452291.0723095
-5560.555226869014,-187500.02235174447,8034.334544460124,-187500.02235174447,-187500.02235174447,-187500.02235174447,-187500.02235174447,-187500.02235174447,1731452291.0763285
-5601.391863988861,-187500.02235174447,8011.625172093532,-187500.02235174447,-187500.02235174447,-187500.02235174447,-187500.02235174447,-187500.02235174447,1731452291.081381
-5627.878681168399,-187500.02235174447,7996.269523652736,-187500.02235174447,-187500.02235174447,-187500.02235174447,-187500.02235174447,-187500.02235174447,1731452291.0853076
-5571.8652095634,-187500.02235174447,8013.6815325834195,-187500.02235174447,-187500.02235174447,-187500.02235174447,-187500.02235174447,-187500.02235174447,1731452291.0882857
-5531.43090384375,-187500.02235174447,8025.147977488992,-187500.02235174447,-187500.02235174447,-187500.02235174447,-187500.02235174447,-187500.02235174447,1731452291.0922816
-5578.526029411081,-187500.02235174447,8010.73110231532,-187500.02235174447,-187500.02235174447,-187500.02235174447,-187500.02235174447,-187500.02235174447,1731452291.0963376
-5625.554099745047,-187500.02235174447,7991.955636972862,-187500.02235174447,-187500.02235174447,-187500.02235174447,-187500.02235174447,-187500.02235174447,1731452291.1003194
-5595.848631363944,-187500.02235174447,8007.355988902568,-187500.02235174447,-187500.02235174447,-187500.02235174447,-187500.02235174447,-187500.02235174447,1731452291.1043143
-5548.619395329881,-187500.02235174447,8040.525977674244,-187500.02235174447,-187500.02235174447,-187500.02235174447,-187500.02235174447,-187500.02235174447,1731452291.109326
-5568.24422696164,-187500.02235174447,8030.110064758071,-187500.02235174447,-187500.02235174447,-187500.02235174447,-187500.02235174447,-187500.02235174447,1731452291.1133428
-5605.817509391011,-187500.02235174447,8001.231610921814,-187500.02235174447,-187500.02235174447,-187500.02235174447,-187500.02235174447,-187500.02235174447,1731452291.1163206
-5612.992419361165,-187500.02235174447,8005.456090623867,-187500.02235174447,-187500.02235174447,-187500.02235174447,-187500.02235174447,-187500.02235174447,1731452291.1202185
-5567.059584505509,-187500.02235174447,8028.746608346297,-187500.02235174447,-187500.02235174447,-187500.02235174447,-187500.02235174447,-187500.02235174447,1731452291.1243775
-5576.447317176738,-187500.02235174447,8009.4570528813665,-187500.02235174447,-187500.02235174447,-187500.02235174447,-187500.02235174447,-187500.02235174447,1731452291.128378
-5622.536614243581,-187500.02235174447,7993.006168962261,-187500.02235174447,-187500.02235174447,-187500.02235174447,-187500.02235174447,-187500.02235174447,1731452291.1324008
-5605.616343690914,-187500.02235174447,8002.9973987337835,-187500.02235174447,-187500.02235174447,-187500.02235174447,-187500.02235174447,-187500.02235174447,1731452291.137347
-5553.894407021333,-187500.02235174447,8014.73206457282,-187500.02235174447,-187500.02235174447,-187500.02235174447,-187500.02235174447,-187500.02235174447,1731452291.1403396
-5567.618378116891,-187500.02235174447,8004.137337701004,-187500.02235174447,-187500.02235174447,-187500.02235174447,-187500.02235174447,-187500.02235174447,1731452291.1442297
-5617.060436852031,-187500.02235174447,7985.29481712518,-187500.02235174447,-187500.02235174447,-187500.02235174447,-187500.02235174447,-187500.02235174447,1731452291.1483305
-5616.59105021847,-187500.02235174447,7982.344386857079,-187500.02235174447,-187500.02235174447,-187500.02235174447,-187500.02235174447,-187500.02235174447,1731452291.15229
-5570.792325829545,-187500.02235174447,7994.570791074132,-187500.02235174447,-187500.02235174447,-187500.02235174447,-187500.02235174447,-187500.02235174447,1731452291.1563559
-5556.107229722408,-187500.02235174447,7994.235514907303,-187500.02235174447,-187500.02235174447,-187500.02235174447,-187500.02235174447,-187500.02235174447,1731452291.1604517
-5610.041989093064,-187500.02235174447,7973.604854775054,-187500.02235174447,-187500.02235174447,-187500.02235174447,-187500.02235174447,-187500.02235174447,1731452291.1654043
-5622.223689821207,-187500.02235174447,7978.410479832945,-187500.02235174447,-187500.02235174447,-187500.02235174447,-187500.02235174447,-187500.02235174447,1731452291.1682265
-5575.128564253875,-187500.02235174447,7985.183058402903,-187500.02235174447,-187500.02235174447,-187500.02235174447,-187500.02235174447,-187500.02235174447,1731452291.1712508
-5561.650462347325,-187500.02235174447,7980.57859904511,-187500.02235174447,-187500.02235174447,-187500.02235174447,-187500.02235174447,-187500.02235174447,1731452291.176276
-5609.863175137422,-187500.02235174447,7971.436735562889,-187500.02235174447,-187500.02235174447,-187500.02235174447,-187500.02235174447,-187500.02235174447,1731452291.1803715
-5637.02054465062,-187500.02235174447,7975.124773398015,-187500.02235174447,-187500.02235174447,-187500.02235174447,-187500.02235174447,-187500.02235174447,1731452291.1844454
-5595.245134263651,-187500.02235174447,7994.794308518685,-187500.02235174447,-187500.02235174447,-187500.02235174447,-187500.02235174447,-187500.02235174447,1731452291.1884246
-5558.588273356948,-187500.02235174447,7999.219953920836,-187500.02235174447,-187500.02235174447,-187500.02235174447,-187500.02235174447,-187500.02235174447,1731452291.1933126
-5590.148936527841,-187500.02235174447,7972.688433252387,-187500.02235174447,-187500.02235174447,-187500.02235174447,-187500.02235174447,-187500.02235174447,1731452291.1962197
-5631.231442836695,-187500.02235174447,7953.3988777874565,-187500.02235174447,-187500.02235174447,-187500.02235174447,-187500.02235174447,-187500.02235174447,1731452291.1993792
-5602.3976924893495,-187500.02235174447,7967.927511683406,-187500.02235174447,-187500.02235174447,-187500.02235174447,-187500.02235174447,-187500.02235174447,1731452291.2043598
-5560.979910013665,-187500.02235174447,7983.283160124202,-187500.02235174447,-187500.02235174447,-187500.02235174447,-187500.02235174447,-187500.02235174447,1731452291.2084
-5573.67570086428,-187500.02235174447,7968.620415761521,-187500.02235174447,-187500.02235174447,-187500.02235174447,-187500.02235174447,-187500.02235174447,1731452291.2123888
-5625.867024167422,-187500.02235174447,7951.074296364105,-187500.02235174447,-187500.02235174447,-187500.02235174447,-187500.02235174447,-187500.02235174447,1731452291.2164428
-5615.674628695801,-187500.02235174447,7960.394973801968,-187500.02235174447,-187500.02235174447,-187500.02235174447,-187500.02235174447,-187500.02235174447,1731452291.2212465
-5569.920607795788,-187500.02235174447,7980.757413000752,-187500.02235174447,-187500.02235174447,-187500.02235174447,-187500.02235174447,-187500.02235174447,1731452291.2245216
-5576.2237997321845,-187500.02235174447,7979.662177522443,-187500.02235174447,-187500.02235174447,-187500.02235174447,-187500.02235174447,-187500.02235174447,1731452291.2273517
-5620.212032820229,-187500.02235174447,7956.326956311102,-187500.02235174447,-187500.02235174447,-187500.02235174447,-187500.02235174447,-187500.02235174447,1731452291.2325237
-5613.126529827897,-187500.02235174447,7955.38818304398,-187500.02235174447,-187500.02235174447,-187500.02235174447,-187500.02235174447,-187500.02235174447,1731452291.236281
-5562.3657181698945,-187500.02235174447,7972.91195069694,-187500.02235174447,-187500.02235174447,-187500.02235174447,-187500.02235174447,-187500.02235174447,1731452291.2403004
-5575.2850264650615,-187500.02235174447,7968.083973894593,-187500.02235174447,-187500.02235174447,-187500.02235174447,-187500.02235174447,-187500.02235174447,1731452291.2443635
-5614.244117050662,-187500.02235174447,7948.034459118183,-187500.02235174447,-187500.02235174447,-187500.02235174447,-187500.02235174447,-187500.02235174447,1731452291.2484007
-5619.049742108553,-187500.02235174447,7951.0519446196495,-187500.02235174447,-187500.02235174447,-187500.02235174447,-187500.02235174447,-187500.02235174447,1731452291.2513747
-5575.53089565407,-187500.02235174447,7974.320110597624,-187500.02235174447,-187500.02235174447,-187500.02235174447,-187500.02235174447,-187500.02235174447,1731452291.255527
-5567.1266397388745,-187500.02235174447,7962.227816847303,-187500.02235174447,-187500.02235174447,-187500.02235174447,-187500.02235174447,-187500.02235174447,1731452291.2604418
-5618.870928152911,-187500.02235174447,7939.518444480711,-187500.02235174447,-187500.02235174447,-187500.02235174447,-187500.02235174447,-187500.02235174447,1731452291.2645397
-5628.012791635131,-187500.02235174447,7943.76527592722,-187500.02235174447,-187500.02235174447,-187500.02235174447,-187500.02235174447,-187500.02235174447,1731452291.2685757
-5578.682491622269,-187500.02235174447,7964.306529081647,-187500.02235174447,-187500.02235174447,-187500.02235174447,-187500.02235174447,-187500.02235174447,1731452291.2724547
-5561.985738514154,-187500.02235174447,7969.313319839635,-187500.02235174447,-187500.02235174447,-187500.02235174447,-187500.02235174447,-187500.02235174447,1731452291.2756336
-5601.883602366877,-187500.02235174447,7956.5281220112,-187500.02235174447,-187500.02235174447,-187500.02235174447,-187500.02235174447,-187500.02235174447,1731452291.2796168
-5630.091503869475,-187500.02235174447,7941.284232292681,-187500.02235174447,-187500.02235174447,-187500.02235174447,-187500.02235174447,-187500.02235174447,1731452291.283486
-5595.289837752562,-187500.02235174447,7946.045153861661,-187500.02235174447,-187500.02235174447,-187500.02235174447,-187500.02235174447,-187500.02235174447,1731452291.288659
-5558.588273356948,-187500.02235174447,7949.5767294856,-187500.02235174447,-187500.02235174447,-187500.02235174447,-187500.02235174447,-187500.02235174447,1731452291.292565
-5587.712596382213,-187500.02235174447,7940.926604381395,-187500.02235174447,-187500.02235174447,-187500.02235174447,-187500.02235174447,-187500.02235174447,1731452291.2963822
-5619.720294442212,-187500.02235174447,7933.662287433421,-187500.02235174447,-187500.02235174447,-187500.02235174447,-187500.02235174447,-187500.02235174447,1731452291.3003752
-5594.284009252073,-187500.02235174447,7939.76431366972,-187500.02235174447,-187500.02235174447,-187500.02235174447,-187500.02235174447,-187500.02235174447,1731452291.3034568
-5559.817619301989,-187500.02235174447,7950.470799263811,-187500.02235174447,-187500.02235174447,-187500.02235174447,-187500.02235174447,-187500.02235174447,1731452291.3075848
-5567.528971139071,-187500.02235174447,7926.912060607918,-187500.02235174447,-187500.02235174447,-187500.02235174447,-187500.02235174447,-187500.02235174447,1731452291.3119073
-5643.122570886919,-187500.02235174447,7910.3717697109905,-187500.02235174447,-187500.02235174447,-187500.02235174447,-187500.02235174447,-187500.02235174447,1731452291.3165977
-5635.634736494391,-187500.02235174447,7947.319203295613,-187500.02235174447,-187500.02235174447,-187500.02235174447,-187500.02235174447,-187500.02235174447,1731452291.32155
-5578.257808477618,-187500.02235174447,7962.093706380571,-187500.02235174447,-187500.02235174447,-187500.02235174447,-187500.02235174447,-187500.02235174447,1731452291.324677
-5572.893389808344,-187500.02235174447,7950.694316708365,-187500.02235174447,-187500.02235174447,-187500.02235174447,-187500.02235174447,-187500.02235174447,1731452291.328698
