Fp1,Fp2,C3,C4,P7,P8,O1,O2,time_board,time_marker,marker
-145220.60247905285,-115794.35208968546,-115726.9168766638,-130936.11668778858,-148954.59550077864,-139806.22766092155,-187500.02235174447,-187500.02235174447,1729461300.0032215,1729461297.643032,1000
-145205.29153410095,-115850.67848571284,-115730.53785926556,-130924.56083590518,-148940.31273607168,-139792.749559015,-187500.02235174447,-187500.02235174447,1729461300.0063083,1729461297.643032,1000
-145198.4295485532,-115867.57640452104,-115721.12777484987,-130919.75521084729,-148934.00954413528,-139786.71458801205,-187500.02235174447,-187500.02235174447,1729461300.0103197,1729461297.643032,1000
-145207.5267085465,-115801.72816535571,-115722.15595509481,-130927.3548039621,-148941.54208201673,-139793.82244274885,-187500.02235174447,-187500.02235174447,1729461300.0143158,1729461297.643032,1000
-145208.4207783247,-115769.18402542878,-115722.37947253937,-130925.76783010577,-148941.69854422793,-139793.86714623775,-187500.02235174447,-187500.02235174447,1729461300.0183165,1729461297.643032,1000
-145196.84257469687,-115818.35786323046,-115729.55438250952,-130917.31887070167,-148931.1038173561,-139783.92061995514,-187500.02235174447,-187500.02235174447,1729461300.0224192,1729461297.643032,1000
-145187.23132458108,-115850.85729966848,-115719.87607716037,-130909.83103630913,-148922.38663701853,-139775.67282625113,-187500.02235174447,-187500.02235174447,1729461300.0263627,1729461297.643032,1000
-145192.93101941718,-115793.70388909626,-115710.86832414489,-130914.03316426673,-148926.67817195394,-139779.6514367642,-187500.02235174447,-187500.02235174447,1729461300.0303483,1729461297.643032,1000
-145200.03887415398,-115744.6194582724,-115714.82458291348,-130917.94471954642,-148932.71314295687,-139785.46289032255,-187500.02235174447,-187500.02235174447,1729461300.0333564,1729461297.643032,1000
-145188.59478099286,-115782.1256854684,-115720.1666498383,-130909.16048397547,-148921.93960212942,-139775.2034396176,-187500.02235174447,-187500.02235174447,1729461300.03846,1729461297.643032,1000
-145179.1176413438,-115826.56095344556,-115717.64090271485,-130902.85729203909,-148913.6024014476,-139767.4920877805,-187500.02235174447,-187500.02235174447,1729461300.0425007,1729461297.643032,1000
-145185.24201932456,-115782.23744419069,-115705.52625722007,-130907.9534897749,-148918.76565441675,-139772.4988785385,-187500.02235174447,-187500.02235174447,1729461300.046358,1729461297.643032,1000
-145192.50633627252,-115723.27354231758,-115707.1579345653,-130911.9991555213,-148925.0017911198,-139778.37738733023,-187500.02235174447,-187500.02235174447,1729461300.0502462,1729461297.643032,1000
-145183.94561814616,-115749.60389728594,-115701.19001879574,-130903.7513618173,-148917.02221834924,-139770.86720119324,-187500.02235174447,-187500.02235174447,1729461300.0542748,1729461297.643032,1000
-145167.45003073814,-115802.24225547818,-115702.10644031841,-130891.86023376707,-148902.18066003092,-139756.7408986975,-187500.02235174447,-187500.02235174447,1729461300.0582943,1729461297.643032,1000
-145169.30522552793,-115772.29091790807,-115689.56711167897,-130894.11775995705,-148903.76763388727,-139758.0820033648,-187500.02235174447,-187500.02235174447,1729461300.0612736,1729461297.643032,1000
-145178.20121982115,-115703.69341417473,-115697.92666410527,-130900.8009315492,-148911.43428223542,-139765.36867205723,-187500.02235174447,-187500.02235174447,1729461300.0652757,1729461297.643032,1000
-145172.83680115186,-115713.17055382379,-115693.2104460252,-130894.43068437943,-148906.51689845527,-139760.7865644439,-187500.02235174447,-187500.02235174447,1729461300.070292,1729461297.643032,1000
-145157.88348411125,-115771.46390336323,-115696.92083560477,-130884.19358541889,-148893.2846657377,-139748.31429103785,-187500.02235174447,-187500.02235174447,1729461300.074308,1729461297.643032,1000
-145159.35869924532,-115758.85751949043,-115687.3542889779,-130886.47346335334,-148894.7822326162,-139749.96832012755,-187500.02235174447,-187500.02235174447,1729461300.0783365,1729461297.643032,1000
-145170.48986798406,-115687.53310293355,-115695.9597105932,-130895.57062334665,-148904.5052414543,-139759.2442940765,-187500.02235174447,-187500.02235174447,1729461300.0823684,1729461297.643032,1000
-145166.39949874874,-115681.2522627416,-115687.80132386701,-130889.44624536589,-148900.48192745232,-139755.46684926355,-187500.02235174447,-187500.02235174447,1729461300.0863612,1729461297.643032,1000
-145150.17213227417,-115738.9197634363,-115692.33872799143,-130877.86804173805,-148885.72977611184,-139741.51936072344,-187500.02235174447,-187500.02235174447,1729461300.090324,1729461297.643032,1000
-145144.6065479048,-115744.4182925723,-115679.86645458538,-130873.66591378045,-148880.54417139819,-139736.51256996545,-187500.02235174447,-187500.02235174447,1729461300.0943472,1729461297.643032,1000
-145152.63082416425,-115674.21146323819,-115681.81105635299,-130879.85734699457,-148887.00382554578,-139742.59224445728,-187500.02235174447,-187500.02235174447,1729461300.0973165,1729461297.643032,1000
-145151.02149856347,-115652.01618099406,-115671.57395739245,-130874.8952597255,-148884.88040982254,-139740.46882873404,-187500.02235174447,-187500.02235174447,1729461300.1014178,1729461297.643032,1000
-145135.82231233388,-115706.9567688652,-115673.54091090453,-130863.67468400893,-148870.86586604905,-139727.21424427204,-187500.02235174447,-187500.02235174447,1729461300.1054509,1729461297.643032,1000
-145128.89327155272,-115728.30268482002,-115664.15317823329,-130858.71259673985,-148864.58502585712,-139721.42514245812,-187500.02235174447,-187500.02235174447,1729461300.1093884,1729461297.643032,1000
-145136.1128850118,-115665.71780034517,-115665.38252417833,-130865.17225088744,-148870.46353464885,-139726.90131984965,-187500.02235174447,-187500.02235174447,1729461300.1144764,1729461297.643032,1000
-145139.510350169,-115627.16104115976,-115668.98115503564,-130865.77574798773,-148873.10104049457,-139729.33765999528,-187500.02235174447,-187500.02235174447,1729461300.1185002,1729461297.643032,1000
-145125.87578605127,-115672.75859984859,-115672.89271031533,-130855.06926239363,-148860.3381944106,-139717.20066275605,-187500.02235174447,-187500.02235174447,1729461300.1214921,1729461297.643032,1000
-145115.3481144128,-115709.0131293551,-115665.67309685626,-130847.49202102328,-148850.97281348382,-139708.3270202073,-187500.02235174447,-187500.02235174447,1729461300.125462,1729461297.643032,1000
-145121.8077685604,-115654.2513554396,-115656.24066069612,-130852.96819841483,-148856.51604610874,-139713.5349766654,-187500.02235174447,-187500.02235174447,1729461300.1294105,1729461297.643032,1000
-145126.99337327402,-115602.52941877002,-115653.55845136147,-130854.7339862268,-148860.87463627753,-139717.737104623,-187500.02235174447,-187500.02235174447,1729461300.133486,1729461297.643032,1000
-145117.96326851408,-115638.06869245395,-115650.38450364882,-130847.02263438972,-148852.91741525143,-139710.24927023044,-187500.02235174447,-187500.02235174447,1729461300.138502,1729461297.643032,1000
-145107.05561721988,-115685.52144593257,-115650.6974280712,-130840.07124186412,-148843.55203432465,-139701.50973814842,-187500.02235174447,-187500.02235174447,1729461300.1424997,1729461297.643032,1000
-145111.1459864552,-115645.62358207985,-115645.15419544629,-130843.96044539935,-148846.94949948188,-139704.6836858611,-187500.02235174447,-187500.02235174447,1729461300.1465042,1729461297.643032,1000
-145113.8058440454,-115584.11158133885,-115645.26595416856,-130844.54159075518,-148848.5811768271,-139706.00243878394,-187500.02235174447,-187500.02235174447,1729461300.1495056,1729461297.643032,1000
-145107.81557653137,-115605.32338682693,-115644.55069834599,-130838.6854337079,-148843.06029594663,-139700.99564802597,-187500.02235174447,-187500.02235174447,1729461300.1535163,1729461297.643032,1000
-145098.07021594886,-115660.77806482054,-115648.93164025924,-130832.85162840506,-148834.70074352037,-139693.39605491117,-187500.02235174447,-187500.02235174447,1729461300.1574304,1729461297.643032,1000
-145099.5454310829,-115636.61582906435,-115640.30386689949,-130834.37154702801,-148835.61716504302,-139694.13366247818,-187500.02235174447,-187500.02235174447,1729461300.161462,1729461297.643032,1000
-145107.748521298,-115567.77245614202,-115644.55069834599,-130840.56298024215,-148842.1885779129,-139700.39215092568,-187500.02235174447,-187500.02235174447,1729461300.1654832,1729461297.643032,1000
-145104.01577997397,-115572.1757497997,-115649.71395131516,-130836.31614879564,-148838.34407786658,-139696.83822355728,-187500.02235174447,-187500.02235174447,1729461300.1705444,1729461297.643032,1000
-145088.43661408863,-115630.87143073934,-115658.6993525862,-130825.49790447926,-148824.19542362637,-139683.471880373,-187500.02235174447,-187500.02235174447,1729461300.1744924,1729461297.643032,1000
-145087.14021291022,-115626.66930278174,-115637.33108488693,-130823.3297852671,-148822.74256023677,-139682.13077570568,-187500.02235174447,-187500.02235174447,1729461300.1775093,1729461297.643032,1000
-145097.33260838184,-115556.48482519208,-115637.10756744238,-130830.7282126818,-148831.25857487423,-139690.19975545406,-187500.02235174447,-187500.02235174447,1729461300.1815732,1729461297.643032,1000
-145094.58334381384,-115545.73363610907,-115637.01816046455,-130826.81665740213,-148828.1740341394,-139687.1599182081,-187500.02235174447,-187500.02235174447,1729461300.1855881,1729461297.643032,1000
-145076.7019482496,-115602.4847152811,-115644.21542217916,-130813.51736945122,-148811.54433626466,-139671.37958662267,-187500.02235174447,-187500.02235174447,1729461300.1895883,1729461297.643032,1000
-145071.27047434694,-115612.5877037749,-115626.40108184828,-130808.3764682265,-148806.38108329548,-139666.59631330924,-187500.02235174447,-187500.02235174447,1729461300.1937003,1729461297.643032,1000
-145079.67473026214,-115544.10195876384,-115622.13189865732,-130814.70201190736,-148813.15366186545,-139672.966560479,-187500.02235174447,-187500.02235174447,1729461300.1985912,1729461297.643032,1000
-145081.32875935183,-115516.43049912817,-115619.24852362258,-130813.74088689577,-148814.20419385485,-139673.95003723504,-187500.02235174447,-187500.02235174447,1729461300.2025945,1729461297.643032,1000
-145068.3423958233,-115567.90656660874,-115625.28349462552,-130804.46491294682,-148802.44717627135,-139662.79651675184,-187500.02235174447,-187500.02235174447,1729461300.205584,1729461297.643032,1000
-145059.26758757443,-115595.28745356649,-115616.23103812111,-130797.78174135469,-148794.28878954516,-139655.08516491475,-187500.02235174447,-187500.02235174447,1729461300.209669,1729461297.643032,1000
-145066.97893941152,-115533.6189906143,-115610.41958456274,-130804.24139550226,-148800.83785067056,-139661.32130161778,-187500.02235174447,-187500.02235174447,1729461300.2146778,1729461297.643032,1000
-145070.8904946912,-115490.50247556002,-115607.11152638335,-130804.621375158,-148803.87768791648,-139664.27173188588,-187500.02235174447,-187500.02235174447,1729461300.218793,1729461297.643032,1000
-145060.07225037483,-115533.99897027004,-115605.81512520494,-130795.79243609816,-148793.97586512277,-139654.99575793694,-187500.02235174447,-187500.02235174447,1729461300.2217147,1729461297.643032,1000
-145048.15877058016,-115573.06981957793,-115601.47888678062,-130787.16466273842,-148783.2246760398,-139644.69160374303,-187500.02235174447,-187500.02235174447,1729461300.225639,1729461297.643032,1000
-145055.5348462504,-115522.15254570873,-115599.86956117983,-130794.2725174752,-148789.66197844292,-139650.74892649043,-187500.02235174447,-187500.02235174447,1729461300.230664,1729461297.643032,1000
-145061.90509342018,-115466.004963637,-115605.09986938238,-130798.42994194389,-148794.8252314121,-139655.75571724842,-187500.02235174447,-187500.02235174447,1729461300.2336855,1729461297.643032,1000
-145052.7855816824,-115495.95630120712,-115612.65475900826,-130790.60683138453,-148785.8174783966,-139647.4632200555,-187500.02235174447,-187500.02235174447,1729461300.2375543,1729461297.643032,1000
-145038.14518906418,-115547.1194442653,-115614.75582298706,-130779.69918009033,-148772.09350730103,-139634.4098012936,-187500.02235174447,-187500.02235174447,1729461300.2416255,1729461297.643032,1000
-145042.74964842197,-115514.12826944927,-115594.03575587699,-130782.22492721379,-148775.80389688062,-139638.07548738428,-187500.02235174447,-187500.02235174447,1729461300.2456079,1729461297.643032,1000
-145047.62232871322,-115450.11287332927,-115591.91234015374,-130784.23658421477,-148779.35782424902,-139641.2717868414,-187500.02235174447,-187500.02235174447,1729461300.2496147,1729461297.643032,1000
-145040.3803635097,-115465.91555665918,-115584.60331971686,-130776.21230795531,-148772.18291427888,-139634.3203943158,-187500.02235174447,-187500.02235174447,1729461300.2546155,1729461297.643032,1000
-145025.76232263594,-115521.34788290833,-115588.29135755198,-130766.13167120596,-148758.88362632797,-139621.78106567636,-187500.02235174447,-187500.02235174447,1729461300.2576916,1729461297.643032,1000
-145025.91878484713,-115502.32654837688,-115575.81908414591,-130766.10931946151,-148758.59305365005,-139621.49049299842,-187500.02235174447,-187500.02235174447,1729461300.2618442,1729461297.643032,1000
-145033.45132272856,-115431.739739387,-115579.95415687015,-130772.21134569781,-148764.7621351197,-139627.3019465568,-187500.02235174447,-187500.02235174447,1729461300.2658582,1729461297.643032,1000
-145028.75745639295,-115431.42681496464,-115576.71315392414,-130765.99756073924,-148759.84475133952,-139622.54102498782,-187500.02235174447,-187500.02235174447,1729461300.269847,1729461297.643032,1000
-145017.40277020965,-115490.36836509328,-115585.45268600616,-130758.68854030235,-148749.607652379,-139613.01918184987,-187500.02235174447,-187500.02235174447,1729461300.2738087,1729461297.643032,1000
-145015.59227890876,-115489.65310927072,-115570.65583117674,-130756.96745597929,-148747.61834712248,-139611.32044927127,-187500.02235174447,-187500.02235174447,1729461300.2798944,1729461297.643032,1000
-145024.10829354625,-115418.88748632521,-115574.2321102896,-130764.20942118281,-148754.79325709265,-139618.0483243523,-187500.02235174447,-187500.02235174447,1729461300.2828832,1729461297.643032,1000
-145022.56602317884,-115401.52018088344,-115572.9804126001,-130760.70019730333,-148752.9604140473,-139616.23783305142,-187500.02235174447,-187500.02235174447,1729461300.2858732,1729461297.643032,1000
-145009.19967999455,-115456.61723096577,-115579.55182546996,-130750.73131927627,-148740.19756796333,-139604.27964976785,-187500.02235174447,-187500.02235174447,1729461300.2896483,1729461297.643032,1000
-145002.11417700222,-115471.61525149528,-115564.08441830688,-130744.56223780659,-148733.67085858237,-139598.11056829817,-187500.02235174447,-187500.02235174447,1729461300.2936573,1729461297.643032,1000
-145010.40667419514,-115404.76118382945,-115561.55867118343,-130751.60303731002,-148741.0022307637,-139605.06196082378,-187500.02235174447,-187500.02235174447,1729461300.297685,1729461297.643032,1000
-145012.19481375156,-115372.5299683249,-115559.45760720463,-130751.111298932,-148742.61155636449,-139606.6042311912,-187500.02235174447,-187500.02235174447,1729461300.301673,1729461297.643032,1000
-144999.85665081223,-115422.82139334934,-115562.40803747273,-130740.91890346038,-148730.31809691407,-139595.0483793078,-187500.02235174447,-187500.02235174447,1729461300.3057668,1729461297.643032,1000
-144993.3746449202,-115454.62792570925,-115556.61893565881,-130736.47090631377,-148724.23842242223,-139589.59455366072,-187500.02235174447,-187500.02235174447,1729461300.309755,1729461297.643032,1000
-145002.04712176885,-115396.37927965872,-115555.88132809178,-130745.43395584036,-148732.37445740396,-139597.3506089867,-187500.02235174447,-187500.02235174447,1729461300.3137856,1729461297.643032,1000
-145006.5845258933,-115348.99358141347,-115556.1271972808,-130748.25027564172,-148737.53771037314,-139602.31269625577,-187500.02235174447,-187500.02235174447,1729461300.316775,1729461297.643032,1000
-144994.93926703208,-115387.57269234332,-115555.09901703586,-130736.60501678051,-148725.13249220044,-139590.55567867227,-187500.02235174447,-187500.02235174447,1729461300.320708,1729461297.643032,1000
-144983.4728221265,-115430.82331786434,-115551.99212455656,-130727.68667074284,-148714.0013234617,-139580.02800703383,-187500.02235174447,-187500.02235174447,1729461300.3257425,1729461297.643032,1000
-144988.70313032903,-115384.77872428641,-115545.778339598,-130733.2075516233,-148718.96341073076,-139584.83363209173,-187500.02235174447,-187500.02235174447,1729461300.329722,1729461297.643032,1000
-144993.75462457593,-115325.92658113559,-115549.9804675556,-130737.58849353655,-148725.02073347816,-139590.53332692783,-187500.02235174447,-187500.02235174447,1729461300.3337572,1729461297.643032,1000
-144985.50683087192,-115353.15100588216,-115550.94159256716,-130728.69249924333,-148715.47653859574,-139581.39146344562,-187500.02235174447,-187500.02235174447,1729461300.3367677,1729461297.643032,1000
-144972.14048768766,-115405.7446605855,-115552.26034549002,-130717.80719969359,-148701.7972709891,-139568.4945068949,-187500.02235174447,-187500.02235174447,1729461300.3408327,1729461297.643032,1000
-144974.77799353338,-115376.0391922044,-115537.15056623824,-130720.06472588358,-148704.52418381264,-139571.1543644851,-187500.02235174447,-187500.02235174447,1729461300.3448427,1729461297.643032,1000
-144980.09770871376,-115309.87802861667,-115537.68700810517,-130725.94323467533,-148711.38616936043,-139577.61401863265,-187500.02235174447,-187500.02235174447,1729461300.3490045,1729461297.643032,1000
-144970.55351383134,-115320.09277583276,-115530.33328417937,-130714.83441768104,-148700.97025644427,-139567.6004371167,-187500.02235174447,-187500.02235174447,1729461300.353794,1729461297.643032,1000
-144956.85189448023,-115376.91091023815,-115534.6695226037,-130703.18915881982,-148686.3969190594,-139553.56354159876,-187500.02235174447,-187500.02235174447,1729461300.3578224,1729461297.643032,1000
-144957.90242646963,-115363.2763461204,-115522.2196009421,-130704.53026348715,-148687.7380237267,-139554.8822945216,-187500.02235174447,-187500.02235174447,1729461300.361872,1729461297.643032,1000
-144963.84799049475,-115292.28720573035,-115526.82406029988,-130712.33102230204,-148696.03052091962,-139562.70540508098,-187500.02235174447,-187500.02235174447,1729461300.3648753,1729461297.643032,1000
-144960.89756022664,-115288.73327836196,-115523.15837420922,-130707.83832166652,-148692.83422146252,-139559.7996783018,-187500.02235174447,-187500.02235174447,1729461300.3689961,1729461297.643032,1000
-144950.25812986592,-115347.33955232377,-115530.40033941274,-130697.75768491719,-148679.80315444508,-139547.55092234028,-187500.02235174447,-187500.02235174447,1729461300.373024,1729461297.643032,1000
-144946.95007168653,-115351.65343900365,-115514.24002817155,-130694.6954959268,-148676.36098579896,-139544.39932637208,-187500.02235174447,-187500.02235174447,1729461300.3771694,1729461297.643032,1000
-144950.97338568847,-115281.87129281418,-115515.20115318312,-130701.13279832994,-148682.70888122427,-139550.30018690828,-187500.02235174447,-187500.02235174447,1729461300.3820639,1729461297.643032,1000
-144948.84996996523,-115259.76541754788,-115508.3168158909,-130697.71298142827,-148681.8818666794,-139549.40611713007,-187500.02235174447,-187500.02235174447,1729461300.3860607,1729461297.643032,1000
-144941.13861812814,-115314.86246763021,-115511.22254267009,-130688.57111794605,-148670.70599445177,-139538.96785246945,-187500.02235174447,-187500.02235174447,1729461300.390061,1729461297.643032,1000
-144935.32716456975,-115335.85075567375,-115502.55006582143,-130683.31845799905,-148664.40280251537,-139533.02228844434,-187500.02235174447,-187500.02235174447,1729461300.3930972,1729461297.643032,1000
-144938.6575744936,-115271.18715896455,-115505.29933038943,-130690.33690575803,-148670.41542177385,-139538.6772797915,-187500.02235174447,-187500.02235174447,1729461300.3972373,1729461297.643032,1000
-144937.1600076151,-115234.37383584665,-115505.45579260061,-130689.50989121318,-148671.4436020188,-139539.6384048031,-187500.02235174447,-187500.02235174447,1729461300.4009824,1729461297.643032,1000
-144927.57110924379,-115282.38538293666,-115507.66861530169,-130677.03761780712,-148657.29494777857,-139526.16030289655,-187500.02235174447,-187500.02235174447,1729461300.4049356,1729461297.643032,1000
-144920.7538271849,-115318.28228453187,-115500.38194660925,-130670.06387353706,-148648.95774709675,-139518.3818958261,-187500.02235174447,-187500.02235174447,1729461300.4089324,1729461297.643032,1000
-144925.5147487539,-115263.16288270509,-115495.08458317335,-130677.73052188523,-148656.33382276702,-139525.44504707397,-187500.02235174447,-187500.02235174447,1729461300.4139397,1729461297.643032,1000
-144925.49239700942,-115210.25630357937,-115496.58215005187,-130680.61389691997,-148660.87122689144,-139529.75893375385,-187500.02235174447,-187500.02235174447,1729461300.4179573,1729461297.643032,1000
-144916.61875446068,-115245.41559760757,-115500.09137393134,-130668.56630665855,-148647.21431102924,-139516.59375626966,-187500.02235174447,-187500.02235174447,1729461300.4210696,1729461297.643032,1000
-144907.1416148116,-115292.2648539859,-115498.32558611938,-130658.35155944248,-148634.76438936763,-139504.680276475,-187500.02235174447,-187500.02235174447,1729461300.4251003,1729461297.643032,1000
-144908.92975436806,-115252.16582443308,-115481.98646092255,-130661.52550715514,-148638.76535162513,-139508.54712826575,-187500.02235174447,-187500.02235174447,1729461300.4291098,1729461297.643032,1000
-144909.8461758907,-115191.8831696371,-115485.29451910192,-130667.00168454667,-148645.62733717292,-139514.9844306689,-187500.02235174447,-187500.02235174447,1729461300.4331574,1729461297.643032,1000
-144905.3087717663,-115214.03374839232,-115483.17110337867,-130659.4914984097,-148638.2289097582,-139507.8765759321,-187500.02235174447,-187500.02235174447,1729461300.4369495,1729461297.643032,1000
-144895.9433908395,-115268.70611533,-115485.69685050212,-130648.38268141542,-148624.21436598472,-139494.6219914701,-187500.02235174447,-187500.02235174447,1729461300.4419987,1729461297.643032,1000
-144895.18343152804,-115242.93455397303,-115470.43060903915,-130649.90260003837,-148625.60017414097,-139495.8289856707,-187500.02235174447,-187500.02235174447,1729461300.4449725,1729461297.643032,1000
-144896.03279781734,-115172.8841868501,-115477.62787075376,-130658.21744897575,-148634.45146494528,-139504.25559333034,-187500.02235174447,-187500.02235174447,1729461300.449008,1729461297.643032,1000
-144892.63533266014,-115178.56152994175,-115473.26928058497,-130652.3836436729,-148630.0258195431,-139500.1875758395,-187500.02235174447,-187500.02235174447,1729461300.4530125,1729461297.643032,1000
-144885.72864362344,-115237.39132134811,-115479.52776903246,-130642.05713773456,-148616.570069381,-139487.64824720006,-187500.02235174447,-187500.02235174447,1729461300.4569707,1729461297.643032,1000
-144883.18054475554,-115229.7470247444,-115462.33927754633,-130640.51486736714,-148615.00544726916,-139486.08362508818,-187500.02235174447,-187500.02235174447,1729461300.4609528,1729461297.643032,1000
-144886.39919595708,-115042.01472306428,-115466.96608864858,-130647.7344808262,-148622.1356537504,-139492.6773897025,-187500.02235174447,-187500.02235174447,1729461300.4650362,1729461297.643032,1000
-144889.72960588094,-114852.24841263873,-115458.69594320012,-130642.77239355713,-148619.69931360477,-139490.44221525698,-187500.02235174447,-187500.02235174447,1729461300.4700413,1729461297.643032,1000
-144877.59260864172,-115152.07471276222,-115443.8990883707,-130630.76950678462,-148607.38350240988,-139478.95341860695,-187500.02235174447,-187500.02235174447,1729461300.473038,1729461297.643032,1000
-144871.4458789165,-115472.82224569586,-115450.31403902937,-130629.3836986284,-148602.46611862973,-139474.2148487824,-187500.02235174447,-187500.02235174447,1729461300.4770172,1729461297.643032,1000
-144879.49250692042,-115899.20412292531,-115469.98357415004,-130637.36327139895,-148609.19399371077,-139480.5180407188,-187500.02235174447,-187500.02235174447,1729461300.480982,1729461297.643032,1000
-144884.38753895613,-116216.46478372393,-115471.0564578839,-130637.92206501032,-148612.14442397887,-139483.35671226462,-187500.02235174447,-187500.02235174447,1729461300.484995,1729461297.643032,1000
-144870.8423818162,-116281.95539497798,-115480.86887369977,-130627.95318698326,-148599.51568836163,-139471.4208807255,-187500.02235174447,-187500.02235174447,1729461300.4889307,1729461297.643032,1000
-144861.27583518933,-116306.11763073417,-115466.96608864858,-130620.06302119054,-148590.66439755732,-139462.92721783248,-187500.02235174447,-187500.02235174447,1729461300.492985,1729461297.643032,1000
-144869.1436492376,-116243.17511834802,-115456.17019607667,-130626.1873991713,-148597.14640344935,-139468.93983709096,-187500.02235174447,-187500.02235174447,1729461300.4980252,1729461297.643032,1000
-144872.85403881717,-116198.35987071514,-115459.45590251159,-130626.85795150495,-148600.00742673964,-139471.7114534034,-187500.02235174447,-187500.02235174447,1729461300.5010543,1729461297.643032,1000
-144859.01830899934,-116240.0905776132,-115463.99330663602,-130615.99500369967,-148587.06576670002,-139459.28388348626,-187500.02235174447,-187500.02235174447,1729461300.5051403,1729461297.643032,1000
-144844.31086114777,-116278.51322633187,-115457.35483853279,-130604.57326228301,-148573.4312025823,-139446.25281646883,-187500.02235174447,-187500.02235174447,1729461300.5091107,1729461297.643032,1000
-144851.9998612404,-116225.9866268619,-115443.27323952595,-130610.63058503039,-148579.89085672985,-139452.39954619404,-187500.02235174447,-187500.02235174447,1729461300.5131116,1729461297.643032,1000
-144862.52753287883,-116169.03438198977,-115449.93405937363,-130618.09606767847,-148589.27858940107,-139461.36259572062,-187500.02235174447,-187500.02235174447,1729461300.517206,1729461297.643032,1000
-144853.87740777462,-116197.86813233711,-115454.89614664271,-130610.96586119723,-148581.14255441935,-139453.80770609473,-187500.02235174447,-187500.02235174447,1729461300.521069,1729461297.643032,1000
-144839.34877387868,-116246.10319687167,-115454.80673966488,-130600.3264308365,-148567.7091560017,-139441.33543268865,-187500.02235174447,-187500.02235174447,1729461300.5260973,1729461297.643032,1000
-144841.7404105354,-116210.20629527645,-115435.15955628868,-130601.48872154817,-148569.49729555813,-139443.0118135228,-187500.02235174447,-187500.02235174447,1729461300.5290923,1729461297.643032,1000
-144847.95419549398,-116145.07331193368,-115437.23826852301,-130605.3779250834,-148574.54878980503,-139447.66097636952,-187500.02235174447,-187500.02235174447,1729461300.533106,1729461297.643032,1000
-144842.29920414678,-116160.5630708412,-115437.57354468985,-130599.52176803611,-148569.0726124135,-139442.5200751448,-187500.02235174447,-187500.02235174447,1729461300.5372007,1729461297.643032,1000
-144827.435294084,-116215.14603080107,-115441.5968586918,-130588.9717446532,-148555.4604000402,-139429.57841510518,-187500.02235174447,-187500.02235174447,1729461300.5410824,1729461297.643032,1000
-144827.61410803965,-116193.55424565724,-115423.87192533874,-130588.48000627519,-148555.23688259567,-139429.28784242723,-187500.02235174447,-187500.02235174447,1729461300.5450656,1729461297.643032,1000
-144836.9347854775,-116121.1569453665,-115430.06335855287,-130595.81137845652,-148563.30586234402,-139436.79802856423,-187500.02235174447,-187500.02235174447,1729461300.549065,1729461297.643032,1000
-144831.74918076387,-116120.46404128839,-115426.95646607358,-130589.88816617586,-148558.1202576304,-139431.90299652852,-187500.02235174447,-187500.02235174447,1729461300.5531323,1729461297.643032,1000
-144816.52764278982,-116177.03630650477,-115435.62894292224,-130579.7181224487,-148544.59745223494,-139419.22955742237,-187500.02235174447,-187500.02235174447,1729461300.5561476,1729461297.643032,1000
-144812.88430844358,-116175.71755358191,-115418.8427828363,-130576.70063694724,-148541.44585626674,-139416.23442366536,-187500.02235174447,-187500.02235174447,1729461300.5601673,1729461297.643032,1000
-144826.04948592777,-116103.99080562482,-115423.71546312756,-130588.07767487499,-148553.38168780587,-139427.7679238043,-187500.02235174447,-187500.02235174447,1729461300.5652015,1729461297.643032,1000
-144825.93772720548,-116086.57879669414,-115425.77182361744,-130586.28953531856,-148553.0687633835,-139427.410295893,-187500.02235174447,-187500.02235174447,1729461300.5692291,1729461297.643032,1000
-144811.40909330954,-116140.87118397608,-115433.70669289908,-130576.25360205813,-148540.12710334387,-139415.09448469811,-187500.02235174447,-187500.02235174447,1729461300.5732405,1729461297.643032,1000
-144801.35080830465,-116153.85754750462,-115416.78642234641,-130567.33525602047,-148530.64996369483,-139405.9973247048,-187500.02235174447,-187500.02235174447,1729461300.577376,1729461297.643032,1000
-144809.71036073094,-116085.3494507491,-115411.19848623259,-130573.83961365696,-148537.98133587616,-139412.76990327478,-187500.02235174447,-187500.02235174447,1729461300.5801904,1729461297.643032,1000
-144811.45379679845,-116052.71590384435,-115408.7397943425,-130573.39257876786,-148539.27773705457,-139413.9992492198,-187500.02235174447,-187500.02235174447,1729461300.5842211,1729461297.643032,1000
-144797.930991403,-116102.71675619087,-115413.5901228893,-130563.37899725187,-148526.98427760415,-139402.3986938475,-187500.02235174447,-187500.02235174447,1729461300.5882323,1729461297.643032,1000
-144788.56561047622,-116133.53981179475,-115405.92347454114,-130556.3605494929,-148518.78118738905,-139394.62028677706,-187500.02235174447,-187500.02235174447,1729461300.5932243,1729461297.643032,1000
-144797.10397685814,-116073.39126746551,-115401.52018088344,-130563.73662516316,-148526.40313224832,-139401.7951967472,-187500.02235174447,-187500.02235174447,1729461300.5974455,1729461297.643032,1000
-144801.01553213783,-116025.60323782006,-115398.48034363752,-130564.67539843028,-148529.59943170543,-139404.72327527087,-187500.02235174447,-187500.02235174447,1729461300.6012654,1729461297.643032,1000
-144789.0797005987,-116063.98118304982,-115396.17811395862,-130554.79592738104,-148518.71413215567,-139394.37441758806,-187500.02235174447,-187500.02235174447,1729461300.60526,1729461297.643032,1000
-144778.03793883778,-116104.88487540303,-115392.26655867894,-130547.08457554395,-148508.83466110643,-139385.00903666127,-187500.02235174447,-187500.02235174447,1729461300.6082149,1729461297.643032,1000
-144781.99419760637,-116057.11919750205,-115386.79038128738,-130550.99613082364,-148511.82979486344,-139387.71359774037,-187500.02235174447,-187500.02235174447,1729461300.6122532,1729461297.643032,1000
-144788.8785348986,-115997.95412992885,-115391.75246855647,-130555.33236924796,-148517.73065539965,-139393.32388559866,-187500.02235174447,-187500.02235174447,1729461300.6162953,1729461297.643032,1000
-144779.2672847828,-116024.37389187502,-115390.03138423341,-130546.27991274357,-148508.76760587306,-139384.80787096117,-187500.02235174447,-187500.02235174447,1729461300.6212544,1729461297.643032,1000
-144766.4597352099,-116076.4981599448,-115392.80300054587,-130537.89800857283,-148497.5470301565,-139374.16844060045,-187500.02235174447,-187500.02235174447,1729461300.625204,1729461297.643032,1000
-144767.9573020884,-116044.26694444024,-115380.06250620635,-130538.97089230668,-148498.7540243571,-139375.17426910094,-187500.02235174447,-187500.02235174447,1729461300.629249,1729461297.643032,1000
-144774.59577019166,-115977.05524886314,-115381.02363121792,-130543.30713073102,-148504.34196047092,-139380.2481150923,-187500.02235174447,-187500.02235174447,1729461300.6332307,1729461297.643032,1000
-144769.09724105566,-115988.7228594688,-115373.06641019184,-130536.91453181679,-148499.2010592462,-139375.48719352332,-187500.02235174447,-187500.02235174447,1729461300.6362336,1729461297.643032,1000
-144754.85917983763,-116044.60222060708,-115376.8885584937,-130527.2585782121,-148486.46056490668,-139363.5513619842,-187500.02235174447,-187500.02235174447,1729461300.6402051,1729461297.643032,1000
-144755.82030484919,-116029.44773786637,-115367.56788105583,-130528.93495904625,-148487.2875794515,-139364.33367304012,-187500.02235174447,-187500.02235174447,1729461300.6443129,1729461297.643032,1000
-144764.7610026313,-115958.01156258721,-115376.0838956933,-130535.77459284957,-148494.7977655885,-139371.44152777691,-187500.02235174447,-187500.02235174447,1729461300.6492999,1729461297.643032,1000
-144757.85431359464,-115954.01060032971,-115369.02074444541,-130527.30328170101,-148487.801669574,-139364.57954222913,-187500.02235174447,-187500.02235174447,1729461300.6533575,1729461297.643032,1000
-144744.55502564373,-116012.50511556925,-115375.4356951041,-130518.6531565968,-148476.1340589683,-139353.60483570158,-187500.02235174447,-187500.02235174447,1729461300.657271,1729461297.643032,1000
-144743.77271458777,-116014.85204873707,-115363.7233810095,-130518.6531565968,-148475.75407931258,-139353.3366147681,-187500.02235174447,-187500.02235174447,1729461300.6604283,1729461297.643032,1000
-144755.37326996008,-115944.30994323612,-115369.06544793434,-130528.77849683506,-148485.7453090841,-139362.88080965052,-187500.02235174447,-187500.02235174447,1729461300.6643336,1729461297.643032,1000
-144754.4121449485,-115922.71815809229,-115365.71268626604,-130525.04575551102,-148484.0912799944,-139361.22678056083,-187500.02235174447,-187500.02235174447,1729461300.6682436,1729461297.643032,1000
-144738.43064766296,-115975.40121977344,-115369.1772066566,-130512.81935129398,-148469.45088737618,-139347.16753329846,-187500.02235174447,-187500.02235174447,1729461300.6723936,1729461297.643032,1000
-144731.70277258192,-115994.08727813809,-115359.14127339618,-130507.74550530262,-148463.23710241762,-139341.3784314845,-187500.02235174447,-187500.02235174447,1729461300.6772873,1729461297.643032,1000
-144741.917519798,-115927.52378315017,-115359.96828794102,-130516.23916819564,-148472.02133798855,-139349.6932804219,-187500.02235174447,-187500.02235174447,1729461300.6812885,1729461297.643032,1000
-144744.19739773244,-115889.92814897635,-115359.16362514063,-130516.01565075108,-148473.60831184487,-139351.1908473004,-187500.02235174447,-187500.02235174447,1729461300.6852815,1729461297.643032,1000
-144730.3616679146,-115937.93969606636,-115364.2821746209,-130505.62208957937,-148460.86781750535,-139339.09855355008,-187500.02235174447,-187500.02235174447,1729461300.6882782,1729461297.643032,1000
-144718.89522300902,-115971.73553368277,-115354.80503497184,-130496.88255749735,-148450.49660807807,-139329.24143424528,-187500.02235174447,-187500.02235174447,1729461300.6922479,1729461297.643032,1000
-144723.7231998114,-115916.28085568915,-115342.51157552142,-130500.32472614346,-148454.3411081244,-139332.75065812477,-187500.02235174447,-187500.02235174447,1729461300.696267,1729461297.643032,1000
-144727.99238300233,-115865.31887833106,-115342.84685168826,-130501.62112732187,-148457.82798025943,-139335.8799023485,-187500.02235174447,-187500.02235174447,1729461300.7003117,1729461297.643032,1000
-144716.52593809678,-115900.12054444797,-115339.15881385314,-130491.8534149949,-148447.45677083216,-139326.06748653264,-187500.02235174447,-187500.02235174447,1729461300.7042904,1729461297.643032,1000
-144706.69117053642,-115944.77932986968,-115338.48826151947,-130485.90785096979,-148439.298384106,-139318.51259690674,-187500.02235174447,-187500.02235174447,1729461300.7092967,1729461297.643032,1000
-144708.8592897486,-115899.71821304777,-115330.77690968239,-130487.96421145966,-148440.8853579623,-139319.80899808515,-187500.02235174447,-187500.02235174447,1729461300.7133443,1729461297.643032,1000
-144712.72614153937,-115838.22856405123,-115331.9168486496,-130489.50648182709,-148443.67932601922,-139322.20063474186,-187500.02235174447,-187500.02235174447,1729461300.7163413,1729461297.643032,1000
-144705.7523972693,-115860.93793641782,-115334.4202440286,-130483.4938625686,-148437.286727105,-139316.27742246122,-187500.02235174447,-187500.02235174447,1729461300.7203228,1729461297.643032,1000
-144693.5036413078,-115915.14091672194,-115337.41537778561,-130475.58134503143,-148426.55788976644,-139306.3308961786,-187500.02235174447,-187500.02235174447,1729461300.7243075,1729461297.643032,1000
-144695.33648435315,-115888.14000941993,-115322.03737760037,-130477.01185667657,-148427.9436979227,-139307.60494561255,-187500.02235174447,-187500.02235174447,1729461300.728502,1729461297.643032,1000
-144701.52791756726,-115818.9390085863,-115324.18314506808,-130480.78930148952,-148432.77167472502,-139311.87412880352,-187500.02235174447,-187500.02235174447,1729461300.7324471,1729461297.643032,1000
-144697.28108612075,-115824.30342725557,-115324.54077297937,-130475.64840026479,-148428.61425025633,-139307.96257352384,-187500.02235174447,-187500.02235174447,1729461300.7373564,1729461297.643032,1000
-144679.86907719006,-115880.78628549413,-115331.4698137605,-130463.2431820921,-148412.61040122635,-139292.65162857194,-187500.02235174447,-187500.02235174447,1729461300.7413936,1729461297.643032,1000
-144677.63390274454,-115870.81740746707,-115312.62729318468,-130460.67273147975,-148410.30817154745,-139290.3717506375,-187500.02235174447,-187500.02235174447,1729461300.7445147,1729461297.643032,1000
-144688.63096101655,-115799.11301125443,-115314.21426704101,-130469.52402228404,-148419.85236642987,-139299.46891063082,-187500.02235174447,-187500.02235174447,1729461300.7485116,1729461297.643032,1000
-144687.91570519397,-115789.65822334985,-115316.13651706417,-130467.40060656078,-148418.84653792938,-139298.61954434152,-187500.02235174447,-187500.02235174447,1729461300.7524974,1729461297.643032,1000
-144674.21408584286,-115846.7892821776,-115327.75942418093,-130458.12463261184,-148406.46367150114,-139286.86252675802,-187500.02235174447,-187500.02235174447,1729461300.7565427,1729461297.643032,1000
-144668.96142589586,-115855.81938693755,-115308.76044139391,-130453.1401935983,-148401.41217725424,-139282.10160518906,-187500.02235174447,-187500.02235174447,1729461300.7605052,1729461297.643032,1000
-144677.20921959987,-115786.77484831511,-115305.58649368126,-130459.30927506796,-148408.028293613,-139288.2706866587,-187500.02235174447,-187500.02235174447,1729461300.7645707,1729461297.643032,1000
-144679.42204230095,-115758.4775398347,-115303.0607465578,-130458.54931575649,-148409.61526746931,-139289.8353087706,-187500.02235174447,-187500.02235174447,1729461300.7695334,1729461297.643032,1000
-144664.11109734906,-115810.55710441555,-115306.9723018375,-130447.14992608428,-148395.33250276238,-139276.29015163067,-187500.02235174447,-187500.02235174447,1729461300.77247,1729461297.643032,1000
-144653.650480944,-115835.52400297213,-115296.4669819435,-130438.56685621344,-148385.43067996867,-139266.8130119816,-187500.02235174447,-187500.02235174447,1729461300.7764585,1729461297.643032,1000
-144660.26659730275,-115773.43085687529,-115290.20849349601,-130443.75246092708,-148390.50452596004,-139271.5739335506,-187500.02235174447,-187500.02235174447,1729461300.7805805,1729461297.643032,1000
-144664.42402177144,-115733.06360638901,-115287.68274637256,-130444.82534466093,-148393.76788065053,-139274.54671556316,-187500.02235174447,-187500.02235174447,1729461300.7845712,1729461297.643032,1000
-144654.1869228109,-115777.29770866605,-115290.00732779592,-130436.71166142366,-148384.6260171683,-139265.98599743677,-187500.02235174447,-187500.02235174447,1729461300.7885392,1729461297.643032,1000
-144642.36284999407,-115815.42978470681,-115286.29693821633,-130428.30740550846,-148374.05364204093,-139255.92771243188,-187500.02235174447,-187500.02235174447,1729461300.7936587,1729461297.643032,1000
-144648.95661460838,-115761.85265324744,-115282.51949340338,-130434.40943174476,-148379.90979908823,-139261.42624156788,-187500.02235174447,-187500.02235174447,1729461300.7966237,1729461297.643032,1000
-144654.52219897773,-115706.15210606482,-115283.83824632624,-130437.35986201286,-148384.71542414612,-139265.94129394786,-187500.02235174447,-187500.02235174447,1729461300.7995892,1729461297.643032,1000
-144646.72144016283,-115737.60101051343,-115281.67012711408,-130430.54257995398,-148377.80873510943,-139259.615750267,-187500.02235174447,-187500.02235174447,1729461300.8045075,1729461297.643032,1000
-144634.71855339035,-115785.36668841442,-115281.67012711408,-130422.786524628,-148367.3257669599,-139249.93744491786,-187500.02235174447,-187500.02235174447,1729461300.8086524,1729461297.643032,1000
-144637.35605923607,-115748.19573738525,-115273.73525783245,-130425.58049268491,-148369.29272047195,-139251.74793621874,-187500.02235174447,-187500.02235174447,1729461300.8126645,1729461297.643032,1000
-144644.10628606158,-115684.22504475416,-115277.66916485658,-130429.78262064251,-148375.03711879696,-139257.02294791018,-187500.02235174447,-187500.02235174447,1729461300.8166492,1729461297.643032,1000
-144635.90319584648,-115701.59235019593,-115277.84797881222,-130422.29478624999,-148367.3704704488,-139249.73627921776,-187500.02235174447,-187500.02235174447,1729461300.8206599,1729461297.643032,1000
-144621.75454160626,-115756.93526946727,-115281.49131315843,-130412.75059136756,-148355.05465925392,-139238.113372101,-187500.02235174447,-187500.02235174447,1729461300.824648,1729461297.643032,1000
-144622.5815561511,-115734.7176354787,-115264.19106295003,-130413.28703323449,-148355.7252115876,-139238.76157269021,-187500.02235174447,-187500.02235174447,1729461300.8275616,1729461297.643032,1000
-144631.94693707788,-115663.77319857756,-115270.89658628662,-130420.57370192691,-148363.88359831378,-139246.58468324956,-187500.02235174447,-187500.02235174447,1729461300.832657,1729461297.643032,1000
-144625.66609688595,-115666.23189046764,-115268.14732171861,-130413.5776059124,-148357.84862731083,-139240.77322969117,-187500.02235174447,-187500.02235174447,1729461300.8365307,1729461297.643032,1000
-144609.88576530048,-115725.06168187401,-115273.53409213235,-130402.69230636267,-148343.767028304,-139227.45158999582,-187500.02235174447,-187500.02235174447,1729461300.8406801,1729461297.643032,1000
-144609.23756471128,-115721.12777484987,-115256.72558030197,-130402.22291972912,-148343.29764167042,-139227.09396208453,-187500.02235174447,-187500.02235174447,1729461300.844666,1729461297.643032,1000
-144618.15591074896,-115651.01035249357,-115259.0501617253,-130409.21901574363,-148350.83017955188,-139234.24652031023,-187500.02235174447,-187500.02235174447,1729461300.8486984,1729461297.643032,1000
-144615.02666652523,-115636.10173894188,-115254.17748143405,-130404.05576277444,-148347.54447311696,-139230.98316561975,-187500.02235174447,-187500.02235174447,1729461300.8516023,1729461297.643032,1000
-144600.05099774015,-115691.80228612451,-115259.69836231452,-130393.34927718036,-148333.93226074366,-139218.08620906904,-187500.02235174447,-187500.02235174447,1729461300.8557127,1729461297.643032,1000
-144596.29590467166,-115704.67689093077,-115247.29314414182,-130390.84588180136,-148330.758313031,-139215.3145927566,-187500.02235174447,-187500.02235174447,1729461300.860742,1729461297.643032,1000
-144606.06361699864,-115636.72758778663,-115250.44474011002,-130399.6301173723,-148339.3637346463,-139223.45062773832,-187500.02235174447,-187500.02235174447,1729461300.8647273,1729461297.643032,1000
-144607.78470132168,-115604.65283449327,-115248.47778659796,-130398.5795853829,-148340.6601358247,-139224.70232542782,-187500.02235174447,-187500.02235174447,1729461300.8696547,1729461297.643032,1000
-144593.65839882594,-115654.2513554396,-115253.43987386703,-130388.38718991127,-148327.83023450736,-139212.6994386553,-187500.02235174447,-187500.02235174447,1729461300.8736372,1729461297.643032,1000
-144583.4883550988,-115682.28044298655,-115244.02978945135,-130380.7205415631,-148318.66601928067,-139204.11636878448,-187500.02235174447,-187500.02235174447,1729461300.8765993,1729461297.643032,1000
-144590.14917494645,-115623.27183762453,-115238.7547777599,-130386.42023639921,-148324.29865888343,-139209.36902873148,-187500.02235174447,-187500.02235174447,1729461300.879675,1729461297.643032,1000
-144591.91496275843,-115578.277776036,-115234.01620793536,-130385.19089045416,-148325.41624610618,-139210.28545025416,-187500.02235174447,-187500.02235174447,1729461300.8836753,1729461297.643032,1000
-144579.80031726364,-115618.53326780001,-115233.92680095755,-130375.08790196037,-148314.3074291119,-139199.78013036016,-187500.02235174447,-187500.02235174447,1729461300.887647,1729461297.643032,1000
-144569.49616306977,-115658.87816654184,-115231.53516430083,-130368.27061990151,-148305.4114348187,-139191.53233665615,-187500.02235174447,-187500.02235174447,1729461300.8926697,1729461297.643032,1000
-144575.9334654729,-115609.16788687324,-115227.95888518798,-130374.21618392662,-148311.13348139924,-139196.98616230325,-187500.02235174447,-187500.02235174447,1729461300.896729,1729461297.643032,1000
-144582.6389888095,-115550.78513035597,-115230.30581835579,-130378.30655316194,-148316.96728670207,-139202.43998795035,-187500.02235174447,-187500.02235174447,1729461300.9006877,1729461297.643032,1000
-144572.5807038046,-115578.4342382472,-115227.17657413204,-130369.27644840199,-148307.60190577531,-139193.52164191267,-187500.02235174447,-187500.02235174447,1729461300.9036865,1729461297.643032,1000
-144558.61086352,-115629.28445688302,-115227.71301599898,-130359.55343956393,-148294.9955219025,-139181.76462432917,-187500.02235174447,-187500.02235174447,1729461300.9076447,1729461297.643032,1000
-144559.2143606203,-115598.08142162341,-115212.08914662471,-130359.53108781947,-148294.9508184136,-139181.65286560688,-187500.02235174447,-187500.02235174447,1729461300.9116845,1729461297.643032,1000
-144567.93154095788,-115532.03201675798,-115220.71691998446,-130365.78957626697,-148302.3492458283,-139188.6042581325,-187500.02235174447,-187500.02235174447,1729461300.9158235,1729461297.643032,1000
-144562.0083286772,-115544.9736767976,-115213.67612048103,-130359.03934944146,-148296.7166062256,-139183.28454295214,-187500.02235174447,-187500.02235174447,1729461300.9216762,1729461297.643032,1000
-144547.03265989217,-115601.76945945853,-115217.52062052734,-130348.84695396984,-148283.23850431902,-139170.58875210152,-187500.02235174447,-187500.02235174447,1729461300.9246933,1729461297.643032,1000
-144545.9150726694,-115584.49156099457,-115203.66253896506,-130347.97523593609,-148281.8973996517,-139169.35940615647,-187500.02235174447,-187500.02235174447,1729461300.9287136,1729461297.643032,1000
-144555.43691580737,-115513.39066188225,-115210.94920765748,-130355.39601509525,-148290.0557863779,-139177.02605450465,-187500.02235174447,-187500.02235174447,1729461300.931774,1729461297.643032,1000
-144551.1677326164,-115509.63556881376,-115205.56243724376,-130349.65161677024,-148285.741899698,-139172.89098178042,-187500.02235174447,-187500.02235174447,1729461300.9357605,1729461297.643032,1000
-144536.79556093164,-115567.54893869745,-115210.41276579056,-130339.81684920989,-148272.97905361405,-139160.93279849683,-187500.02235174447,-187500.02235174447,1729461300.9397633,1729461297.643032,1000
-144532.05699110712,-115570.40996198774,-115197.06877435074,-130335.94999741913,-148268.5981117008,-139156.7977257726,-187500.02235174447,-187500.02235174447,1729461300.943801,1729461297.643032,1000
-144542.11527611202,-115499.55493206442,-115202.16497208655,-130344.55541903443,-148277.2929402939,-139165.1572781989,-187500.02235174447,-187500.02235174447,1729461300.948815,1729461297.643032,1000
-144542.04822087864,-115479.63952775474,-115199.3933557741,-130342.25318935553,-148276.8906088937,-139164.77729854314,-187500.02235174447,-187500.02235174447,1729461300.9528265,1729461297.643032,1000
-144529.19596781684,-115535.3177231929,-115204.75777444337,-130333.26778808449,-148265.2900535214,-139153.86964724894,-187500.02235174447,-187500.02235174447,1729461300.9568067,1729461297.643032,1000
-144522.93747936934,-115553.02030480151,-115192.4419632485,-130328.2162938376,-148259.70211740758,-139148.72874602422,-187500.02235174447,-187500.02235174447,1729461300.9598548,1729461297.643032,1000
-144530.20179631733,-115486.25564411351,-115192.86664639314,-130334.43007879617,-148265.8488471328,-139154.47314434923,-187500.02235174447,-187500.02235174447,1729461300.9638839,1729461297.643032,1000
-144533.84513066354,-115450.71637042957,-115193.80541966028,-130335.94999741913,-148268.97809135655,-139157.42357461734,-187500.02235174447,-187500.02235174447,1729461300.9677746,1729461297.643032,1000
-144521.93165086885,-115499.7113942756,-115198.05225110678,-130327.34457580383,-148258.36101274026,-139147.32058612353,-187500.02235174447,-187500.02235174447,1729461300.9737513,1729461297.643032,1000
-144509.8170053741,-115533.50723189203,-115189.51388472485,-130318.13565708825,-148247.40865795716,-139136.94937669628,-187500.02235174447,-187500.02235174447,1729461300.9767735,1729461297.643032,1000
-144515.04731357662,-115477.49376028702,-115180.37202124263,-130322.3601367903,-148251.70019289257,-139141.12915290942,-187500.02235174447,-187500.02235174447,1729461300.9808547,1729461297.643032,1000
-144521.6634299354,-115427.29174224041,-115185.49057072289,-130326.62931998126,-148257.84692261778,-139146.9406064678,-187500.02235174447,-187500.02235174447,1729461300.9838686,1729461297.643032,1000
-144511.13575829694,-115462.67455371315,-115193.4924952379,-130319.14148558874,-148248.50389343547,-139138.1340191524,-187500.02235174447,-187500.02235174447,1729461300.987816,1729461297.643032,1000
-144498.7081883798,-115505.56755132289,-115189.3350707692,-130310.17843606215,-148237.5962421413,-139127.89692019188,-187500.02235174447,-187500.02235174447,1729461300.9929233,1729461297.643032,1000
-144501.9044878369,-115462.4510362686,-115171.52073043832,-130311.87716864076,-148240.01023054245,-139130.10974289296,-187500.02235174447,-187500.02235174447,1729461300.996838,1729461297.643032,1000
-144506.53129893917,-115402.16838147264,-115172.37009672762,-130314.26880529748,-148243.67591663313,-139133.4401528168,-187500.02235174447,-187500.02235174447,1729461300.9998376,1729461297.643032,1000
-144498.17174651287,-115426.12945152873,-115173.86766360613,-130307.02684009395,-148236.00926828495,-139126.24289110219,-187500.02235174447,-187500.02235174447,1729461301.0048168,1729461297.643032,1000
-144485.52065915117,-115480.93592893315,-115178.56152994175,-130298.80139813441,-148224.9898582685,-139116.00579214166,-187500.02235174447,-187500.02235174447,1729461301.0088184,1729461297.643032,1000
-144488.35933069699,-115453.46563499757,-115163.54115766779,-130300.90246211321,-148227.60501236975,-139118.50918752066,-187500.02235174447,-187500.02235174447,1729461301.0118525,1729461297.643032,1000
-144497.7470633682,-115385.42692487562,-115169.62083215962,-130308.47970348355,-148235.80810258485,-139126.35464982447,-187500.02235174447,-187500.02235174447,1729461301.0158284,1729461297.643032,1000
-144491.91325806538,-115392.87005577923,-115170.0902187932,-130302.42238073617,-148230.3319251933,-139121.10198987747,-187500.02235174447,-187500.02235174447,1729461301.0198183,1729461297.643032,1000
-144476.55760962458,-115449.7999489069,-115172.92889033901,-130291.67119165316,-148216.6750093311,-139108.18268158232,-187500.02235174447,-187500.02235174447,1729461301.023864,1729461297.643032,1000
-144475.73059507975,-115438.62407667925,-115153.75109359637,-130290.48654919703,-148215.87034653072,-139107.55683273755,-187500.02235174447,-187500.02235174447,1729461301.02784,1729461297.643032,1000
-144481.78791782714,-115367.478474078,-115154.1310732521,-130294.73338064353,-148220.67597158861,-139111.82601592853,-187500.02235174447,-187500.02235174447,1729461301.0338876,1729461297.643032,1000
-144477.47403114726,-115359.74477049647,-115150.64420111707,-130289.12309278526,-148216.49619537548,-139107.7356466932,-187500.02235174447,-187500.02235174447,1729461301.036938,1729461297.643032,1000
-144463.70535656277,-115418.17223050263,-115159.36138145464,-130280.13769151423,-148204.51566034742,-139096.44801574326,-187500.02235174447,-187500.02235174447,1729461301.0398915,1729461297.643032,1000
-144459.86085651646,-115425.68241663963,-115144.94450628097,-130276.94139205712,-148201.1852504236,-139093.31877151952,-187500.02235174447,-187500.02235174447,1729461301.0438838,1729461297.643032,1000
-144469.40505139888,-115356.03438091688,-115147.31379119323,-130284.60804040529,-148209.34363714978,-139101.16423382334,-187500.02235174447,-187500.02235174447,1729461301.0478904,1729461297.643032,1000
-144467.7510223092,-115331.2239445715,-115138.7307213224,-130280.6964851256,-148207.48844236,-139099.37609426692,-187500.02235174447,-187500.02235174447,1729461301.0518332,1729461297.643032,1000
-144454.33997563602,-115383.0352882189,-115139.84830854516,-130271.12993849874,-148195.50790733195,-139088.1331668059,-187500.02235174447,-187500.02235174447,1729461301.055918,1729461297.643032,1000
-144449.62375755594,-115405.7893640744,-115134.01450324232,-130268.93946754212,-148191.90927647465,-139084.89216385988,-187500.02235174447,-187500.02235174447,1729461301.0599344,1729461297.643032,1000
-144456.23987391472,-115342.4221685436,-115134.7744625538,-130274.68386586713,-148197.40780561065,-139089.96600985122,-187500.02235174447,-187500.02235174447,1729461301.06591,1729461297.643032,1000
-144455.7928390256,-115302.94898783554,-115124.64912231555,-130270.63820012072,-148196.44668059907,-139088.826070884,-187500.02235174447,-187500.02235174447,1729461301.0689108,1729461297.643032,1000
-144444.05817318658,-115349.46296804702,-115124.64912231555,-130261.80926106087,-148186.03076768288,-139079.0807103015,-187500.02235174447,-187500.02235174447,1729461301.0728989,1729461297.643032,1000
-144433.5305015481,-115386.61156733175,-115122.03396821428,-130254.991979002,-148176.95595943404,-139070.58704740848,-187500.02235174447,-187500.02235174447,1729461301.0768907,1729461297.643032,1000
-144439.65487952888,-115332.60975272773,-115124.13503219308,-130260.87048779376,-148182.25332286995,-139075.5267829331,-187500.02235174447,-187500.02235174447,1729461301.0799077,1729461297.643032,1000
-144443.85700748648,-115279.32319394627,-115123.35272113714,-130262.18924071662,-148185.56138104934,-139078.5219166901,-187500.02235174447,-187500.02235174447,1729461301.0839567,1729461297.643032,1000
-144431.65295501388,-115311.39794723965,-115119.57527632419,-130251.68392082262,-148174.2737500994,-139067.88248632938,-187500.02235174447,-187500.02235174447,1729461301.0879228,1729461297.643032,1000
-144419.20303335227,-115359.0295146739,-115118.9717792239,-130243.41377537415,-148163.3660988052,-139057.7124426022,-187500.02235174447,-187500.02235174447,1729461301.091928,1729461297.643032,1000
-144424.36628632146,-115319.37752001018,-115110.45576458643,-130248.1970486876,-148167.970558163,-139062.071032771,-187500.02235174447,-187500.02235174447,1729461301.0949285,1729461297.643032,1000
-144430.66947825786,-115256.01032447939,-115115.17198266649,-130251.86273477826,-148173.26792159892,-139066.89900957336,-187500.02235174447,-187500.02235174447,1729461301.099992,1729461297.643032,1000
-144422.46638804275,-115275.36693517768,-115116.33427337818,-130244.53136259693,-148165.60127325074,-139059.6123408809,-187500.02235174447,-187500.02235174447,1729461301.1039052,1729461297.643032,1000
-144410.2846873146,-115330.91102014913,-115121.67634030299,-130236.77530727093,-148154.8724359122,-139049.50935238713,-187500.02235174447,-187500.02235174447,1729461301.10797,1729461297.643032,1000
-144413.57039374954,-115308.33575824926,-115106.00776743982,-130239.56927532784,-148157.75581094692,-139052.34802393295,-187500.02235174447,-187500.02235174447,1729461301.111976,1729461297.643032,1000
-144424.1427688769,-115238.12892891515,-115111.75216576483,-130248.17469694314,-148166.94237791805,-139061.13225950388,-187500.02235174447,-187500.02235174447,1729461301.1160429,1729461297.643032,1000
-144417.45959728476,-115240.54291731631,-115110.3216541197,-130240.86567650625,-148160.54977900384,-139054.94082628976,-187500.02235174447,-187500.02235174447,1729461301.1200864,1729461297.643032,1000
-144401.14282383237,-115298.4115837111,-115117.45186060094,-130229.28747287841,-148145.8646828967,-139040.88157902737,-187500.02235174447,-187500.02235174447,1729461301.123086,1729461297.643032,1000
-144395.42077725183,-115292.711888875,-115096.77649697979,-130223.40896408666,-148140.4108572496,-139035.49480861364,-187500.02235174447,-187500.02235174447,1729461301.1273248,1729461297.643032,1000
-144404.20501282276,-115222.46035605198,-115095.8153719682,-130230.42741184562,-148148.09985734223,-139042.4685528837,-187500.02235174447,-187500.02235174447,1729461301.1321068,1729461297.643032,1000
-144403.37799827792,-115210.3457105572,-115096.32946209068,-130228.12518216672,-148147.29519454183,-139041.50742787213,-187500.02235174447,-187500.02235174447,1729461301.1361475,1729461297.643032,1000
-144388.51408821513,-115266.47094088446,-115105.42662208398,-130218.1339523952,-148133.8617961242,-139028.90104399933,-187500.02235174447,-187500.02235174447,1729461301.140308,1729461297.643032,1000
-144381.65210266734,-115278.83145556826,-115089.2663108428,-130212.32249883683,-148127.69271465455,-139023.04488695203,-187500.02235174447,-187500.02235174447,1729461301.1443136,1729461297.643032,1000
-144391.59862894996,-115210.81509719076,-115087.29935733073,-130220.81616172985,-148136.5216537144,-139031.33738414495,-187500.02235174447,-187500.02235174447,1729461301.147059,1729461297.643032,1000
-144394.6384661959,-115179.36619274213,-115089.0651451427,-130222.04550767488,-148139.3156217713,-139033.97488999067,-187500.02235174447,-187500.02235174447,1729461301.1512887,1729461297.643032,1000
-144380.84743986695,-115230.08230091124,-115099.79398248125,-130212.12133313673,-148126.68688615406,-139022.061410196,-187500.02235174447,-187500.02235174447,1729461301.1553023,1729461297.643032,1000
-144372.4208322073,-115257.46318786898,-115088.10402013113,-130205.32640282232,-148119.24375525044,-139015.0206106926,-187500.02235174447,-187500.02235174447,1729461301.1602936,1729461297.643032,1000
-144378.99224507718,-115198.7898586738,-115075.47528451387,-130210.02026915793,-148124.67522915307,-139019.89329098383,-187500.02235174447,-187500.02235174447,1729461301.164192,1729461297.643032,1000
-144380.5792189335,-115156.52270990882,-115071.65313621201,-130208.4779987905,-148125.39048497565,-139020.5191398286,-187500.02235174447,-187500.02235174447,1729461301.1681745,1729461297.643032,1000
-144368.8669048389,-115198.70045169599,-115071.1166943451,-130199.11261786374,-148114.90751682612,-139010.6620205238,-187500.02235174447,-187500.02235174447,1729461301.1721835,1729461297.643032,1000
-144359.38976518987,-115239.49238532691,-115067.85333965461,-130192.98823988298,-148106.79383358883,-139003.08477915346,-187500.02235174447,-187500.02235174447,1729461301.1751695,1729461297.643032,1000
-144364.75418385913,-115189.31271902475,-115063.62885995256,-130198.48676901899,-148111.28653422435,-139007.42101757778,-187500.02235174447,-187500.02235174447,1729461301.1791615,1729461297.643032,1000
-144370.29741648407,-115131.53345960779,-115065.21583380889,-130201.05721963134,-148115.91334532658,-139011.73490425764,-187500.02235174447,-187500.02235174447,1729461301.1831896,1729461297.643032,1000
-144361.6696431243,-115160.2778029773,-115063.94178437494,-130193.23410907199,-148108.00082778942,-139004.3141250985,-187500.02235174447,-187500.02235174447,1729461301.187389,1729461297.643032,1000
-144348.8620935514,-115211.55270475778,-115065.7075721869,-130184.74044617897,-148096.7579003284,-138993.67469473777,-187500.02235174447,-187500.02235174447,1729461301.1922011,1729461297.643032,1000
-144354.49473315416,-115177.60040493017,-115057.99622034983,-130189.72488519251,-148101.7646910864,-138998.5026715401,-187500.02235174447,-187500.02235174447,1729461301.196194,1729461297.643032,1000
-144364.28479722558,-115114.18850591047,-115065.55110997571,-130196.83273992929,-148110.16894700157,-139006.37048558838,-187500.02235174447,-187500.02235174447,1729461301.19921,1729461297.643032,1000
-144357.825143078,-115129.58885784016,-115063.9641361194,-130190.2836788039,-148103.86575506517,-139000.46962505218,-187500.02235174447,-187500.02235174447,1729461301.2032082,1729461297.643032,1000
-144343.20710220424,-115186.07171607873,-115068.8144646662,-130180.44891124355,-148090.72292932545,-138988.1091103684,-187500.02235174447,-187500.02235174447,1729461301.207396,1729461297.643032,1000
-144344.01176500463,-115168.01150655885,-115050.9554208464,-130180.6277251992,-148091.3487781702,-138988.7573109576,-187500.02235174447,-187500.02235174447,1729461301.211209,1729461297.643032,1000
-144351.5219511416,-115098.05054641374,-115053.83879588114,-130186.37212352421,-148097.42845266205,-138994.4570057937,-187500.02235174447,-187500.02235174447,1729461301.2152362,1729461297.643032,1000
-144346.24693945015,-115097.3129388467,-115047.96028708939,-130179.3313240208,-148092.04168224832,-138989.29375282454,-187500.02235174447,-187500.02235174447,1729461301.2201705,1729461297.643032,1000
-144329.84075901995,-115154.95808779694,-115053.0564848252,-130167.73076864849,-148077.26717916338,-138975.18980207323,-187500.02235174447,-187500.02235174447,1729461301.224156,1729461297.643032,1000
-144326.71151479622,-115155.76275059734,-115038.25962999578,-130165.4732424585,-148074.6073215732,-138972.61935146086,-187500.02235174447,-187500.02235174447,1729461301.2273374,1729461297.643032,1000
-144336.43452363426,-115086.40528755252,-115041.97001957537,-130173.6763326736,-148083.19039144402,-138980.71068295368,-187500.02235174447,-187500.02235174447,1729461301.2311795,1729461297.643032,1000
-144335.89808176734,-115068.412133266,-115043.13231028704,-130171.5752686948,-148082.4974873659,-138980.17424108676,-187500.02235174447,-187500.02235174447,1729461301.2352507,1729461297.643032,1000
-144321.1682821713,-115123.46447985942,-115053.92820285895,-130161.67344590109,-148069.33230988172,-138967.63491244733,-187500.02235174447,-187500.02235174447,1729461301.2391748,1729461297.643032,1000
-144313.94866871223,-115139.8259568007,-115037.7008363844,-130155.81728885381,-148063.00676620088,-138961.53288621103,-187500.02235174447,-187500.02235174447,1729461301.2432795,1729461297.643032,1000
-144321.72707578266,-115072.8154269237,-115033.63281889354,-130162.23223951248,-148069.689937793,-138967.7019676807,-187500.02235174447,-187500.02235174447,1729461301.2482297,1729461297.643032,1000
-144325.28100315106,-115038.7066648849,-115032.38112120405,-130162.83573661277,-148072.9532924835,-138970.71945318216,-187500.02235174447,-187500.02235174447,1729461301.2522886,1729461297.643032,1000
-144312.1158256669,-115087.50052303083,-115036.53854567272,-130153.4256521971,-148061.21862664446,-138959.52122921005,-187500.02235174447,-187500.02235174447,1729461301.2553096,1729461297.643032,1000
-144303.33159009597,-115121.02813971379,-115029.0507112802,-130147.3683294497,-148053.57433004075,-138952.43572621772,-187500.02235174447,-187500.02235174447,1729461301.2593415,1729461297.643032,1000
-144309.32185761,-115065.79697916472,-115021.33935944313,-130152.24100974096,-148058.58112079874,-138957.08488906443,-187500.02235174447,-187500.02235174447,1729461301.2633708,1729461297.643032,1000
-144314.6639245348,-115017.91954254145,-115022.38989143253,-130154.4761841865,-148063.11852492316,-138961.48818272213,-187500.02235174447,-187500.02235174447,1729461301.2673461,1729461297.643032,1000
-144302.2587063621,-115055.49282497083,-115021.87580131005,-130144.50730615942,-148051.92030095105,-138950.8934558503,-187500.02235174447,-187500.02235174447,1729461301.27142,1729461297.643032,1000
-144288.1547556108,-115100.15161039254,-115019.26064720878,-130134.3149106878,-148039.40332405607,-138938.86821733337,-187500.02235174447,-187500.02235174447,1729461301.2762096,1729461297.643032,1000
-144292.73686322416,-115055.2022522929,-115009.38117615953,-130138.40527992313,-148043.33723108022,-138942.62331040183,-187500.02235174447,-187500.02235174447,1729461301.2802012,1729461297.643032,1000
-144298.32479933798,-114995.7466120418,-115008.97884475933,-130141.04278576885,-148047.78522822683,-138946.6913278927,-187500.02235174447,-187500.02235174447,1729461301.2832532,1729461297.643032,1000
-144287.1936305992,-115021.00408327629,-115002.38508014502,-130130.33630017476,-148037.30226007727,-138936.61069114337,-187500.02235174447,-187500.02235174447,1729461301.2872424,1729461297.643032,1000
-144274.81076417098,-115074.22358682437,-115006.0954697246,-130122.58024484877,-148026.7969401833,-138926.7312200941,-187500.02235174447,-187500.02235174447,1729461301.2912793,1729461297.643032,1000
-144277.26945606107,-115046.82034812217,-114995.7913155307,-130125.12834371667,-148029.16622509554,-138929.01109802857,-187500.02235174447,-187500.02235174447,1729461301.2953007,1729461297.643032,1000
-144285.94193290974,-114979.47454207833,-115002.54154235621,-130131.74446007544,-148036.96698391045,-138936.3424702099,-187500.02235174447,-187500.02235174447,1729461301.2993276,1729461297.643032,1000
-144279.97401714016,-114989.46577184985,-115001.2004376889,-130125.95535826152,-148031.4908065189,-138931.1345137518,-187500.02235174447,-187500.02235174447,1729461301.3043327,1729461297.643032,1000
-144265.71360417767,-115046.48507195534,-115006.67661508043,-130116.5676255903,-148018.8844226461,-138919.3327926794,-187500.02235174447,-187500.02235174447,1729461301.3083367,1729461297.643032,1000
-144267.30057803402,-115033.72222587136,-114990.7398212838,-130118.04284072435,-148020.4937482469,-138920.9421182802,-187500.02235174447,-187500.02235174447,1729461301.311336,1729461297.643032,1000
-144276.91182814978,-114962.37545757001,-114997.8476760206,-130125.77654430587,-148028.942707651,-138928.8322840729,-187500.02235174447,-187500.02235174447,1729461301.315415,1729461297.643032,1000
-144271.88268564735,-114954.61940224403,-114994.58432133011,-130119.54040760285,-148023.95826863745,-138924.07136250395,-187500.02235174447,-187500.02235174447,1729461301.3193233,1729461297.643032,1000
-144255.20828428367,-115012.51042038327,-115003.9944057458,-130108.09631444173,-148008.7367306634,-138909.65448733026,-187500.02235174447,-187500.02235174447,1729461301.3232882,1729461297.643032,1000
-144250.33560399243,-115019.41710941997,-114987.43176310443,-130103.64831729513,-148004.31108526126,-138905.40765588376,-187500.02235174447,-187500.02235174447,1729461301.3272903,1729461297.643032,1000
-144260.21507504166,-114951.19958534237,-114984.61544330305,-130111.40437262111,-148012.8270998987,-138913.49898737657,-187500.02235174447,-187500.02235174447,1729461301.3312876,1729461297.643032,1000
-144259.23159828564,-114928.89254437597,-114980.68153627892,-130108.52099758638,-148011.46364348693,-138912.20258619817,-187500.02235174447,-187500.02235174447,1729461301.3352852,1729461297.643032,1000
-144243.96535682265,-114981.93323396842,-114988.4375916049,-130097.54629105882,-147997.51615494685,-138898.97035348063,-187500.02235174447,-187500.02235174447,1729461301.340324,1729461297.643032,1000
-144235.4493421852,-115003.5473708567,-114973.39486758648,-130090.55019504431,-147989.8271548542,-138891.66133304374,-187500.02235174447,-187500.02235174447,1729461301.3433335,1729461297.643032,1000
-144243.16069402228,-114940.64956195946,-114968.81275997315,-130096.89809046962,-147996.30916074626,-138897.69630404667,-187500.02235174447,-187500.02235174447,1729461301.3473268,1729461297.643032,1000
-144250.78263888153,-114901.80223009613,-114976.16648389894,-130102.53073007235,-148003.4393672275,-138904.71475180564,-187500.02235174447,-187500.02235174447,1729461301.35136,1729461297.643032,1000
-144237.28218523052,-114947.66800971843,-114984.36957411404,-130092.45009332302,-147991.2353147549,-138893.0918446889,-187500.02235174447,-187500.02235174447,1729461301.355362,1729461297.643032,1000
-144223.66997285726,-114985.33069912562,-114978.31225136666,-130082.0565321513,-147978.94185530447,-138881.35717884984,-187500.02235174447,-187500.02235174447,1729461301.359365,1729461297.643032,1000
-144230.21903398266,-114933.09467233357,-114961.52609128071,-130086.68334325355,-147984.7756606073,-138886.6768940302,-187500.02235174447,-187500.02235174447,1729461301.3633552,1729461297.643032,1000
-144235.0023072961,-114881.61860485299,-114960.45320754686,-130088.58324153225,-147988.75427112036,-138890.40963535424,-187500.02235174447,-187500.02235174447,1729461301.366356,1729461297.643032,1000
-144223.71467634616,-114916.73319539228,-114958.4862540348,-130079.19550886101,-147978.51717215983,-138880.61957128282,-187500.02235174447,-187500.02235174447,1729461301.3704176,1729461297.643032,1000
-144209.1860424502,-114963.7836174707,-114956.60870750055,-130068.95840990049,-147965.68727084246,-138868.2814083435,-187500.02235174447,-187500.02235174447,1729461301.3754103,1729461297.643032,1000
-144213.20935645216,-114923.43871872888,-114946.99745738477,-130072.42293029105,-147969.24119821086,-138871.61181826732,-187500.02235174447,-187500.02235174447,1729461301.3794172,1729461297.643032,1000
-144222.06064725647,-114861.8596627545,-114952.54069000969,-130079.06139839429,-147977.10901225914,-138879.09965265988,-187500.02235174447,-187500.02235174447,1729461301.3833716,1729461297.643032,1000
-144214.46105414166,-114882.9150060314,-114956.65341098946,-130072.55704075779,-147970.00115752235,-138872.30472234543,-187500.02235174447,-187500.02235174447,1729461301.387478,1729461297.643032,1000
-144200.91589700175,-114938.34733228057,-114963.11306513705,-130063.72810169794,-147958.19943644994,-138861.08414662888,-187500.02235174447,-187500.02235174447,1729461301.391507,1729461297.643032,1000
-144199.91006850125,-114915.88382910298,-114942.14712883797,-130061.69409295252,-147957.01479399382,-138859.85480068385,-187500.02235174447,-187500.02235174447,1729461301.394434,1729461297.643032,1000
-144208.3813796498,-114847.46513932529,-114941.96831488232,-130067.46084302198,-147964.14500047505,-138866.6720827427,-187500.02235174447,-187500.02235174447,1729461301.3994484,1729461297.643032,1000
-144202.65933306926,-114851.91313647189,-114932.7817479112,-130060.75531968538,-147958.69117482795,-138861.4194227957,-187500.02235174447,-187500.02235174447,1729461301.4034812,1729461297.643032,1000
-144189.04712069596,-114909.46887844431,-114937.87794564701,-130052.08284283672,-147946.88945375558,-138850.35530929035,-187500.02235174447,-187500.02235174447,1729461301.407438,1729461297.643032,1000
-144187.66131253974,-114903.05392778563,-114927.46203273084,-130051.99343585891,-147945.90597699952,-138849.30477730095,-187500.02235174447,-187500.02235174447,1729461301.4114447,1729461297.643032,1000
-144198.05487371146,-114831.19306936182,-114935.50866073473,-130060.91178189658,-147955.04784048174,-138857.84314368287,-187500.02235174447,-187500.02235174447,1729461301.414526,1729461297.643032,1000
-144194.43389110971,-114819.72662445625,-114929.94307636537,-130055.01092136037,-147951.2703956688,-138854.28921631447,-187500.02235174447,-187500.02235174447,1729461301.418484,1729461297.643032,1000
-144179.74879500255,-114878.5117123737,-114938.50379449176,-130045.10909856667,-147938.0158112068,-138841.68283244167,-187500.02235174447,-187500.02235174447,1729461301.422547,1729461297.643032,1000
-144173.84793446635,-114890.04521251265,-114923.55047745115,-130040.3481769977,-147932.78550300427,-138836.54193121695,-187500.02235174447,-187500.02235174447,1729461301.426474,1729461297.643032,1000
-144183.2803706265,-114822.74410995771,-114924.06456757362,-130048.93124686852,-147941.05564845272,-138844.34269003186,-187500.02235174447,-187500.02235174447,1729461301.431581,1729461297.643032,1000
-144183.6827020267,-114794.51385671066,-114922.29877976165,-130046.51725846736,-147941.05564845272,-138844.25328305404,-187500.02235174447,-187500.02235174447,1729461301.4356484,1729461297.643032,1000
-144169.5787512754,-114845.8558137245,-114923.66223617343,-130035.7437176399,-147928.38220934657,-138832.20569279263,-187500.02235174447,-187500.02235174447,1729461301.4396403,1729461297.643032,1000
-144161.5321232715,-114872.47674137077,-114914.81094536913,-130030.24518850389,-147921.58727903216,-138825.7236869006,-187500.02235174447,-187500.02235174447,1729461301.4426503,1729461297.643032,1000
-144168.86349545282,-114811.43412726333,-114911.99462556776,-130036.90600835158,-147927.73400875737,-138831.57984394787,-187500.02235174447,-187500.02235174447,1729461301.4467876,1729461297.643032,1000
-144170.539876287,-114769.09992326498,-114909.24536099976,-130035.67666240653,-147928.69513376895,-138832.31745151491,-187500.02235174447,-187500.02235174447,1729461301.4507797,1729461297.643032,1000
-144158.7158034701,-114812.95404588629,-114910.13943077797,-130025.79719135728,-147917.92159294148,-138821.9685938321,-187500.02235174447,-187500.02235174447,1729461301.4547834,1729461297.643032,1000
-144148.7692771875,-114854.08125568405,-114907.36781446551,-130019.22577848742,-147909.42793004846,-138813.94431757263,-187500.02235174447,-187500.02235174447,1729461301.4587774,1729461297.643032,1000
-144153.5749022454,-114804.97447311574,-114900.95286380683,-130023.98670005641,-147913.47359579487,-138817.65470715222,-187500.02235174447,-187500.02235174447,1729461301.4636772,1729461297.643032,1000
-144161.75564071603,-114748.96100151075,-114907.45722144333,-130029.57463617023,-147920.9167266985,-138824.82961712236,-187500.02235174447,-187500.02235174447,1729461301.467579,1729461297.643032,1000
-144153.8654749233,-114778.2417867472,-114906.71961387631,-130022.42207794453,-147913.58535451716,-138817.90057634123,-187500.02235174447,-187500.02235174447,1729461301.4706836,1729461297.643032,1000
-144139.98504161657,-114827.7509007157,-114908.23953249927,-130012.87788306212,-147901.13543285555,-138806.09885526882,-187500.02235174447,-187500.02235174447,1729461301.4746783,1729461297.643032,1000
-144142.0637538509,-114793.6421386769,-114894.09087825906,-130014.2413394739,-147902.74475845633,-138807.6187738918,-187500.02235174447,-187500.02235174447,1729461301.478616,1729461297.643032,1000
-144149.4621812656,-114729.582039068,-114898.20359923883,-130019.94103431,-147909.60674400412,-138813.9219658282,-187500.02235174447,-187500.02235174447,1729461301.4827795,1729461297.643032,1000
-144141.99669861756,-114746.41290264284,-114895.63314862647,-130012.31908945074,-147902.43183403395,-138806.94822155812,-187500.02235174447,-187500.02235174447,1729461301.486709,1729461297.643032,1000
-144127.08808506586,-114803.34279577051,-114900.41642193991,-130001.85847304565,-147888.9090286385,-138794.07361675188,-187500.02235174447,-187500.02235174447,1729461301.4917574,1729461297.643032,1000
-144126.41753273222,-114785.21553101725,-114882.17739846438,-130001.07616198972,-147888.32788328265,-138793.4030644182,-187500.02235174447,-187500.02235174447,1729461301.4956343,1729461297.643032,1000
-144135.80526540344,-114714.89694296086,-114888.79351482315,-130009.36865918264,-147897.29093280924,-138801.8520238223,-187500.02235174447,-187500.02235174447,1729461301.4986346,1729461297.643032,1000
-144131.6701926792,-114712.1700301373,-114890.53695089066,-130004.76419982484,-147893.53583974074,-138798.1192824983,-187500.02235174447,-187500.02235174447,1729461301.502614,1729461297.643032,1000
-144115.48752969355,-114769.81517908754,-114897.84597132755,-129993.02953398581,-147878.4037087445,-138783.7024073246,-187500.02235174447,-187500.02235174447,1729461301.506666,1729461297.643032,1000
-144111.3748087138,-114769.54695815408,-114877.81880829559,-129989.52031010632,-147874.8050778872,-138780.12612821176,-187500.02235174447,-187500.02235174447,1729461301.5106776,1729461297.643032,1000
-144120.18139602916,-114699.07190788651,-114877.30471817312,-129997.41047589904,-147883.5669617137,-138788.3068666824,-187500.02235174447,-187500.02235174447,1729461301.5146844,1729461297.643032,1000
-144117.65564890573,-114682.91159664531,-114869.10162795802,-129992.47074037443,-147881.3094355237,-138786.02698874797,-187500.02235174447,-187500.02235174447,1729461301.519688,1729461297.643032,1000
-144104.17754699918,-114738.74625429467,-114873.88490127146,-129982.30069664726,-147868.23366501732,-138773.64412231973,-187500.02235174447,-187500.02235174447,1729461301.5226755,1729461297.643032,1000
-144098.58961088533,-114755.6888765918,-114863.3125261441,-129978.59030706767,-147863.47274344836,-138769.06201470637,-187500.02235174447,-187500.02235174447,1729461301.5266752,1729461297.643032,1000
-144104.89280282173,-114689.52771300409,-114864.89950000042,-129985.36288563763,-147869.8429906181,-138774.89582000923,-187500.02235174447,-187500.02235174447,1729461301.5307238,1729461297.643032,1000
-144105.4739481776,-114655.39659922083,-114864.07248545557,-129984.7817402818,-147871.161743541,-138776.03575897645,-187500.02235174447,-187500.02235174447,1729461301.5346704,1729461297.643032,1000
-144092.3534741823,-114703.69871898874,-114869.79453203613,-129973.53881282079,-147857.77304861226,-138763.22820940355,-187500.02235174447,-187500.02235174447,1729461301.5386755,1729461297.643032,1000
-144081.66934033268,-114735.97463798222,-114861.45733135431,-129965.24631562785,-147847.893577563,-138753.6616627767,-187500.02235174447,-187500.02235174447,1729461301.5427148,1729461297.643032,1000
-144090.27476194798,-114679.1118000879,-114855.42236035138,-129973.96349596544,-147856.83427534514,-138762.13297392524,-187500.02235174447,-187500.02235174447,1729461301.547744,1729461297.643032,1000
-144093.515764894,-114633.26837221008,-114856.09291268504,-129975.99750471086,-147861.3493277251,-138766.26804664946,-187500.02235174447,-187500.02235174447,1729461301.5508163,1729461297.643032,1000
-144083.748052567,-114672.58509070697,-114854.9082702289,-129966.00627493934,-147850.50873166427,-138755.98624420003,-187500.02235174447,-187500.02235174447,1729461301.55483,1729461297.643032,1000
-144072.39336638374,-114716.59567553946,-114852.51663357219,-129957.33379809068,-147839.60108037008,-138745.5926830283,-187500.02235174447,-187500.02235174447,1729461301.5588455,1729461297.643032,1000
-144077.6013228418,-114671.33339301747,-114844.98409569074,-129963.39112083807,-147845.43488567293,-138751.11356390876,-187500.02235174447,-187500.02235174447,1729461301.562841,1729461297.643032,1000
-144082.74222406652,-114610.8495725214,-114850.32616261556,-129970.00723719684,-147853.14623751,-138758.44493609012,-187500.02235174447,-187500.02235174447,1729461301.5669382,1729461297.643032,1000
-144075.34379665184,-114636.48702341164,-114847.91217421439,-129961.04418767027,-147844.56316763916,-138750.13008715273,-187500.02235174447,-187500.02235174447,1729461301.5709355,1729461297.643032,1000
-144060.43518310014,-114689.30419555954,-114849.4544445818,-129948.50485903083,-147828.894594776,-138735.02030790097,-187500.02235174447,-187500.02235174447,1729461301.5759149,1729461297.643032,1000
-144061.03868020044,-114660.35868648991,-114832.82474670706,-129949.26481834232,-147830.07923723213,-138736.02613640143,-187500.02235174447,-187500.02235174447,1729461301.5789926,1729461297.643032,1000
-144066.89483724773,-114594.66690953576,-114837.94329618732,-129956.86441145712,-147839.10934199207,-138744.4527440611,-187500.02235174447,-187500.02235174447,1729461301.581791,1729461297.643032,1000
-144062.51389533447,-114606.06629920797,-114835.57401127506,-129951.45528929893,-147834.21430995635,-138739.490656792,-187500.02235174447,-187500.02235174447,1729461301.586856,1729461297.643032,1000
-144050.1533806507,-114662.6162126799,-114841.40781657789,-129940.45823102692,-147820.06565571614,-138725.96785139656,-187500.02235174447,-187500.02235174447,1729461301.5908866,1729461297.643032,1000
-144049.21460738356,-114649.27222124008,-114827.19210710432,-129940.61469323811,-147819.86449001604,-138725.67727871862,-187500.02235174447,-187500.02235174447,1729461301.5948844,1729461297.643032,1000
-144054.26610163046,-114578.21602561665,-114832.71298798478,-129949.19776310895,-147828.8498912871,-138733.992127656,-187500.02235174447,-187500.02235174447,1729461301.5989192,1729461297.643032,1000
-144048.6558137722,-114573.09747613639,-114822.20766809079,-129941.39700429405,-147823.41841738444,-138728.3371363088,-187500.02235174447,-187500.02235174447,1729461301.6029706,1729461297.643032,1000
-144036.02707815493,-114631.18965997573,-114826.99094140422,-129928.65650995453,-147807.41456835443,-138712.82502565684,-187500.02235174447,-187500.02235174447,1729461301.6068368,1729461297.643032,1000
-144032.2049298531,-114635.66000886679,-114814.33985404253,-129925.72843143088,-147804.06180668616,-138709.38285701073,-187500.02235174447,-187500.02235174447,1729461301.6098244,1729461297.643032,1000
-144038.44106655612,-114566.66017373327,-114820.33012155654,-129936.34551004715,-147814.25420215778,-138718.9941071265,-187500.02235174447,-187500.02235174447,1729461301.6148496,1729461297.643032,1000
-144037.5917002668,-114544.80016765598,-114813.8481156645,-129934.62442572409,-147815.32708589162,-138719.77641818245,-187500.02235174447,-187500.02235174447,1729461301.6189716,1729461297.643032,1000
-144032.4507990421,-114599.00314796009,-114817.0444151216,-129927.04718435374,-147805.80524275367,-138710.5898512113,-187500.02235174447,-187500.02235174447,1729461301.6229177,1729461297.643032,1000
-144026.7958076949,-114618.69503482521,-114811.32236854105,-129922.28626278476,-147799.4349955839,-138704.17490055264,-187500.02235174447,-187500.02235174447,1729461301.6268976,1729461297.643032,1000
-144029.41096179618,-114552.86914740434,-114815.56919998756,-129930.24348381085,-147807.10164393208,-138710.94747912258,-187500.02235174447,-187500.02235174447,1729461301.630872,1729461297.643032,1000
-144026.72875246152,-114515.16175450824,-114814.56337148708,-129929.97526287739,-147808.4874520883,-138711.86390064526,-187500.02235174447,-187500.02235174447,1729461301.6339447,1729461297.643032,1000
-144018.12333084625,-114560.20051958568,-114824.8004704476,-129918.48646622736,-147794.2717426147,-138697.71524640505,-187500.02235174447,-187500.02235174447,1729461301.6379015,1729461297.643032,1000
-144011.06017959837,-114595.89625548081,-114816.61973197696,-129910.23867252335,-147784.66049249895,-138688.0816445448,-187500.02235174447,-187500.02235174447,1729461301.6429784,1729461297.643032,1000
-144013.80944416637,-114543.45906298865,-114802.56048471457,-129917.05595458222,-147791.99186468028,-138694.65305741466,-187500.02235174447,-187500.02235174447,1729461301.6469328,1729461297.643032,1000
-144012.87067089925,-114492.40767865273,-114801.66641493636,-129920.18519880596,-147797.4903938163,-138699.48103421702,-187500.02235174447,-187500.02235174447,1729461301.6509798,1729461297.643032,1000
-144009.76377841996,-114527.52226919202,-114797.91132186787,-129912.5185504578,-147789.68963500138,-138691.56851667984,-187500.02235174447,-187500.02235174447,1729461301.6549876,1729461297.643032,1000
-144003.57234520584,-114574.05860114798,-114798.13483931242,-129903.9578323314,-147778.67022498493,-138680.54910666335,-187500.02235174447,-187500.02235174447,1729461301.6579156,1729461297.643032,1000
-144003.46058648356,-114517.9333708207,-114791.47401946475,-129908.1152568001,-147781.91122793095,-138682.9407433201,-187500.02235174447,-187500.02235174447,1729461301.661965,1729461297.643032,1000
-144008.80265340838,-114238.80478606281,-114797.71015616777,-129911.89270161305,-147786.40392856646,-138686.47231894403,-187500.02235174447,-187500.02235174447,1729461301.6659873,1729461297.643032,1000
-144007.30508652987,-114263.63757415267,-114787.31659499605,-129903.48844569785,-147779.94427441887,-138679.744443863,-187500.02235174447,-187500.02235174447,1729461301.671003,1729461297.643032,1000
-143992.39647297817,-114616.48221212415,-114774.95608031227,-129890.74795135832,-147765.95208238985,-138665.9310657896,-187500.02235174447,-187500.02235174447,1729461301.6750274,1729461297.643032,1000
-143993.44700496757,-114958.66506799044,-114787.92009209635,-129894.99478280483,-147767.02496612372,-138666.35574893423,-187500.02235174447,-187500.02235174447,1729461301.6790283,1729461297.643032,1000
-144005.3828365067,-115421.86026833777,-114801.06291783607,-129903.1084660421,-147776.18918135038,-138674.491783916,-187500.02235174447,-187500.02235174447,1729461301.68302,1729461297.643032,1000
-144002.8347376388,-115554.6743338912,-114798.6489294349,-129898.30284098421,-147772.99288189327,-138670.84844956978,-187500.02235174447,-187500.02235174447,1729461301.6860178,1729461297.643032,1000
-143986.92029558663,-115609.61492176235,-114804.14745857091,-129887.26107922329,-147758.5760067196,-138656.34216741828,-187500.02235174447,-187500.02235174447,1729461301.6900408,1729461297.643032,1000
-143985.19921126356,-115600.11543036884,-114785.6402141619,-129885.29412571123,-147756.631404952,-138653.74936506146,-187500.02235174447,-187500.02235174447,1729461301.6939776,1729461297.643032,1000
-143993.22348752304,-115526.75700506652,-114787.96479558526,-129891.21733799188,-147762.73343118827,-138658.71145233052,-187500.02235174447,-187500.02235174447,1729461301.698966,1729461297.643032,1000
-143991.48005145552,-115513.4130136267,-114784.07559205004,-129887.01521003428,-147760.54296023166,-138655.6716150846,-187500.02235174447,-187500.02235174447,1729461301.702949,1729461297.643032,1000
-143979.1418885162,-115569.15826429824,-114791.38461248692,-129878.74506458582,-147749.54590195965,-138644.49574285696,-187500.02235174447,-187500.02235174447,1729461301.7069564,1729461297.643032,1000
-143974.67153962512,-115578.12131382481,-114779.1358565254,-129875.5040616398,-147745.58964319108,-138639.8242282658,-187500.02235174447,-187500.02235174447,1729461301.711049,1729461297.643032,1000
-143984.8862868412,-115507.69096704615,-114781.6392519044,-129884.15418674401,-147754.41858225092,-138647.53558010288,-187500.02235174447,-187500.02235174447,1729461301.714038,1729461297.643032,1000
-143985.7356531305,-115478.8125132099,-114775.51487392365,-129881.8072535762,-147754.79856190665,-138647.15560044715,-187500.02235174447,-187500.02235174447,1729461301.7180333,1729461297.643032,1000
-143968.97184478902,-115528.99217951205,-114778.4429524473,-129869.13381447004,-147739.28645125468,-138631.35291711724,-187500.02235174447,-187500.02235174447,1729461301.722078,1729461297.643032,1000
-143958.5782836173,-115551.99212455656,-114769.21168198726,-129861.24364867732,-147729.74225637226,-138621.42874257907,-187500.02235174447,-187500.02235174447,1729461301.7272272,1729461297.643032,1000
-143969.30712095584,-115489.02726042597,-114770.32926921002,-129871.2572301933,-147739.1299890435,-138629.81064674983,-187500.02235174447,-187500.02235174447,1729461301.73106,1729461297.643032,1000
-143976.25851348144,-115445.7542831605,-114772.45268493328,-129875.21348896189,-147745.41082923542,-138635.19741716355,-187500.02235174447,-187500.02235174447,1729461301.7350452,1729461297.643032,1000
-143962.981577275,-115487.9096732032,-114775.24665299019,-129864.28348592324,-147733.117369785,-138622.81455073532,-187500.02235174447,-187500.02235174447,1729461301.7380161,1729461297.643032,1000
-143953.2809201814,-115527.02522599998,-114772.87736807793,-129857.73442479783,-147724.5566516586,-138613.8738529532,-187500.02235174447,-187500.02235174447,1729461301.7420466,1729461297.643032,1000
-143960.6793475961,-115475.32564107486,-114762.26028946166,-129863.83645103413,-147730.88219533948,-138619.05945766682,-187500.02235174447,-187500.02235174447,1729461301.7460356,1729461297.643032,1000
-143966.55785638784,-115419.06630028086,-114764.339001696,-129866.4516051354,-147735.620765164,-138622.54632980184,-187500.02235174447,-187500.02235174447,1729461301.7500424,1729461297.643032,1000
-143957.14777197217,-115448.7494169175,-114762.55086213957,-129857.91323875348,-147726.94828831535,-138613.24800410843,-187500.02235174447,-187500.02235174447,1729461301.7550597,1729461297.643032,1000
-143947.24594917847,-115496.98448145205,-114762.90849005086,-129851.74415728381,-147718.25345972224,-138604.48612028194,-187500.02235174447,-187500.02235174447,1729461301.7590468,1729461297.643032,1000
-143950.0175654909,-115460.14880658971,-114752.7831498126,-129853.80051777369,-147720.17570974538,-138605.3131348268,-187500.02235174447,-187500.02235174447,1729461301.7630615,1729461297.643032,1000
-143956.2760539384,-115394.92641626913,-114756.7841120701,-129857.51090735328,-147724.98133480328,-138608.7776552174,-187500.02235174447,-187500.02235174447,1729461301.7660675,1729461297.643032,1000
-143948.05061197886,-115410.50558215447,-114748.44691138828,-129848.63726480452,-147716.97941028827,-138600.19458534653,-187500.02235174447,-187500.02235174447,1729461301.770064,1729461297.643032,1000
-143931.51032108194,-115467.0554956264,-114754.05719924656,-129837.05906117667,-147701.80257580313,-138584.72717818347,-187500.02235174447,-187500.02235174447,1729461301.7740643,1729461297.643032,1000
-143931.26445189293,-115448.34708551731,-114738.54508859458,-129836.12028790955,-147701.08731998055,-138583.18490781606,-187500.02235174447,-187500.02235174447,1729461301.7780735,1729461297.643032,1000
-143940.29455665287,-115376.84385500477,-114744.66946657533,-129843.31754962416,-147708.4633956508,-138589.37634103018,-187500.02235174447,-187500.02235174447,1729461301.7821891,1729461297.643032,1000
-143936.80768451784,-115374.72043928152,-114747.35167590996,-129838.86955247755,-147704.6635990934,-138584.7495299279,-187500.02235174447,-187500.02235174447,1729461301.7872288,1729461297.643032,1000
-143921.47438782148,-115430.95742833108,-114755.2418417027,-129828.07365990564,-147690.5149448532,-138570.37735824316,-187500.02235174447,-187500.02235174447,1729461301.7912624,1729461297.643032,1000
-143919.55213779834,-115428.25286725198,-114736.28756240458,-129825.54791278219,-147688.48093610775,-138567.6057419307,-187500.02235174447,-187500.02235174447,1729461301.7942712,1729461297.643032,1000
-143930.14686467015,-115356.59317452827,-114736.17580368232,-129833.66159601946,-147697.46633737878,-138575.33944551225,-187500.02235174447,-187500.02235174447,1729461301.7982805,1729461297.643032,1000
-143926.81645474632,-115340.18699409807,-114734.65588505936,-129829.23595061732,-147693.89005826594,-138570.958503599,-187500.02235174447,-187500.02235174447,1729461301.8022923,1729461297.643032,1000
-143910.90201269413,-115396.3345761698,-114744.06596947504,-129818.14948536748,-147679.5178865812,-138556.22870400295,-187500.02235174447,-187500.02235174447,1729461301.80615,1729461297.643032,1000
-143907.45984404802,-115410.1926577321,-114730.16318442383,-129815.48962777731,-147676.612159802,-138552.78653535683,-187500.02235174447,-187500.02235174447,1729461301.8101428,1729461297.643032,1000
-143918.54630929785,-115343.09272087726,-114726.40809135535,-129824.5420842817,-147686.29046515113,-138560.94492208303,-187500.02235174447,-187500.02235174447,1729461301.814145,1729461297.643032,1000
-143920.08857966526,-115310.3697669947,-114723.05532968705,-129823.20097961438,-147687.1621831849,-138560.78845987184,-187500.02235174447,-187500.02235174447,1729461301.8191562,1729461297.643032,1000
-143906.49871903643,-115357.44254081757,-114728.9785419677,-129813.05328763167,-147674.7122615233,-138548.2491312324,-187500.02235174447,-187500.02235174447,1729461301.8222847,1729461297.643032,1000
-143894.58523924174,-115387.77385804342,-114720.37312035241,-129803.66555496045,-147663.73755499572,-138537.02855551583,-187500.02235174447,-187500.02235174447,1729461301.826278,1729461297.643032,1000
-143902.85538469022,-115329.01112187043,-114712.99704468215,-129810.37107829703,-147670.73365101023,-138542.7058986075,-187500.02235174447,-187500.02235174447,1729461301.8302786,1729461297.643032,1000
-143908.04098940385,-115282.49714165893,-114714.2263906272,-129812.60625274257,-147674.7569650122,-138545.67868062004,-187500.02235174447,-187500.02235174447,1729461301.8343031,1729461297.643032,1000
-143897.49096602094,-115323.31142703432,-114715.85806797244,-129803.82201717164,-147664.8551422185,-138535.57569212624,-187500.02235174447,-187500.02235174447,1729461301.8383183,1729461297.643032,1000
-143887.49973624942,-115366.80792174434,-114714.69577726076,-129797.11649383504,-147655.86974094747,-138526.3444216662,-187500.02235174447,-187500.02235174447,1729461301.8423028,1729461297.643032,1000
-143894.4064252861,-115319.75749966592,-114704.88336144488,-129802.95029913787,-147661.68119450586,-138530.948881024,-187500.02235174447,-187500.02235174447,1729461301.8462985,1729461297.643032,1000
-143899.50262302192,-115260.43596988154,-114704.25751260013,-129804.78314218321,-147665.43628757432,-138533.56403512528,-187500.02235174447,-187500.02235174447,1729461301.8493056,1729461297.643032,1000
-143889.7572624394,-115284.93348180456,-114701.41884105431,-129795.4848164898,-147656.11561013648,-138523.8410262872,-187500.02235174447,-187500.02235174447,1729461301.8542511,1729461297.643032,1000
-143876.72619542197,-115335.85075567375,-114703.36344282192,-129786.49941521877,-147644.33624080854,-138512.06165695927,-187500.02235174447,-187500.02235174447,1729461301.8582313,1729461297.643032,1000
-143881.33065477977,-115304.78183088086,-114693.14869560585,-129790.25450828727,-147648.15838911038,-138515.12384594965,-187500.02235174447,-187500.02235174447,1729461301.8622396,1729461297.643032,1000
-143890.42781477308,-115237.72659751495,-114700.36830906491,-129796.82592115713,-147655.6909269918,-138521.56114835278,-187500.02235174447,-187500.02235174447,1729461301.866264,1729461297.643032,1000
-143883.47642224748,-115248.50013834241,-114703.02816665509,-129790.25450828727,-147648.98540365524,-138514.2297761714,-187500.02235174447,-187500.02235174447,1729461301.8703735,1729461297.643032,1000
-143868.0537185733,-115304.96064483651,-114710.38189058089,-129779.63742967098,-147635.01556337066,-138500.28228763133,-187500.02235174447,-187500.02235174447,1729461301.8743503,1729461297.643032,1000
-143868.07607031777,-115290.25319698492,-114691.0252798826,-129779.01158082623,-147634.92615639284,-138499.43292134203,-187500.02235174447,-187500.02235174447,1729461301.877306,1729461297.643032,1000
-143878.73785242296,-115218.50409728338,-114694.08746887297,-129787.30407801917,-147644.2468338307,-138507.6360115571,-187500.02235174447,-187500.02235174447,1729461301.881354,1729461297.643032,1000
-143873.77576515387,-115211.86562918016,-114688.7677536926,-129781.04558957167,-147639.26239481717,-138502.07042718775,-187500.02235174447,-187500.02235174447,1729461301.8864133,1729461297.643032,1000
-143859.13537253565,-115269.62253685266,-114695.62973924038,-129770.98730456679,-147625.87369988844,-138488.6370287701,-187500.02235174447,-187500.02235174447,1729461301.8903873,1729461297.643032,1000
-143854.30739573328,-115273.24351945442,-114678.37419252089,-129766.2263829978,-147621.2468887862,-138483.31731358974,-187500.02235174447,-187500.02235174447,1729461301.8943956,1729461297.643032,1000
-143862.51048594838,-115202.9472831425,-114677.05543959803,-129772.23900225629,-147628.06417084506,-138488.92760144803,-187500.02235174447,-187500.02235174447,1729461301.8984113,1729461297.643032,1000
-143862.64459641514,-115181.48960846539,-114674.14971281883,-129770.54026967769,-147627.70654293377,-138487.94412469197,-187500.02235174447,-187500.02235174447,1729461301.9024045,1729461297.643032,1000
-143849.30060497532,-115235.33496085824,-114685.10206760194,-129761.84544108456,-147615.5024904612,-138475.82947919721,-187500.02235174447,-187500.02235174447,1729461301.9054172,1729461297.643032,1000
-143843.1091717612,-115255.87621401265,-114673.79208490755,-129756.90570555994,-147609.95925783625,-138469.928618661,-187500.02235174447,-187500.02235174447,1729461301.909429,1729461297.643032,1000
-143850.44054394253,-115190.63147194762,-114667.22067203769,-129762.65010388495,-147616.0389323281,-138474.86835418563,-187500.02235174447,-187500.02235174447,1729461301.914414,1729461297.643032,1000
-143853.32391897726,-115151.24769821737,-114664.00202083612,-129762.76186260724,-147618.2964585181,-138476.25416234185,-187500.02235174447,-187500.02235174447,1729461301.918426,1729461297.643032,1000
-143841.87982581614,-115196.33116678371,-114668.56177670501,-129754.13408924748,-147607.81349036854,-138465.86060117013,-187500.02235174447,-187500.02235174447,1729461301.9224305,1729461297.643032,1000
-143831.37450592214,-115231.0434259228,-114662.99619233563,-129746.42273741041,-147598.20224025278,-138456.20464756546,-187500.02235174447,-187500.02235174447,1729461301.9254675,1729461297.643032,1000
-143841.56690139376,-115177.57805318572,-114660.53750044556,-129755.20697298134,-147607.25469675718,-138464.20657208044,-187500.02235174447,-187500.02235174447,1729461301.9294548,1729461297.643032,1000
-143846.79720959632,-115128.04658747275,-114659.6657824118,-129756.88335381549,-147611.45682471478,-138467.44757502648,-187500.02235174447,-187500.02235174447,1729461301.9333696,1729461297.643032,1000
-143835.12959899064,-115163.27293673431,-114657.7658841331,-129747.20504846633,-147600.3480077205,-138456.0258336098,-187500.02235174447,-187500.02235174447,1729461301.9373384,1729461297.643032,1000
-143820.5562616058,-115210.23395183492,-114657.00592482161,-129736.58796985006,-147587.04871976958,-138442.50302821436,-187500.02235174447,-187500.02235174447,1729461301.9423652,1729461297.643032,1000
-143826.92650877553,-115167.60917515865,-114649.27222124008,-129742.39942340845,-147592.4354901833,-138447.15219106106,-187500.02235174447,-187500.02235174447,1729461301.9463603,1729461297.643032,1000
-143837.52123564735,-115103.30320636072,-114657.34120098845,-129749.90960954543,-147601.62205715443,-138455.2882260428,-187500.02235174447,-187500.02235174447,1729461301.950369,1729461297.643032,1000
-143828.73700007642,-115124.0232734708,-114657.45295971072,-129741.7288710748,-147593.10604251697,-138446.45928698295,-187500.02235174447,-187500.02235174447,1729461301.9534132,1729461297.643032,1000
-143816.1529679481,-115177.19807352997,-114663.35382024692,-129733.39167039296,-147581.75135633367,-138435.1269525441,-187500.02235174447,-187500.02235174447,1729461301.9573848,1729461297.643032,1000
-143818.32108716026,-115151.96295403993,-114645.65123863831,-129734.35279540454,-147583.2265714677,-138435.90926360004,-187500.02235174447,-187500.02235174447,1729461301.9614892,1729461297.643032,1000
-143825.87597678613,-115085.35475556312,-114645.53947991604,-129739.24782744025,-147589.19448723728,-138440.71488865794,-187500.02235174447,-187500.02235174447,1729461301.9654696,1729461297.643032,1000
-143818.16462494907,-115093.02140391129,-114638.45397692372,-129730.30712965813,-147581.46078365576,-138432.51179844284,-187500.02235174447,-187500.02235174447,1729461301.9704788,1729461297.643032,1000
-143802.45134859698,-115151.53827089528,-114645.6065351494,-129719.53358883067,-147567.04390848207,-138418.16197850253,-187500.02235174447,-187500.02235174447,1729461301.974503,1729461297.643032,1000
-143805.8488137542,-115143.80456731375,-114632.46370940968,-129722.8639987545,-147570.21785619474,-138420.84418783715,-187500.02235174447,-187500.02235174447,1729461301.978532,1729461297.643032,1000
-143817.18114819302,-115071.29550830073,-114639.23628797964,-129731.69293781435,-147579.85145805497,-138429.51666468583,-187500.02235174447,-187500.02235174447,1729461301.98147,1729461297.643032,1000
-143812.55433709078,-115061.12546457356,-114629.84855530842,-129724.54037958865,-147574.9787777637,-138424.04048729426,-187500.02235174447,-187500.02235174447,1729461301.985531,1729461297.643032,1000
-143796.10345317167,-115118.27887514578,-114635.66000886679,-129712.78336200517,-147559.71253630074,-138408.95305978693,-187500.02235174447,-187500.02235174447,1729461301.9895456,1729461297.643032,1000
-143795.07527292674,-115126.81724152771,-114626.49579364012,-129712.60454804952,-147558.99728047816,-138407.85782430862,-187500.02235174447,-187500.02235174447,1729461301.993566,1729461297.643032,1000
-143806.27349689885,-115059.67260118396,-114630.27323845307,-129721.70170804283,-147568.54147536057,-138416.23972847936,-187500.02235174447,-187500.02235174447,1729461301.9985332,1729461297.643032,1000
-143805.40177886508,-115033.61046714908,-114623.38890116083,-129718.05837369662,-147566.90979801535,-138413.89279531155,-187500.02235174447,-187500.02235174447,1729461302.0025456,1729461297.643032,1000
-143793.44359558148,-115085.84649394114,-114627.99336051862,-129709.72117301478,-147556.09155369896,-138403.25336495083,-187500.02235174447,-187500.02235174447,1729461302.0065775,1729461297.643032,1000
-143784.34643558817,-115112.2215523984,-114619.58910460342,-129702.8144839781,-147547.7320012727,-138394.98321950238,-187500.02235174447,-187500.02235174447,1729461302.0095785,1729461297.643032,1000
-143789.55439204627,-115049.07787431215,-114614.4034998898,-129706.18959739085,-147551.55414957454,-138397.8665945371,-187500.02235174447,-187500.02235174447,1729461302.0135596,1729461297.643032,1000
-143792.39306359208,-115007.16835345846,-114611.52012485506,-129706.32370785758,-147553.52110308662,-138399.05123699323,-187500.02235174447,-187500.02235174447,1729461302.0175066,1729461297.643032,1000
-143783.27355185433,-115050.82131037967,-114616.3033981685,-129699.90875719891,-147545.4297715938,-138391.02696073378,-187500.02235174447,-187500.02235174447,1729461302.0216632,1729461297.643032,1000
-143772.6341214936,-115090.49565678784,-114612.1012702109,-129692.17505361738,-147535.7291145002,-138381.34865538462,-187500.02235174447,-187500.02235174447,1729461302.0255919,1729461297.643032,1000
-143779.02672040783,-115041.41122596398,-114605.5969125744,-129697.45006530883,-147540.9370709583,-138385.77430078678,-187500.02235174447,-187500.02235174447,1729461302.030662,1729461297.643032,1000
-143784.41349082155,-114987.11883868204,-114607.56386608648,-129699.70759149881,-147545.20625414923,-138389.12706245508,-187500.02235174447,-187500.02235174447,1729461302.0346875,1729461297.643032,1000
-143773.10350812715,-115018.97007453085,-114607.07212770845,-129689.73871347174,-147534.29860285504,-138378.0629489497,-187500.02235174447,-187500.02235174447,1729461302.0375829,1729461297.643032,1000
-143759.64775796508,-115068.4568367549,-114608.9496742427,-129680.44038777833,-147521.93808817127,-138365.88124822156,-187500.02235174447,-187500.02235174447,1729461302.04167,1729461297.643032,1000
-143764.52043825632,-115031.86703108157,-114594.73396476913,-129684.12842561347,-147525.78258821758,-138369.0551959342,-187500.02235174447,-187500.02235174447,1729461302.0456767,1729461297.643032,1000
-143773.05880463825,-114967.69517275038,-114598.46670609317,-129689.53754777164,-147532.89044295438,-138375.02311170378,-187500.02235174447,-187500.02235174447,1729461302.04966,1729461297.643032,1000
-143764.6321969786,-114985.19658865889,-114593.66108103527,-129680.66390522289,-147524.4638352947,-138366.14946915503,-187500.02235174447,-187500.02235174447,1729461302.0536509,1729461297.643032,1000
-143753.6798421955,-115041.79120561972,-114599.31607238247,-129673.73486444175,-147514.62906773438,-138356.33705333914,-187500.02235174447,-187500.02235174447,1729461302.0585656,1729461297.643032,1000
-143754.39509801808,-115023.26160946628,-114585.05565941999,-129673.64545746392,-147514.9643439012,-138355.86766670557,-187500.02235174447,-187500.02235174447,1729461302.0616684,1729461297.643032,1000
-143762.7322986999,-114953.85944293255,-114587.91668271026,-129679.70278021132,-147521.78162596008,-138361.63441677505,-187500.02235174447,-187500.02235174447,1729461302.0655613,1729461297.643032,1000
-143758.7760399313,-114954.82056794413,-114585.03330767552,-129674.47247200877,-147517.557146258,-138357.09701265063,-187500.02235174447,-187500.02235174447,1729461302.069646,1729461297.643032,1000
-143745.09677232467,-115013.85152505059,-114593.63872929082,-129665.59882946001,-147505.08487285196,-138344.98236715584,-187500.02235174447,-187500.02235174447,1729461302.0736187,1729461297.643032,1000
-143741.185217045,-115011.57164711614,-114577.56782502745,-129661.70962592479,-147501.17331757228,-138340.73553570933,-187500.02235174447,-187500.02235174447,1729461302.0776303,1729461297.643032,1000
-143750.81881890522,-114941.05189335966,-114579.93710993971,-129669.08570159505,-147509.17524208728,-138347.7092799794,-187500.02235174447,-187500.02235174447,1729461302.0816848,1729461297.643032,1000
-143747.39900200357,-114926.45620423034,-114574.97502267064,-129663.83304164805,-147505.2189833187,-138343.37304155505,-187500.02235174447,-187500.02235174447,1729461302.0867636,1729461297.643032,1000
-143733.429161719,-114983.02846944673,-114583.8933687083,-129654.31119851008,-147492.29967502353,-138330.78900942672,-187500.02235174447,-187500.02235174447,1729461302.0897284,1729461297.643032,1000
-143728.73529538338,-114999.03231847672,-114570.75054296858,-129650.19847753031,-147487.89638136583,-138326.2069018134,-187500.02235174447,-187500.02235174447,1729461302.0937085,1729461297.643032,1000
-143737.5642344432,-114933.27348628921,-114566.30254582198,-129656.83694563353,-147495.11599482488,-138332.62185247205,-187500.02235174447,-187500.02235174447,1729461302.0976412,1729461297.643032,1000
-143740.80523738926,-114902.56218940762,-114567.66600223375,-129657.26162877819,-147497.44057624825,-138334.43234377293,-187500.02235174447,-187500.02235174447,1729461302.1016912,1729461297.643032,1000
-143728.55648142775,-114952.49598652078,-114578.28308085003,-129648.85737286299,-147485.99648308713,-138323.2564715453,-187500.02235174447,-187500.02235174447,1729461302.105769,1729461297.643032,1000
-143718.40878944503,-114981.95558571287,-114567.33072606692,-129640.67663439235,-147476.564046927,-138313.86873887407,-187500.02235174447,-187500.02235174447,1729461302.1097853,1729461297.643032,1000
-143725.96367907093,-114923.61753268451,-114555.8419294169,-129645.99634957271,-147482.59901792993,-138319.0543435877,-187500.02235174447,-187500.02235174447,1729461302.1146693,1729461297.643032,1000
-143729.85288260615,-114878.17643620688,-114552.33270553741,-129646.26457050617,-147485.28122726455,-138321.2895180332,-187500.02235174447,-187500.02235174447,1729461302.1176789,1729461297.643032,1000
-143720.420446446,-114920.30947450513,-114552.66798170425,-129638.57557041355,-147476.42993646025,-138312.61704118457,-187500.02235174447,-187500.02235174447,1729461302.1218183,1729461297.643032,1000
-143708.21639397342,-114963.44834130387,-114552.53387123751,-129629.9925005427,-147465.27641597707,-138301.642334657,-187500.02235174447,-187500.02235174447,1729461302.125787,1729461297.643032,1000
-143712.30676320873,-114917.40374772594,-114543.2355455441,-129632.8982273219,-147468.3609567119,-138304.07867480264,-187500.02235174447,-187500.02235174447,1729461302.1298175,1729461297.643032,1000
-143720.35339121264,-114859.35626737551,-114546.5883072124,-129637.86031459097,-147475.0217765596,-138309.8007213832,-187500.02235174447,-187500.02235174447,1729461302.133832,1729461297.643032,1000
-143711.23387947486,-114886.96067177781,-114541.64857168778,-129629.0984307645,-147466.17048575528,-138300.81532011216,-187500.02235174447,-187500.02235174447,1729461302.1377475,1729461297.643032,1000
-143696.99581825684,-114937.632076458,-114543.36965601084,-129619.30836669308,-147453.13941873782,-138288.03012228373,-187500.02235174447,-187500.02235174447,1729461302.1418183,1729461297.643032,1000
-143701.24264970334,-114906.47374468729,-114533.22196402813,-129623.21992197275,-147456.6039391284,-138290.66762812945,-187500.02235174447,-187500.02235174447,1729461302.1448247,1729461297.643032,1000
-143710.63038237457,-114840.11141539949,-114540.03924608699,-129629.43370693133,-147464.3599944544,-138297.4402066994,-187500.02235174447,-187500.02235174447,1729461302.1488588,1729461297.643032,1000
-143706.78588232826,-114851.9578399608,-114542.60969669935,-129625.32098595155,-147460.49314266362,-138293.30513397517,-187500.02235174447,-187500.02235174447,1729461302.1538465,1729461297.643032,1000
-143692.34665541013,-114910.69822438934,-114551.1927665702,-129615.73208758023,-147447.32796517946,-138280.3411221911,-187500.02235174447,-187500.02235174447,1729461302.158864,1729461297.643032,1000
-143688.5692105972,-114898.11419226101,-114529.19865002617,-129611.06057298907,-147443.21524419967,-138275.87077330003,-187500.02235174447,-187500.02235174447,1729461302.1628256,1729461297.643032,1000
-143696.2135072009,-114828.82378444956,-114527.03053081401,-129616.00030851369,-147449.2949186915,-138280.89991580247,-187500.02235174447,-187500.02235174447,1729461302.165842,1729461297.643032,1000
-143693.64305658854,-114825.22515359226,-114522.56018192295,-129611.77582881163,-147446.52330237906,-138277.90478204546,-187500.02235174447,-187500.02235174447,1729461302.1698484,1729461297.643032,1000
-143680.164954682,-114882.64678509794,-114529.19865002617,-129602.81277928506,-147434.38630513984,-138266.10306097305,-187500.02235174447,-187500.02235174447,1729461302.172878,1729461297.643032,1000
-143676.47691684688,-114884.90431128793,-114515.00529229705,-129599.57177633904,-147430.81002602697,-138262.21385743783,-187500.02235174447,-187500.02235174447,1729461302.1767826,1729461297.643032,1000
-143685.3729111401,-114815.41273777638,-114517.95572256515,-129606.67963107582,-147438.11904646386,-138268.62880809652,-187500.02235174447,-187500.02235174447,1729461302.1818674,1729461297.643032,1000
-143685.08233846218,-114796.7937346451,-114513.37361495181,-129603.61744208545,-147437.33673540794,-138267.42181389593,-187500.02235174447,-187500.02235174447,1729461302.1858735,1729461297.643032,1000
-143671.0007394553,-114853.05307543911,-114522.71664413413,-129594.00619196966,-147424.41742711276,-138254.86013351203,-187500.02235174447,-187500.02235174447,1729461302.1898973,1729461297.643032,1000
-143662.39531784004,-114873.79549429363,-114509.5738183944,-129587.05479944407,-147416.46020608666,-138246.9699677193,-187500.02235174447,-187500.02235174447,1729461302.1939008,1729461297.643032,1000
-143671.02309119978,-114810.8976853964,-114504.09764100285,-129594.00619196966,-147423.72452303465,-138253.31786314462,-187500.02235174447,-187500.02235174447,1729461302.1978357,1729461297.643032,1000
-143676.2086959134,-114774.28552797862,-114506.10929800384,-129596.46488385975,-147428.03840971453,-138257.07295621312,-187500.02235174447,-187500.02235174447,1729461302.2008924,1729461297.643032,1000
-143664.8540097301,-114820.66539772337,-114511.92075156221,-129587.8371105,-147417.75660726507,-138246.81350550812,-187500.02235174447,-187500.02235174447,1729461302.2048976,1729461297.643032,1000
-143655.39922182553,-114854.52829057316,-114506.28811195948,-129580.95277320777,-147409.3523513499,-138238.36454610404,-187500.02235174447,-187500.02235174447,1729461302.2100108,1729461297.643032,1000
-143664.18345739646,-114798.87244687945,-114501.3260246904,-129588.41825585584,-147416.9966479536,-138245.0700694406,-187500.02235174447,-187500.02235174447,1729461302.2138717,1729461297.643032,1000
-143668.72086152088,-114749.13981546639,-114502.01892876852,-129590.340505879,-147420.50587183307,-138247.75227877527,-187500.02235174447,-187500.02235174447,1729461302.217829,1729461297.643032,1000
-143658.7072800049,-114786.95896708476,-114503.78471658049,-129582.02565694162,-147411.11813916184,-138238.49865657077,-187500.02235174447,-187500.02235174447,1729461302.2218425,1729461297.643032,1000
-143646.74909672132,-114833.02591240716,-114503.53884739148,-129573.91197370435,-147400.5010605456,-138228.14979888796,-187500.02235174447,-187500.02235174447,1729461302.2259352,1729461297.643032,1000
-143649.94539617843,-114791.094039809,-114487.95968150612,-129575.8342237275,-147402.7362349911,-138229.71442099984,-187500.02235174447,-187500.02235174447,1729461302.2288907,1729461297.643032,1000
-143657.0532509152,-114730.85608850195,-114489.21137919562,-129580.37162785193,-147408.57004029394,-138234.85532222455,-187500.02235174447,-187500.02235174447,1729461302.232887,1729461297.643032,1000
-143650.23596885634,-114753.1407777239,-114491.55831236343,-129574.15784289336,-147402.2444966131,-138228.73094424378,-187500.02235174447,-187500.02235174447,1729461302.2368612,1729461297.643032,1000
-143636.86962567206,-114807.74608942821,-114497.30271068844,-129565.2842003446,-147390.26396158506,-138217.24214759376,-187500.02235174447,-187500.02235174447,1729461302.2418425,1729461297.643032,1000
-143638.34484080612,-114781.86276934895,-114480.85182676934,-129565.59712476697,-147391.22508659662,-138217.75623771624,-187500.02235174447,-187500.02235174447,1729461302.2458627,1729461297.643032,1000
-143649.00662291129,-114715.45573657224,-114486.23859718307,-129573.62140102642,-147400.41165356775,-138226.24990060925,-187500.02235174447,-187500.02235174447,1729461302.24885,1729461297.643032,1000
-143642.94930016392,-114723.4800128317,-114484.78573379347,-129567.34056083448,-147394.57784826492,-138220.12552262848,-187500.02235174447,-187500.02235174447,1729461302.252866,1729461297.643032,1000
-143627.48189300083,-114781.61690015995,-114493.39115540877,-129557.1258136184,-147380.51860100255,-138206.44625502184,-187500.02235174447,-187500.02235174447,1729461302.2569273,1729461297.643032,1000
-143627.77246567875,-114773.01147854466,-114475.48740810006,-129556.70113047375,-147380.65271146927,-138206.13333059946,-187500.02235174447,-187500.02235174447,1729461302.2609503,1729461297.643032,1000
-143635.28265181574,-114701.62000675441,-114473.49810284354,-129561.46205204274,-147386.531220261,-138210.871900424,-187500.02235174447,-187500.02235174447,1729461302.2649517,1729461297.643032,1000
-143633.78508493723,-114691.4723147717,-114472.98401272108,-129558.35515956345,-147384.40780453777,-138208.34615330055,-187500.02235174447,-187500.02235174447,1729461302.2699575,1729461297.643032,1000
-143617.4906632293,-114747.46343463224,-114484.53986460446,-129547.29104605808,-147369.40978400825,-138193.23637404878,-187500.02235174447,-187500.02235174447,1729461302.273979,1729461297.643032,1000
-143611.9474306044,-114754.39247541339,-114467.44078009615,-129541.85957215543,-147364.35828976135,-138187.49197572374,-187500.02235174447,-187500.02235174447,1729461302.2769403,1729461297.643032,1000
-143620.82107315314,-114686.53257924707,-114462.54574806044,-129548.54274374757,-147371.5779032204,-138193.3704845155,-187500.02235174447,-187500.02235174447,1729461302.280921,1729461297.643032,1000
-143620.48579698632,-114662.75032314663,-114458.00834393602,-129545.50290650164,-147370.59442646438,-138191.53764147018,-187500.02235174447,-187500.02235174447,1729461302.284972,1729461297.643032,1000
-143604.7501688898,-114716.10393716145,-114463.03748643846,-129533.9247028738,-147356.04344082397,-138177.0090075742,-187500.02235174447,-187500.02235174447,1729461302.2890463,1729461297.643032,1000
-143596.6811891414,-114740.48969036218,-114452.28629735546,-129527.5768074485,-147348.80147562045,-138169.47646969277,-187500.02235174447,-187500.02235174447,1729461302.2930267,1729461297.643032,1000
-143605.8454043681,-114677.6142332094,-114451.0122479215,-129535.31051103002,-147356.73634490208,-138176.3161034961,-187500.02235174447,-187500.02235174447,1729461302.297988,1729461297.643032,1000
-143609.53344220322,-114635.43649142224,-114448.50885254251,-129536.18222906378,-147359.48560947008,-138178.12659479698,-187500.02235174447,-187500.02235174447,1729461302.302033,1729461297.643032,1000
-143597.5976106641,-114679.96116637721,-114448.88883219825,-129526.5262754591,-147348.42149596472,-138166.6154464025,-187500.02235174447,-187500.02235174447,1729461302.3049743,1729461297.643032,1000
-143588.61220939306,-114718.29440811806,-114444.44083505165,-129520.53600794508,-147340.30781272743,-138158.12178350947,-187500.02235174447,-187500.02235174447,1729461302.3090773,1729461297.643032,1000
-143593.90957282897,-114667.06420982651,-114436.61772449229,-129525.05106032504,-147344.44288545166,-138161.07221377757,-187500.02235174447,-187500.02235174447,1729461302.3130748,1729461297.643032,1000
-143598.42462520895,-114614.2023341897,-114439.38934080474,-129526.7721446481,-147347.8850540978,-138163.44149868985,-187500.02235174447,-187500.02235174447,1729461302.3171685,1729461297.643032,1000
-143589.57333440465,-114647.12645377236,-114440.61868674979,-129519.10549629993,-147339.77137086052,-138154.99253928574,-187500.02235174447,-187500.02235174447,1729461302.3209743,1729461297.643032,1000
-143576.56461913165,-114696.45675378523,-114441.57981176136,-129509.89657758434,-147327.8355393214,-138143.12376297996,-187500.02235174447,-187500.02235174447,1729461302.326095,1729461297.643032,1000
-143579.98443603332,-114659.9116516008,-114427.54291624343,-129512.46702819671,-147330.54010040048,-138144.97895776975,-187500.02235174447,-187500.02235174447,1729461302.3301067,1729461297.643032,1000
-143590.42270069395,-114594.13046766883,-114433.33201805735,-129520.29013875606,-147339.81607434942,-138153.38321368495,-187500.02235174447,-187500.02235174447,1729461302.3330977,1729461297.643032,1000
-143581.59376163408,-114612.41419463328,-114428.36993078828,-129511.59531016294,-147331.61298413432,-138145.02366125866,-187500.02235174447,-187500.02235174447,1729461302.3372416,1729461297.643032,1000
-143564.3829184035,-114670.0146400946,-114434.11432911329,-129499.54771990154,-147315.83265254888,-138129.5115506067,-187500.02235174447,-187500.02235174447,1729461302.3411536,1729461297.643032,1000
-143564.87465678153,-114650.50156718511,-114416.12117482677,-129499.34655420145,-147315.9667630156,-138128.9974604842,-187500.02235174447,-187500.02235174447,1729461302.345135,1729461297.643032,1000
-143576.40815692046,-114583.06635416346,-114422.69258769663,-129508.73428687267,-147325.9803445316,-138138.04991698862,-187500.02235174447,-187500.02235174447,1729461302.3491375,1729461297.643032,1000
-143573.45772665236,-114585.86032222037,-114423.07256735237,-129504.50980717062,-147322.94050728568,-138134.71950706476,-187500.02235174447,-187500.02235174447,1729461302.35417,1729461297.643032,1000
-143557.69974681138,-114644.22072699318,-114431.36506454529,-129493.69156285425,-147308.59068734536,-138120.7496667802,-187500.02235174447,-187500.02235174447,1729461302.3573768,1729461297.643032,1000
-143555.8445520216,-114641.04677928053,-114413.01428234749,-129491.67990585326,-147306.78019604448,-138118.4474371013,-187500.02235174447,-187500.02235174447,1729461302.3601649,1729461297.643032,1000
-143564.22645619232,-114569.87882493483,-114412.23197129155,-129498.5195396566,-147313.88805078127,-138124.57181508205,-187500.02235174447,-187500.02235174447,1729461302.3651793,1729461297.643032,1000
-143561.70070906886,-114554.97021138314,-114410.57794220185,-129494.29505995454,-147311.3176001689,-138121.46492260278,-187500.02235174447,-187500.02235174447,1729461302.3690896,1729461297.643032,1000
-143547.127371684,-114610.98368298814,-114420.79268941793,-129484.23677494965,-147298.15242268474,-138108.56796605207,-187500.02235174447,-187500.02235174447,1729461302.3731847,1729461297.643032,1000
-143542.94759547088,-114624.7076540837,-114406.66638692218,-129481.19693770373,-147294.79966101644,-138104.835224728,-187500.02235174447,-187500.02235174447,1729461302.3773737,1729461297.643032,1000
-143554.6822613099,-114558.94882189618,-114406.93460785564,-129491.18816747525,-147305.3720361438,-138114.26766088817,-187500.02235174447,-187500.02235174447,1729461302.3821945,1729461297.643032,1000
-143554.36933688752,-114528.90807734826,-114407.001663089,-129488.81888256299,-147304.5673733434,-138112.9042044764,-187500.02235174447,-187500.02235174447,1729461302.385081,1729461297.643032,1000
-143538.1196186685,-114578.66306050576,-114415.38356725975,-129476.99480974613,-147289.59170455835,-138098.01794266916,-187500.02235174447,-187500.02235174447,1729461302.3881269,1729461297.643032,1000
